Created as New Dataset,
cm-1,A
4000.00,0.3758
3999.00,0.3756
3998.00,0.3755
3997.00,0.3755
3996.00,0.3754
3995.00,0.3753
3994.00,0.3752
3993.00,0.3750
3992.00,0.3748
3991.00,0.3745
3990.00,0.3743
3989.00,0.3739
3988.00,0.3735
3987.00,0.3730
3986.00,0.3725
3985.00,0.3719
3984.00,0.3713
3983.00,0.3708
3982.00,0.3703
3981.00,0.3699
3980.00,0.3695
3979.00,0.3691
3978.00,0.3687
3977.00,0.3683
3976.00,0.3679
3975.00,0.3675
3974.00,0.3672
3973.00,0.3668
3972.00,0.3665
3971.00,0.3661
3970.00,0.3656
3969.00,0.3652
3968.00,0.3648
3967.00,0.3644
3966.00,0.3639
3965.00,0.3634
3964.00,0.3628
3963.00,0.3622
3962.00,0.3616
3961.00,0.3611
3960.00,0.3606
3959.00,0.3601
3958.00,0.3596
3957.00,0.3592
3956.00,0.3588
3955.00,0.3583
3954.00,0.3579
3953.00,0.3576
3952.00,0.3573
3951.00,0.3570
3950.00,0.3567
3949.00,0.3564
3948.00,0.3561
3947.00,0.3559
3946.00,0.3556
3945.00,0.3554
3944.00,0.3551
3943.00,0.3549
3942.00,0.3547
3941.00,0.3545
3940.00,0.3544
3939.00,0.3543
3938.00,0.3542
3937.00,0.3542
3936.00,0.3542
3935.00,0.3541
3934.00,0.3541
3933.00,0.3540
3932.00,0.3539
3931.00,0.3539
3930.00,0.3538
3929.00,0.3538
3928.00,0.3538
3927.00,0.3538
3926.00,0.3538
3925.00,0.3538
3924.00,0.3538
3923.00,0.3537
3922.00,0.3537
3921.00,0.3536
3920.00,0.3536
3919.00,0.3536
3918.00,0.3536
3917.00,0.3535
3916.00,0.3534
3915.00,0.3533
3914.00,0.3531
3913.00,0.3530
3912.00,0.3528
3911.00,0.3527
3910.00,0.3526
3909.00,0.3524
3908.00,0.3523
3907.00,0.3522
3906.00,0.3520
3905.00,0.3519
3904.00,0.3518
3903.00,0.3517
3902.00,0.3516
3901.00,0.3516
3900.00,0.3515
3899.00,0.3515
3898.00,0.3514
3897.00,0.3513
3896.00,0.3512
3895.00,0.3511
3894.00,0.3510
3893.00,0.3508
3892.00,0.3507
3891.00,0.3506
3890.00,0.3505
3889.00,0.3503
3888.00,0.3501
3887.00,0.3498
3886.00,0.3496
3885.00,0.3495
3884.00,0.3494
3883.00,0.3493
3882.00,0.3492
3881.00,0.3491
3880.00,0.3491
3879.00,0.3490
3878.00,0.3489
3877.00,0.3487
3876.00,0.3484
3875.00,0.3483
3874.00,0.3483
3873.00,0.3482
3872.00,0.3480
3871.00,0.3477
3870.00,0.3476
3869.00,0.3476
3868.00,0.3475
3867.00,0.3474
3866.00,0.3473
3865.00,0.3472
3864.00,0.3472
3863.00,0.3472
3862.00,0.3471
3861.00,0.3469
3860.00,0.3468
3859.00,0.3467
3858.00,0.3467
3857.00,0.3467
3856.00,0.3466
3855.00,0.3465
3854.00,0.3466
3853.00,0.3467
3852.00,0.3467
3851.00,0.3466
3850.00,0.3465
3849.00,0.3465
3848.00,0.3465
3847.00,0.3466
3846.00,0.3465
3845.00,0.3464
3844.00,0.3463
3843.00,0.3461
3842.00,0.3460
3841.00,0.3458
3840.00,0.3456
3839.00,0.3455
3838.00,0.3454
3837.00,0.3453
3836.00,0.3451
3835.00,0.3449
3834.00,0.3447
3833.00,0.3446
3832.00,0.3444
3831.00,0.3443
3830.00,0.3442
3829.00,0.3441
3828.00,0.3440
3827.00,0.3439
3826.00,0.3438
3825.00,0.3437
3824.00,0.3436
3823.00,0.3434
3822.00,0.3433
3821.00,0.3432
3820.00,0.3432
3819.00,0.3431
3818.00,0.3428
3817.00,0.3427
3816.00,0.3426
3815.00,0.3426
3814.00,0.3424
3813.00,0.3421
3812.00,0.3418
3811.00,0.3416
3810.00,0.3414
3809.00,0.3412
3808.00,0.3408
3807.00,0.3406
3806.00,0.3404
3805.00,0.3402
3804.00,0.3400
3803.00,0.3397
3802.00,0.3395
3801.00,0.3395
3800.00,0.3393
3799.00,0.3391
3798.00,0.3388
3797.00,0.3385
3796.00,0.3384
3795.00,0.3383
3794.00,0.3381
3793.00,0.3379
3792.00,0.3377
3791.00,0.3376
3790.00,0.3376
3789.00,0.3376
3788.00,0.3376
3787.00,0.3375
3786.00,0.3375
3785.00,0.3375
3784.00,0.3375
3783.00,0.3375
3782.00,0.3375
3781.00,0.3375
3780.00,0.3375
3779.00,0.3375
3778.00,0.3375
3777.00,0.3375
3776.00,0.3375
3775.00,0.3375
3774.00,0.3374
3773.00,0.3373
3772.00,0.3372
3771.00,0.3370
3770.00,0.3370
3769.00,0.3369
3768.00,0.3368
3767.00,0.3367
3766.00,0.3365
3765.00,0.3364
3764.00,0.3363
3763.00,0.3362
3762.00,0.3360
3761.00,0.3358
3760.00,0.3357
3759.00,0.3355
3758.00,0.3353
3757.00,0.3352
3756.00,0.3351
3755.00,0.3350
3754.00,0.3349
3753.00,0.3349
3752.00,0.3349
3751.00,0.3348
3750.00,0.3348
3749.00,0.3348
3748.00,0.3349
3747.00,0.3349
3746.00,0.3348
3745.00,0.3348
3744.00,0.3349
3743.00,0.3349
3742.00,0.3347
3741.00,0.3346
3740.00,0.3345
3739.00,0.3344
3738.00,0.3343
3737.00,0.3340
3736.00,0.3338
3735.00,0.3336
3734.00,0.3334
3733.00,0.3332
3732.00,0.3331
3731.00,0.3329
3730.00,0.3328
3729.00,0.3326
3728.00,0.3324
3727.00,0.3323
3726.00,0.3322
3725.00,0.3321
3724.00,0.3320
3723.00,0.3319
3722.00,0.3319
3721.00,0.3318
3720.00,0.3317
3719.00,0.3316
3718.00,0.3315
3717.00,0.3315
3716.00,0.3315
3715.00,0.3315
3714.00,0.3316
3713.00,0.3317
3712.00,0.3318
3711.00,0.3320
3710.00,0.3322
3709.00,0.3324
3708.00,0.3326
3707.00,0.3327
3706.00,0.3327
3705.00,0.3328
3704.00,0.3329
3703.00,0.3330
3702.00,0.3331
3701.00,0.3332
3700.00,0.3332
3699.00,0.3332
3698.00,0.3332
3697.00,0.3333
3696.00,0.3333
3695.00,0.3334
3694.00,0.3334
3693.00,0.3334
3692.00,0.3334
3691.00,0.3335
3690.00,0.3334
3689.00,0.3334
3688.00,0.3335
3687.00,0.3335
3686.00,0.3336
3685.00,0.3337
3684.00,0.3338
3683.00,0.3340
3682.00,0.3341
3681.00,0.3341
3680.00,0.3342
3679.00,0.3343
3678.00,0.3343
3677.00,0.3342
3676.00,0.3342
3675.00,0.3343
3674.00,0.3344
3673.00,0.3344
3672.00,0.3344
3671.00,0.3345
3670.00,0.3347
3669.00,0.3349
3668.00,0.3350
3667.00,0.3350
3666.00,0.3351
3665.00,0.3353
3664.00,0.3355
3663.00,0.3357
3662.00,0.3359
3661.00,0.3361
3660.00,0.3363
3659.00,0.3365
3658.00,0.3366
3657.00,0.3368
3656.00,0.3370
3655.00,0.3373
3654.00,0.3376
3653.00,0.3379
3652.00,0.3383
3651.00,0.3386
3650.00,0.3390
3649.00,0.3394
3648.00,0.3397
3647.00,0.3400
3646.00,0.3404
3645.00,0.3408
3644.00,0.3412
3643.00,0.3417
3642.00,0.3423
3641.00,0.3429
3640.00,0.3436
3639.00,0.3442
3638.00,0.3450
3637.00,0.3457
3636.00,0.3466
3635.00,0.3474
3634.00,0.3483
3633.00,0.3493
3632.00,0.3505
3631.00,0.3519
3630.00,0.3538
3629.00,0.3564
3628.00,0.3591
3627.00,0.3615
3626.00,0.3633
3625.00,0.3645
3624.00,0.3649
3623.00,0.3645
3622.00,0.3631
3621.00,0.3611
3620.00,0.3585
3619.00,0.3558
3618.00,0.3533
3617.00,0.3511
3616.00,0.3495
3615.00,0.3483
3614.00,0.3475
3613.00,0.3471
3612.00,0.3469
3611.00,0.3468
3610.00,0.3468
3609.00,0.3468
3608.00,0.3469
3607.00,0.3470
3606.00,0.3469
3605.00,0.3467
3604.00,0.3464
3603.00,0.3459
3602.00,0.3453
3601.00,0.3445
3600.00,0.3436
3599.00,0.3426
3598.00,0.3416
3597.00,0.3405
3596.00,0.3395
3595.00,0.3384
3594.00,0.3374
3593.00,0.3365
3592.00,0.3357
3591.00,0.3350
3590.00,0.3343
3589.00,0.3337
3588.00,0.3331
3587.00,0.3325
3586.00,0.3320
3585.00,0.3315
3584.00,0.3311
3583.00,0.3307
3582.00,0.3302
3581.00,0.3297
3580.00,0.3292
3579.00,0.3286
3578.00,0.3282
3577.00,0.3278
3576.00,0.3275
3575.00,0.3273
3574.00,0.3271
3573.00,0.3270
3572.00,0.3269
3571.00,0.3268
3570.00,0.3267
3569.00,0.3267
3568.00,0.3267
3567.00,0.3268
3566.00,0.3268
3565.00,0.3269
3564.00,0.3270
3563.00,0.3271
3562.00,0.3272
3561.00,0.3274
3560.00,0.3275
3559.00,0.3275
3558.00,0.3276
3557.00,0.3277
3556.00,0.3279
3555.00,0.3280
3554.00,0.3282
3553.00,0.3285
3552.00,0.3288
3551.00,0.3291
3550.00,0.3293
3549.00,0.3296
3548.00,0.3300
3547.00,0.3304
3546.00,0.3309
3545.00,0.3313
3544.00,0.3318
3543.00,0.3322
3542.00,0.3327
3541.00,0.3332
3540.00,0.3336
3539.00,0.3341
3538.00,0.3346
3537.00,0.3351
3536.00,0.3357
3535.00,0.3362
3534.00,0.3367
3533.00,0.3372
3532.00,0.3377
3531.00,0.3383
3530.00,0.3389
3529.00,0.3396
3528.00,0.3402
3527.00,0.3408
3526.00,0.3415
3525.00,0.3422
3524.00,0.3428
3523.00,0.3435
3522.00,0.3441
3521.00,0.3447
3520.00,0.3453
3519.00,0.3460
3518.00,0.3466
3517.00,0.3473
3516.00,0.3479
3515.00,0.3486
3514.00,0.3494
3513.00,0.3502
3512.00,0.3510
3511.00,0.3519
3510.00,0.3528
3509.00,0.3537
3508.00,0.3546
3507.00,0.3555
3506.00,0.3564
3505.00,0.3572
3504.00,0.3581
3503.00,0.3590
3502.00,0.3599
3501.00,0.3608
3500.00,0.3617
3499.00,0.3626
3498.00,0.3635
3497.00,0.3645
3496.00,0.3654
3495.00,0.3665
3494.00,0.3675
3493.00,0.3685
3492.00,0.3696
3491.00,0.3707
3490.00,0.3717
3489.00,0.3728
3488.00,0.3738
3487.00,0.3749
3486.00,0.3760
3485.00,0.3772
3484.00,0.3785
3483.00,0.3797
3482.00,0.3808
3481.00,0.3819
3480.00,0.3830
3479.00,0.3842
3478.00,0.3853
3477.00,0.3866
3476.00,0.3878
3475.00,0.3892
3474.00,0.3905
3473.00,0.3918
3472.00,0.3931
3471.00,0.3944
3470.00,0.3957
3469.00,0.3971
3468.00,0.3985
3467.00,0.3999
3466.00,0.4014
3465.00,0.4029
3464.00,0.4044
3463.00,0.4059
3462.00,0.4074
3461.00,0.4089
3460.00,0.4105
3459.00,0.4121
3458.00,0.4138
3457.00,0.4155
3456.00,0.4172
3455.00,0.4190
3454.00,0.4209
3453.00,0.4228
3452.00,0.4247
3451.00,0.4267
3450.00,0.4289
3449.00,0.4312
3448.00,0.4337
3447.00,0.4363
3446.00,0.4390
3445.00,0.4418
3444.00,0.4447
3443.00,0.4477
3442.00,0.4508
3441.00,0.4537
3440.00,0.4566
3439.00,0.4593
3438.00,0.4619
3437.00,0.4643
3436.00,0.4665
3435.00,0.4685
3434.00,0.4703
3433.00,0.4720
3432.00,0.4736
3431.00,0.4752
3430.00,0.4768
3429.00,0.4783
3428.00,0.4797
3427.00,0.4810
3426.00,0.4823
3425.00,0.4836
3424.00,0.4851
3423.00,0.4865
3422.00,0.4879
3421.00,0.4893
3420.00,0.4907
3419.00,0.4922
3418.00,0.4937
3417.00,0.4954
3416.00,0.4970
3415.00,0.4987
3414.00,0.5003
3413.00,0.5020
3412.00,0.5036
3411.00,0.5053
3410.00,0.5070
3409.00,0.5088
3408.00,0.5106
3407.00,0.5123
3406.00,0.5141
3405.00,0.5158
3404.00,0.5176
3403.00,0.5195
3402.00,0.5213
3401.00,0.5231
3400.00,0.5249
3399.00,0.5265
3398.00,0.5282
3397.00,0.5298
3396.00,0.5315
3395.00,0.5331
3394.00,0.5348
3393.00,0.5364
3392.00,0.5380
3391.00,0.5396
3390.00,0.5411
3389.00,0.5426
3388.00,0.5440
3387.00,0.5454
3386.00,0.5468
3385.00,0.5483
3384.00,0.5497
3383.00,0.5512
3382.00,0.5527
3381.00,0.5542
3380.00,0.5557
3379.00,0.5572
3378.00,0.5587
3377.00,0.5602
3376.00,0.5616
3375.00,0.5631
3374.00,0.5646
3373.00,0.5661
3372.00,0.5677
3371.00,0.5692
3370.00,0.5708
3369.00,0.5722
3368.00,0.5737
3367.00,0.5751
3366.00,0.5765
3365.00,0.5780
3364.00,0.5794
3363.00,0.5809
3362.00,0.5824
3361.00,0.5840
3360.00,0.5855
3359.00,0.5869
3358.00,0.5882
3357.00,0.5896
3356.00,0.5909
3355.00,0.5923
3354.00,0.5937
3353.00,0.5952
3352.00,0.5965
3351.00,0.5978
3350.00,0.5990
3349.00,0.6001
3348.00,0.6012
3347.00,0.6023
3346.00,0.6033
3345.00,0.6043
3344.00,0.6052
3343.00,0.6061
3342.00,0.6071
3341.00,0.6079
3340.00,0.6085
3339.00,0.6091
3338.00,0.6096
3337.00,0.6101
3336.00,0.6105
3335.00,0.6107
3334.00,0.6108
3333.00,0.6109
3332.00,0.6109
3331.00,0.6108
3330.00,0.6105
3329.00,0.6102
3328.00,0.6098
3327.00,0.6093
3326.00,0.6088
3325.00,0.6084
3324.00,0.6079
3323.00,0.6073
3322.00,0.6066
3321.00,0.6059
3320.00,0.6051
3319.00,0.6041
3318.00,0.6032
3317.00,0.6022
3316.00,0.6013
3315.00,0.6004
3314.00,0.5995
3313.00,0.5985
3312.00,0.5975
3311.00,0.5965
3310.00,0.5956
3309.00,0.5946
3308.00,0.5937
3307.00,0.5929
3306.00,0.5922
3305.00,0.5915
3304.00,0.5907
3303.00,0.5900
3302.00,0.5892
3301.00,0.5885
3300.00,0.5878
3299.00,0.5872
3298.00,0.5867
3297.00,0.5862
3296.00,0.5858
3295.00,0.5855
3294.00,0.5852
3293.00,0.5849
3292.00,0.5846
3291.00,0.5844
3290.00,0.5841
3289.00,0.5840
3288.00,0.5839
3287.00,0.5838
3286.00,0.5838
3285.00,0.5837
3284.00,0.5837
3283.00,0.5837
3282.00,0.5838
3281.00,0.5839
3280.00,0.5841
3279.00,0.5842
3278.00,0.5843
3277.00,0.5845
3276.00,0.5846
3275.00,0.5848
3274.00,0.5850
3273.00,0.5852
3272.00,0.5854
3271.00,0.5856
3270.00,0.5858
3269.00,0.5860
3268.00,0.5862
3267.00,0.5864
3266.00,0.5867
3265.00,0.5869
3264.00,0.5870
3263.00,0.5871
3262.00,0.5871
3261.00,0.5871
3260.00,0.5871
3259.00,0.5871
3258.00,0.5870
3257.00,0.5869
3256.00,0.5867
3255.00,0.5864
3254.00,0.5863
3253.00,0.5861
3252.00,0.5858
3251.00,0.5854
3250.00,0.5850
3249.00,0.5844
3248.00,0.5839
3247.00,0.5832
3246.00,0.5826
3245.00,0.5819
3244.00,0.5812
3243.00,0.5804
3242.00,0.5797
3241.00,0.5789
3240.00,0.5782
3239.00,0.5773
3238.00,0.5762
3237.00,0.5752
3236.00,0.5741
3235.00,0.5730
3234.00,0.5719
3233.00,0.5708
3232.00,0.5696
3231.00,0.5684
3230.00,0.5672
3229.00,0.5660
3228.00,0.5648
3227.00,0.5636
3226.00,0.5623
3225.00,0.5610
3224.00,0.5596
3223.00,0.5583
3222.00,0.5569
3221.00,0.5555
3220.00,0.5541
3219.00,0.5527
3218.00,0.5513
3217.00,0.5499
3216.00,0.5485
3215.00,0.5470
3214.00,0.5456
3213.00,0.5442
3212.00,0.5430
3211.00,0.5418
3210.00,0.5406
3209.00,0.5393
3208.00,0.5380
3207.00,0.5367
3206.00,0.5354
3205.00,0.5341
3204.00,0.5328
3203.00,0.5315
3202.00,0.5302
3201.00,0.5289
3200.00,0.5277
3199.00,0.5264
3198.00,0.5252
3197.00,0.5239
3196.00,0.5225
3195.00,0.5210
3194.00,0.5195
3193.00,0.5181
3192.00,0.5167
3191.00,0.5153
3190.00,0.5140
3189.00,0.5126
3188.00,0.5112
3187.00,0.5098
3186.00,0.5082
3185.00,0.5067
3184.00,0.5051
3183.00,0.5036
3182.00,0.5021
3181.00,0.5006
3180.00,0.4991
3179.00,0.4976
3178.00,0.4962
3177.00,0.4947
3176.00,0.4933
3175.00,0.4918
3174.00,0.4904
3173.00,0.4889
3172.00,0.4875
3171.00,0.4861
3170.00,0.4847
3169.00,0.4834
3168.00,0.4821
3167.00,0.4808
3166.00,0.4796
3165.00,0.4785
3164.00,0.4773
3163.00,0.4760
3162.00,0.4748
3161.00,0.4736
3160.00,0.4725
3159.00,0.4715
3158.00,0.4705
3157.00,0.4695
3156.00,0.4684
3155.00,0.4674
3154.00,0.4664
3153.00,0.4653
3152.00,0.4643
3151.00,0.4633
3150.00,0.4623
3149.00,0.4614
3148.00,0.4606
3147.00,0.4598
3146.00,0.4591
3145.00,0.4583
3144.00,0.4576
3143.00,0.4568
3142.00,0.4561
3141.00,0.4554
3140.00,0.4547
3139.00,0.4540
3138.00,0.4534
3137.00,0.4529
3136.00,0.4524
3135.00,0.4519
3134.00,0.4514
3133.00,0.4509
3132.00,0.4503
3131.00,0.4498
3130.00,0.4493
3129.00,0.4488
3128.00,0.4484
3127.00,0.4480
3126.00,0.4477
3125.00,0.4474
3124.00,0.4471
3123.00,0.4469
3122.00,0.4467
3121.00,0.4466
3120.00,0.4466
3119.00,0.4465
3118.00,0.4466
3117.00,0.4466
3116.00,0.4468
3115.00,0.4470
3114.00,0.4473
3113.00,0.4477
3112.00,0.4481
3111.00,0.4486
3110.00,0.4492
3109.00,0.4498
3108.00,0.4504
3107.00,0.4511
3106.00,0.4519
3105.00,0.4528
3104.00,0.4537
3103.00,0.4546
3102.00,0.4555
3101.00,0.4565
3100.00,0.4574
3099.00,0.4584
3098.00,0.4593
3097.00,0.4602
3096.00,0.4611
3095.00,0.4620
3094.00,0.4628
3093.00,0.4637
3092.00,0.4646
3091.00,0.4656
3090.00,0.4667
3089.00,0.4678
3088.00,0.4690
3087.00,0.4702
3086.00,0.4715
3085.00,0.4729
3084.00,0.4743
3083.00,0.4758
3082.00,0.4775
3081.00,0.4792
3080.00,0.4810
3079.00,0.4830
3078.00,0.4850
3077.00,0.4872
3076.00,0.4896
3075.00,0.4920
3074.00,0.4946
3073.00,0.4973
3072.00,0.5002
3071.00,0.5032
3070.00,0.5064
3069.00,0.5097
3068.00,0.5130
3067.00,0.5164
3066.00,0.5198
3065.00,0.5233
3064.00,0.5269
3063.00,0.5305
3062.00,0.5342
3061.00,0.5379
3060.00,0.5417
3059.00,0.5454
3058.00,0.5492
3057.00,0.5528
3056.00,0.5563
3055.00,0.5597
3054.00,0.5629
3053.00,0.5661
3052.00,0.5692
3051.00,0.5722
3050.00,0.5752
3049.00,0.5783
3048.00,0.5814
3047.00,0.5846
3046.00,0.5879
3045.00,0.5914
3044.00,0.5951
3043.00,0.5990
3042.00,0.6030
3041.00,0.6073
3040.00,0.6118
3039.00,0.6166
3038.00,0.6216
3037.00,0.6270
3036.00,0.6326
3035.00,0.6384
3034.00,0.6445
3033.00,0.6507
3032.00,0.6571
3031.00,0.6635
3030.00,0.6699
3029.00,0.6763
3028.00,0.6826
3027.00,0.6890
3026.00,0.6955
3025.00,0.7021
3024.00,0.7087
3023.00,0.7154
3022.00,0.7224
3021.00,0.7295
3020.00,0.7370
3019.00,0.7446
3018.00,0.7526
3017.00,0.7610
3016.00,0.7698
3015.00,0.7792
3014.00,0.7892
3013.00,0.7997
3012.00,0.8107
3011.00,0.8223
3010.00,0.8346
3009.00,0.8476
3008.00,0.8614
3007.00,0.8758
3006.00,0.8912
3005.00,0.9074
3004.00,0.9245
3003.00,0.9424
3002.00,0.9612
3001.00,0.9811
3000.00,1.0024
2999.00,1.0250
2998.00,1.0491
2997.00,1.0749
2996.00,1.1024
2995.00,1.1318
2994.00,1.1630
2993.00,1.1964
2992.00,1.2321
2991.00,1.2706
2990.00,1.3124
2989.00,1.3578
2988.00,1.4074
2987.00,1.4617
2986.00,1.5212
2985.00,1.5863
2984.00,1.6576
2983.00,1.7359
2982.00,1.8219
2981.00,1.9161
2980.00,2.0192
2979.00,2.1328
2978.00,2.2582
2977.00,2.3930
2976.00,2.5317
2975.00,2.6686
2974.00,2.8015
2973.00,2.9288
2972.00,3.0428
2971.00,3.1322
2970.00,3.1852
2969.00,3.1997
2968.00,3.1937
2967.00,3.1924
2966.00,3.2039
2965.00,3.2154
2964.00,3.2230
2963.00,3.2462
2962.00,3.3017
2961.00,3.3695
2960.00,3.3947
2959.00,3.3573
2958.00,3.2998
2957.00,3.2639
2956.00,3.2643
2955.00,3.2971
2954.00,3.3416
2953.00,3.3702
2952.00,3.3670
2951.00,3.3390
2950.00,3.2992
2949.00,3.2586
2948.00,3.2313
2947.00,3.2293
2946.00,3.2536
2945.00,3.2856
2944.00,3.2954
2943.00,3.2731
2942.00,3.2386
2941.00,3.2158
2940.00,3.2183
2939.00,3.2499
2938.00,3.3011
2937.00,3.3519
2936.00,3.3864
2935.00,3.4128
2934.00,3.4513
2933.00,3.5060
2932.00,3.5609
2931.00,3.5947
2930.00,3.6035
2929.00,3.5930
2928.00,3.5681
2927.00,3.5336
2926.00,3.4893
2925.00,3.4384
2924.00,3.4004
2923.00,3.3990
2922.00,3.4340
2921.00,3.4700
2920.00,3.4684
2919.00,3.4352
2918.00,3.3984
2917.00,3.3699
2916.00,3.3552
2915.00,3.3688
2914.00,3.4215
2913.00,3.4918
2912.00,3.5321
2911.00,3.5264
2910.00,3.4852
2909.00,3.4272
2908.00,3.3694
2907.00,3.3374
2906.00,3.3415
2905.00,3.3696
2904.00,3.4020
2903.00,3.4208
2902.00,3.4239
2901.00,3.4253
2900.00,3.4379
2899.00,3.4572
2898.00,3.4512
2897.00,3.3965
2896.00,3.3200
2895.00,3.2660
2894.00,3.2567
2893.00,3.2890
2892.00,3.3461
2891.00,3.4035
2890.00,3.4300
2889.00,3.4114
2888.00,3.3644
2887.00,3.3143
2886.00,3.2707
2885.00,3.2345
2884.00,3.2142
2883.00,3.2167
2882.00,3.2377
2881.00,3.2618
2880.00,3.2763
2879.00,3.2806
2878.00,3.2781
2877.00,3.2723
2876.00,3.2714
2875.00,3.2823
2874.00,3.2984
2873.00,3.3052
2872.00,3.3013
2871.00,3.3014
2870.00,3.3154
2869.00,3.3436
2868.00,3.3821
2867.00,3.4175
2866.00,3.4270
2865.00,3.3995
2864.00,3.3621
2863.00,3.3472
2862.00,3.3610
2861.00,3.3979
2860.00,3.4579
2859.00,3.5449
2858.00,3.6200
2857.00,3.6066
2856.00,3.5240
2855.00,3.4571
2854.00,3.4379
2853.00,3.4464
2852.00,3.4452
2851.00,3.4209
2850.00,3.3899
2849.00,3.3659
2848.00,3.3512
2847.00,3.3431
2846.00,3.3361
2845.00,3.3244
2844.00,3.3144
2843.00,3.3142
2842.00,3.3041
2841.00,3.2525
2840.00,3.1655
2839.00,3.0644
2838.00,2.9470
2837.00,2.8057
2836.00,2.6519
2835.00,2.5017
2834.00,2.3615
2833.00,2.2319
2832.00,2.1133
2831.00,2.0058
2830.00,1.9091
2829.00,1.8222
2828.00,1.7442
2827.00,1.6743
2826.00,1.6110
2825.00,1.5528
2824.00,1.4989
2823.00,1.4493
2822.00,1.4038
2821.00,1.3617
2820.00,1.3226
2819.00,1.2862
2818.00,1.2523
2817.00,1.2207
2816.00,1.1911
2815.00,1.1633
2814.00,1.1370
2813.00,1.1119
2812.00,1.0881
2811.00,1.0655
2810.00,1.0439
2809.00,1.0231
2808.00,1.0028
2807.00,0.9831
2806.00,0.9639
2805.00,0.9455
2804.00,0.9278
2803.00,0.9106
2802.00,0.8940
2801.00,0.8777
2800.00,0.8619
2799.00,0.8469
2798.00,0.8325
2797.00,0.8188
2796.00,0.8056
2795.00,0.7931
2794.00,0.7811
2793.00,0.7698
2792.00,0.7591
2791.00,0.7489
2790.00,0.7393
2789.00,0.7300
2788.00,0.7210
2787.00,0.7121
2786.00,0.7033
2785.00,0.6946
2784.00,0.6858
2783.00,0.6772
2782.00,0.6686
2781.00,0.6602
2780.00,0.6520
2779.00,0.6440
2778.00,0.6363
2777.00,0.6289
2776.00,0.6219
2775.00,0.6152
2774.00,0.6090
2773.00,0.6032
2772.00,0.5978
2771.00,0.5929
2770.00,0.5884
2769.00,0.5844
2768.00,0.5808
2767.00,0.5775
2766.00,0.5747
2765.00,0.5723
2764.00,0.5702
2763.00,0.5684
2762.00,0.5668
2761.00,0.5654
2760.00,0.5642
2759.00,0.5632
2758.00,0.5623
2757.00,0.5616
2756.00,0.5611
2755.00,0.5609
2754.00,0.5609
2753.00,0.5612
2752.00,0.5616
2751.00,0.5621
2750.00,0.5627
2749.00,0.5636
2748.00,0.5646
2747.00,0.5658
2746.00,0.5673
2745.00,0.5688
2744.00,0.5706
2743.00,0.5725
2742.00,0.5747
2741.00,0.5772
2740.00,0.5801
2739.00,0.5834
2738.00,0.5872
2737.00,0.5916
2736.00,0.5963
2735.00,0.6014
2734.00,0.6065
2733.00,0.6111
2732.00,0.6147
2731.00,0.6167
2730.00,0.6165
2729.00,0.6143
2728.00,0.6102
2727.00,0.6049
2726.00,0.5990
2725.00,0.5930
2724.00,0.5874
2723.00,0.5825
2722.00,0.5784
2721.00,0.5750
2720.00,0.5723
2719.00,0.5700
2718.00,0.5680
2717.00,0.5662
2716.00,0.5642
2715.00,0.5621
2714.00,0.5597
2713.00,0.5570
2712.00,0.5542
2711.00,0.5515
2710.00,0.5490
2709.00,0.5466
2708.00,0.5445
2707.00,0.5427
2706.00,0.5410
2705.00,0.5397
2704.00,0.5385
2703.00,0.5377
2702.00,0.5371
2701.00,0.5368
2700.00,0.5368
2699.00,0.5371
2698.00,0.5376
2697.00,0.5385
2696.00,0.5395
2695.00,0.5409
2694.00,0.5425
2693.00,0.5442
2692.00,0.5460
2691.00,0.5479
2690.00,0.5497
2689.00,0.5515
2688.00,0.5531
2687.00,0.5545
2686.00,0.5557
2685.00,0.5567
2684.00,0.5574
2683.00,0.5579
2682.00,0.5584
2681.00,0.5588
2680.00,0.5592
2679.00,0.5595
2678.00,0.5599
2677.00,0.5602
2676.00,0.5606
2675.00,0.5609
2674.00,0.5611
2673.00,0.5610
2672.00,0.5607
2671.00,0.5601
2670.00,0.5592
2669.00,0.5578
2668.00,0.5560
2667.00,0.5539
2666.00,0.5513
2665.00,0.5484
2664.00,0.5453
2663.00,0.5421
2662.00,0.5390
2661.00,0.5361
2660.00,0.5333
2659.00,0.5306
2658.00,0.5280
2657.00,0.5255
2656.00,0.5231
2655.00,0.5207
2654.00,0.5183
2653.00,0.5161
2652.00,0.5139
2651.00,0.5119
2650.00,0.5099
2649.00,0.5081
2648.00,0.5063
2647.00,0.5046
2646.00,0.5030
2645.00,0.5014
2644.00,0.4998
2643.00,0.4983
2642.00,0.4970
2641.00,0.4957
2640.00,0.4945
2639.00,0.4932
2638.00,0.4920
2637.00,0.4909
2636.00,0.4897
2635.00,0.4886
2634.00,0.4874
2633.00,0.4862
2632.00,0.4849
2631.00,0.4835
2630.00,0.4821
2629.00,0.4808
2628.00,0.4793
2627.00,0.4779
2626.00,0.4765
2625.00,0.4751
2624.00,0.4737
2623.00,0.4724
2622.00,0.4712
2621.00,0.4701
2620.00,0.4690
2619.00,0.4678
2618.00,0.4667
2617.00,0.4656
2616.00,0.4645
2615.00,0.4634
2614.00,0.4622
2613.00,0.4611
2612.00,0.4600
2611.00,0.4589
2610.00,0.4579
2609.00,0.4570
2608.00,0.4560
2607.00,0.4550
2606.00,0.4540
2605.00,0.4530
2604.00,0.4521
2603.00,0.4511
2602.00,0.4501
2601.00,0.4490
2600.00,0.4480
2599.00,0.4469
2598.00,0.4457
2597.00,0.4444
2596.00,0.4431
2595.00,0.4418
2594.00,0.4405
2593.00,0.4392
2592.00,0.4379
2591.00,0.4366
2590.00,0.4354
2589.00,0.4341
2588.00,0.4327
2587.00,0.4314
2586.00,0.4301
2585.00,0.4288
2584.00,0.4275
2583.00,0.4261
2582.00,0.4246
2581.00,0.4230
2580.00,0.4214
2579.00,0.4198
2578.00,0.4182
2577.00,0.4166
2576.00,0.4151
2575.00,0.4136
2574.00,0.4121
2573.00,0.4106
2572.00,0.4091
2571.00,0.4076
2570.00,0.4062
2569.00,0.4048
2568.00,0.4035
2567.00,0.4022
2566.00,0.4009
2565.00,0.3996
2564.00,0.3983
2563.00,0.3970
2562.00,0.3957
2561.00,0.3944
2560.00,0.3932
2559.00,0.3921
2558.00,0.3909
2557.00,0.3898
2556.00,0.3887
2555.00,0.3876
2554.00,0.3866
2553.00,0.3856
2552.00,0.3847
2551.00,0.3838
2550.00,0.3830
2549.00,0.3822
2548.00,0.3816
2547.00,0.3809
2546.00,0.3803
2545.00,0.3797
2544.00,0.3792
2543.00,0.3786
2542.00,0.3781
2541.00,0.3776
2540.00,0.3772
2539.00,0.3767
2538.00,0.3762
2537.00,0.3757
2536.00,0.3752
2535.00,0.3745
2534.00,0.3738
2533.00,0.3729
2532.00,0.3720
2531.00,0.3710
2530.00,0.3699
2529.00,0.3687
2528.00,0.3673
2527.00,0.3659
2526.00,0.3645
2525.00,0.3631
2524.00,0.3617
2523.00,0.3605
2522.00,0.3592
2521.00,0.3580
2520.00,0.3568
2519.00,0.3557
2518.00,0.3545
2517.00,0.3534
2516.00,0.3523
2515.00,0.3512
2514.00,0.3501
2513.00,0.3491
2512.00,0.3481
2511.00,0.3471
2510.00,0.3462
2509.00,0.3453
2508.00,0.3444
2507.00,0.3436
2506.00,0.3429
2505.00,0.3423
2504.00,0.3417
2503.00,0.3412
2502.00,0.3407
2501.00,0.3403
2500.00,0.3399
2499.00,0.3394
2498.00,0.3390
2497.00,0.3385
2496.00,0.3380
2495.00,0.3375
2494.00,0.3370
2493.00,0.3364
2492.00,0.3359
2491.00,0.3354
2490.00,0.3348
2489.00,0.3343
2488.00,0.3337
2487.00,0.3332
2486.00,0.3326
2485.00,0.3320
2484.00,0.3314
2483.00,0.3309
2482.00,0.3303
2481.00,0.3298
2480.00,0.3294
2479.00,0.3289
2478.00,0.3284
2477.00,0.3278
2476.00,0.3273
2475.00,0.3267
2474.00,0.3260
2473.00,0.3254
2472.00,0.3249
2471.00,0.3243
2470.00,0.3238
2469.00,0.3234
2468.00,0.3229
2467.00,0.3225
2466.00,0.3222
2465.00,0.3218
2464.00,0.3215
2463.00,0.3212
2462.00,0.3209
2461.00,0.3206
2460.00,0.3204
2459.00,0.3202
2458.00,0.3200
2457.00,0.3199
2456.00,0.3198
2455.00,0.3197
2454.00,0.3196
2453.00,0.3197
2452.00,0.3197
2451.00,0.3197
2450.00,0.3197
2449.00,0.3198
2448.00,0.3198
2447.00,0.3199
2446.00,0.3201
2445.00,0.3202
2444.00,0.3204
2443.00,0.3205
2442.00,0.3206
2441.00,0.3208
2440.00,0.3209
2439.00,0.3211
2438.00,0.3212
2437.00,0.3212
2436.00,0.3212
2435.00,0.3213
2434.00,0.3213
2433.00,0.3214
2432.00,0.3216
2431.00,0.3216
2430.00,0.3217
2429.00,0.3217
2428.00,0.3217
2427.00,0.3217
2426.00,0.3218
2425.00,0.3218
2424.00,0.3218
2423.00,0.3218
2422.00,0.3218
2421.00,0.3219
2420.00,0.3219
2419.00,0.3220
2418.00,0.3221
2417.00,0.3222
2416.00,0.3222
2415.00,0.3222
2414.00,0.3222
2413.00,0.3222
2412.00,0.3223
2411.00,0.3223
2410.00,0.3224
2409.00,0.3225
2408.00,0.3226
2407.00,0.3226
2406.00,0.3226
2405.00,0.3227
2404.00,0.3228
2403.00,0.3229
2402.00,0.3231
2401.00,0.3232
2400.00,0.3234
2399.00,0.3235
2398.00,0.3236
2397.00,0.3237
2396.00,0.3238
2395.00,0.3239
2394.00,0.3240
2393.00,0.3241
2392.00,0.3243
2391.00,0.3244
2390.00,0.3246
2389.00,0.3248
2388.00,0.3250
2387.00,0.3251
2386.00,0.3252
2385.00,0.3253
2384.00,0.3255
2383.00,0.3257
2382.00,0.3260
2381.00,0.3262
2380.00,0.3265
2379.00,0.3268
2378.00,0.3271
2377.00,0.3273
2376.00,0.3274
2375.00,0.3274
2374.00,0.3273
2373.00,0.3272
2372.00,0.3271
2371.00,0.3271
2370.00,0.3271
2369.00,0.3272
2368.00,0.3273
2367.00,0.3275
2366.00,0.3278
2365.00,0.3281
2364.00,0.3283
2363.00,0.3284
2362.00,0.3284
2361.00,0.3285
2360.00,0.3286
2359.00,0.3287
2358.00,0.3288
2357.00,0.3287
2356.00,0.3286
2355.00,0.3286
2354.00,0.3286
2353.00,0.3287
2352.00,0.3287
2351.00,0.3287
2350.00,0.3287
2349.00,0.3286
2348.00,0.3286
2347.00,0.3287
2346.00,0.3288
2345.00,0.3288
2344.00,0.3286
2343.00,0.3284
2342.00,0.3283
2341.00,0.3281
2340.00,0.3280
2339.00,0.3280
2338.00,0.3279
2337.00,0.3278
2336.00,0.3277
2335.00,0.3276
2334.00,0.3276
2333.00,0.3276
2332.00,0.3275
2331.00,0.3274
2330.00,0.3271
2329.00,0.3267
2328.00,0.3263
2327.00,0.3260
2326.00,0.3257
2325.00,0.3255
2324.00,0.3253
2323.00,0.3250
2322.00,0.3247
2321.00,0.3243
2320.00,0.3239
2319.00,0.3234
2318.00,0.3230
2317.00,0.3225
2316.00,0.3222
2315.00,0.3218
2314.00,0.3215
2313.00,0.3212
2312.00,0.3208
2311.00,0.3203
2310.00,0.3197
2309.00,0.3192
2308.00,0.3187
2307.00,0.3181
2306.00,0.3175
2305.00,0.3170
2304.00,0.3166
2303.00,0.3161
2302.00,0.3157
2301.00,0.3153
2300.00,0.3149
2299.00,0.3145
2298.00,0.3141
2297.00,0.3138
2296.00,0.3134
2295.00,0.3130
2294.00,0.3126
2293.00,0.3122
2292.00,0.3118
2291.00,0.3113
2290.00,0.3109
2289.00,0.3104
2288.00,0.3100
2287.00,0.3095
2286.00,0.3090
2285.00,0.3085
2284.00,0.3081
2283.00,0.3077
2282.00,0.3073
2281.00,0.3070
2280.00,0.3068
2279.00,0.3065
2278.00,0.3062
2277.00,0.3059
2276.00,0.3057
2275.00,0.3055
2274.00,0.3053
2273.00,0.3051
2272.00,0.3049
2271.00,0.3048
2270.00,0.3047
2269.00,0.3046
2268.00,0.3045
2267.00,0.3044
2266.00,0.3043
2265.00,0.3042
2264.00,0.3041
2263.00,0.3040
2262.00,0.3039
2261.00,0.3037
2260.00,0.3034
2259.00,0.3032
2258.00,0.3028
2257.00,0.3026
2256.00,0.3023
2255.00,0.3020
2254.00,0.3017
2253.00,0.3014
2252.00,0.3011
2251.00,0.3008
2250.00,0.3005
2249.00,0.3001
2248.00,0.2999
2247.00,0.2995
2246.00,0.2992
2245.00,0.2989
2244.00,0.2986
2243.00,0.2983
2242.00,0.2980
2241.00,0.2978
2240.00,0.2976
2239.00,0.2974
2238.00,0.2971
2237.00,0.2969
2236.00,0.2967
2235.00,0.2965
2234.00,0.2963
2233.00,0.2961
2232.00,0.2960
2231.00,0.2960
2230.00,0.2959
2229.00,0.2958
2228.00,0.2957
2227.00,0.2956
2226.00,0.2955
2225.00,0.2954
2224.00,0.2953
2223.00,0.2952
2222.00,0.2951
2221.00,0.2950
2220.00,0.2949
2219.00,0.2948
2218.00,0.2947
2217.00,0.2947
2216.00,0.2946
2215.00,0.2945
2214.00,0.2944
2213.00,0.2944
2212.00,0.2944
2211.00,0.2944
2210.00,0.2943
2209.00,0.2943
2208.00,0.2942
2207.00,0.2942
2206.00,0.2943
2205.00,0.2944
2204.00,0.2945
2203.00,0.2946
2202.00,0.2948
2201.00,0.2949
2200.00,0.2950
2199.00,0.2951
2198.00,0.2951
2197.00,0.2952
2196.00,0.2952
2195.00,0.2953
2194.00,0.2954
2193.00,0.2956
2192.00,0.2958
2191.00,0.2959
2190.00,0.2960
2189.00,0.2961
2188.00,0.2962
2187.00,0.2962
2186.00,0.2962
2185.00,0.2963
2184.00,0.2963
2183.00,0.2963
2182.00,0.2963
2181.00,0.2964
2180.00,0.2963
2179.00,0.2963
2178.00,0.2963
2177.00,0.2963
2176.00,0.2963
2175.00,0.2964
2174.00,0.2964
2173.00,0.2965
2172.00,0.2966
2171.00,0.2967
2170.00,0.2968
2169.00,0.2968
2168.00,0.2969
2167.00,0.2969
2166.00,0.2969
2165.00,0.2969
2164.00,0.2970
2163.00,0.2970
2162.00,0.2970
2161.00,0.2970
2160.00,0.2970
2159.00,0.2970
2158.00,0.2969
2157.00,0.2969
2156.00,0.2968
2155.00,0.2968
2154.00,0.2967
2153.00,0.2967
2152.00,0.2966
2151.00,0.2964
2150.00,0.2962
2149.00,0.2959
2148.00,0.2954
2147.00,0.2949
2146.00,0.2943
2145.00,0.2936
2144.00,0.2929
2143.00,0.2921
2142.00,0.2914
2141.00,0.2907
2140.00,0.2900
2139.00,0.2894
2138.00,0.2889
2137.00,0.2884
2136.00,0.2880
2135.00,0.2877
2134.00,0.2873
2133.00,0.2871
2132.00,0.2869
2131.00,0.2867
2130.00,0.2865
2129.00,0.2864
2128.00,0.2862
2127.00,0.2861
2126.00,0.2859
2125.00,0.2858
2124.00,0.2857
2123.00,0.2855
2122.00,0.2854
2121.00,0.2852
2120.00,0.2851
2119.00,0.2849
2118.00,0.2848
2117.00,0.2847
2116.00,0.2845
2115.00,0.2843
2114.00,0.2841
2113.00,0.2839
2112.00,0.2837
2111.00,0.2835
2110.00,0.2834
2109.00,0.2832
2108.00,0.2831
2107.00,0.2830
2106.00,0.2829
2105.00,0.2829
2104.00,0.2829
2103.00,0.2829
2102.00,0.2829
2101.00,0.2829
2100.00,0.2829
2099.00,0.2830
2098.00,0.2830
2097.00,0.2831
2096.00,0.2831
2095.00,0.2831
2094.00,0.2831
2093.00,0.2831
2092.00,0.2831
2091.00,0.2831
2090.00,0.2831
2089.00,0.2830
2088.00,0.2830
2087.00,0.2829
2086.00,0.2829
2085.00,0.2829
2084.00,0.2829
2083.00,0.2829
2082.00,0.2829
2081.00,0.2828
2080.00,0.2828
2079.00,0.2827
2078.00,0.2827
2077.00,0.2827
2076.00,0.2827
2075.00,0.2827
2074.00,0.2827
2073.00,0.2828
2072.00,0.2829
2071.00,0.2829
2070.00,0.2830
2069.00,0.2831
2068.00,0.2834
2067.00,0.2837
2066.00,0.2839
2065.00,0.2842
2064.00,0.2844
2063.00,0.2846
2062.00,0.2849
2061.00,0.2852
2060.00,0.2855
2059.00,0.2858
2058.00,0.2862
2057.00,0.2866
2056.00,0.2870
2055.00,0.2874
2054.00,0.2877
2053.00,0.2881
2052.00,0.2886
2051.00,0.2890
2050.00,0.2895
2049.00,0.2899
2048.00,0.2904
2047.00,0.2908
2046.00,0.2912
2045.00,0.2915
2044.00,0.2919
2043.00,0.2921
2042.00,0.2923
2041.00,0.2924
2040.00,0.2925
2039.00,0.2926
2038.00,0.2927
2037.00,0.2929
2036.00,0.2931
2035.00,0.2933
2034.00,0.2935
2033.00,0.2938
2032.00,0.2940
2031.00,0.2943
2030.00,0.2946
2029.00,0.2950
2028.00,0.2954
2027.00,0.2958
2026.00,0.2960
2025.00,0.2962
2024.00,0.2962
2023.00,0.2960
2022.00,0.2956
2021.00,0.2951
2020.00,0.2944
2019.00,0.2935
2018.00,0.2925
2017.00,0.2913
2016.00,0.2901
2015.00,0.2889
2014.00,0.2876
2013.00,0.2865
2012.00,0.2854
2011.00,0.2844
2010.00,0.2835
2009.00,0.2826
2008.00,0.2819
2007.00,0.2813
2006.00,0.2806
2005.00,0.2801
2004.00,0.2795
2003.00,0.2791
2002.00,0.2787
2001.00,0.2783
2000.00,0.2781
1999.00,0.2779
1998.00,0.2776
1997.00,0.2774
1996.00,0.2771
1995.00,0.2769
1994.00,0.2767
1993.00,0.2767
1992.00,0.2766
1991.00,0.2766
1990.00,0.2765
1989.00,0.2765
1988.00,0.2764
1987.00,0.2764
1986.00,0.2763
1985.00,0.2763
1984.00,0.2763
1983.00,0.2763
1982.00,0.2763
1981.00,0.2763
1980.00,0.2763
1979.00,0.2763
1978.00,0.2763
1977.00,0.2762
1976.00,0.2762
1975.00,0.2761
1974.00,0.2761
1973.00,0.2760
1972.00,0.2759
1971.00,0.2758
1970.00,0.2756
1969.00,0.2756
1968.00,0.2756
1967.00,0.2755
1966.00,0.2755
1965.00,0.2754
1964.00,0.2753
1963.00,0.2752
1962.00,0.2752
1961.00,0.2752
1960.00,0.2752
1959.00,0.2752
1958.00,0.2752
1957.00,0.2753
1956.00,0.2755
1955.00,0.2756
1954.00,0.2758
1953.00,0.2760
1952.00,0.2762
1951.00,0.2763
1950.00,0.2765
1949.00,0.2766
1948.00,0.2767
1947.00,0.2768
1946.00,0.2769
1945.00,0.2771
1944.00,0.2774
1943.00,0.2777
1942.00,0.2780
1941.00,0.2783
1940.00,0.2786
1939.00,0.2788
1938.00,0.2790
1937.00,0.2791
1936.00,0.2791
1935.00,0.2790
1934.00,0.2790
1933.00,0.2790
1932.00,0.2790
1931.00,0.2790
1930.00,0.2790
1929.00,0.2790
1928.00,0.2790
1927.00,0.2790
1926.00,0.2790
1925.00,0.2791
1924.00,0.2793
1923.00,0.2794
1922.00,0.2795
1921.00,0.2797
1920.00,0.2800
1919.00,0.2804
1918.00,0.2808
1917.00,0.2811
1916.00,0.2813
1915.00,0.2814
1914.00,0.2814
1913.00,0.2814
1912.00,0.2815
1911.00,0.2817
1910.00,0.2818
1909.00,0.2820
1908.00,0.2821
1907.00,0.2821
1906.00,0.2821
1905.00,0.2821
1904.00,0.2822
1903.00,0.2822
1902.00,0.2823
1901.00,0.2823
1900.00,0.2823
1899.00,0.2823
1898.00,0.2823
1897.00,0.2823
1896.00,0.2823
1895.00,0.2823
1894.00,0.2821
1893.00,0.2820
1892.00,0.2819
1891.00,0.2819
1890.00,0.2820
1889.00,0.2821
1888.00,0.2822
1887.00,0.2822
1886.00,0.2823
1885.00,0.2824
1884.00,0.2825
1883.00,0.2826
1882.00,0.2827
1881.00,0.2828
1880.00,0.2828
1879.00,0.2829
1878.00,0.2829
1877.00,0.2830
1876.00,0.2830
1875.00,0.2830
1874.00,0.2828
1873.00,0.2826
1872.00,0.2824
1871.00,0.2824
1870.00,0.2826
1869.00,0.2829
1868.00,0.2832
1867.00,0.2833
1866.00,0.2834
1865.00,0.2833
1864.00,0.2831
1863.00,0.2829
1862.00,0.2827
1861.00,0.2825
1860.00,0.2823
1859.00,0.2821
1858.00,0.2818
1857.00,0.2815
1856.00,0.2812
1855.00,0.2810
1854.00,0.2807
1853.00,0.2804
1852.00,0.2802
1851.00,0.2800
1850.00,0.2797
1849.00,0.2794
1848.00,0.2791
1847.00,0.2790
1846.00,0.2792
1845.00,0.2796
1844.00,0.2799
1843.00,0.2799
1842.00,0.2800
1841.00,0.2800
1840.00,0.2802
1839.00,0.2805
1838.00,0.2805
1837.00,0.2806
1836.00,0.2806
1835.00,0.2807
1834.00,0.2807
1833.00,0.2807
1832.00,0.2809
1831.00,0.2809
1830.00,0.2810
1829.00,0.2810
1828.00,0.2811
1827.00,0.2808
1826.00,0.2801
1825.00,0.2805
1824.00,0.2806
1823.00,0.2807
1822.00,0.2807
1821.00,0.2808
1820.00,0.2808
1819.00,0.2808
1818.00,0.2808
1817.00,0.2809
1816.00,0.2808
1815.00,0.2806
1814.00,0.2805
1813.00,0.2806
1812.00,0.2808
1811.00,0.2811
1810.00,0.2813
1809.00,0.2816
1808.00,0.2819
1807.00,0.2820
1806.00,0.2821
1805.00,0.2822
1804.00,0.2823
1803.00,0.2824
1802.00,0.2827
1801.00,0.2833
1800.00,0.2839
1799.00,0.2844
1798.00,0.2847
1797.00,0.2848
1796.00,0.2849
1795.00,0.2850
1794.00,0.2854
1793.00,0.2861
1792.00,0.2869
1791.00,0.2874
1790.00,0.2879
1789.00,0.2883
1788.00,0.2887
1787.00,0.2891
1786.00,0.2895
1785.00,0.2899
1784.00,0.2902
1783.00,0.2906
1782.00,0.2912
1781.00,0.2918
1780.00,0.2923
1779.00,0.2927
1778.00,0.2928
1777.00,0.2929
1776.00,0.2931
1775.00,0.2934
1774.00,0.2938
1773.00,0.2942
1772.00,0.2947
1771.00,0.2952
1770.00,0.2959
1769.00,0.2967
1768.00,0.2973
1767.00,0.2975
1766.00,0.2974
1765.00,0.2976
1764.00,0.2980
1763.00,0.2987
1762.00,0.2994
1761.00,0.3000
1760.00,0.3006
1759.00,0.3013
1758.00,0.3023
1757.00,0.3034
1756.00,0.3045
1755.00,0.3057
1754.00,0.3070
1753.00,0.3084
1752.00,0.3099
1751.00,0.3115
1750.00,0.3132
1749.00,0.3153
1748.00,0.3174
1747.00,0.3191
1746.00,0.3205
1745.00,0.3216
1744.00,0.3223
1743.00,0.3227
1742.00,0.3229
1741.00,0.3231
1740.00,0.3230
1739.00,0.3223
1738.00,0.3217
1737.00,0.3215
1736.00,0.3218
1735.00,0.3222
1734.00,0.3220
1733.00,0.3212
1732.00,0.3206
1731.00,0.3206
1730.00,0.3210
1729.00,0.3215
1728.00,0.3219
1727.00,0.3222
1726.00,0.3227
1725.00,0.3231
1724.00,0.3238
1723.00,0.3249
1722.00,0.3254
1721.00,0.3264
1720.00,0.3269
1719.00,0.3267
1718.00,0.3282
1717.00,0.3290
1716.00,0.3298
1715.00,0.3307
1714.00,0.3319
1713.00,0.3331
1712.00,0.3342
1711.00,0.3352
1710.00,0.3361
1709.00,0.3370
1708.00,0.3382
1707.00,0.3396
1706.00,0.3410
1705.00,0.3420
1704.00,0.3425
1703.00,0.3427
1702.00,0.3430
1701.00,0.3435
1700.00,0.3437
1699.00,0.3436
1698.00,0.3440
1697.00,0.3446
1696.00,0.3447
1695.00,0.3439
1694.00,0.3431
1693.00,0.3429
1692.00,0.3433
1691.00,0.3436
1690.00,0.3440
1689.00,0.3447
1688.00,0.3455
1687.00,0.3461
1686.00,0.3466
1685.00,0.3474
1684.00,0.3482
1683.00,0.3490
1682.00,0.3499
1681.00,0.3510
1680.00,0.3519
1679.00,0.3525
1678.00,0.3530
1677.00,0.3542
1676.00,0.3554
1675.00,0.3572
1674.00,0.3601
1673.00,0.3611
1672.00,0.3625
1671.00,0.3637
1670.00,0.3651
1669.00,0.3665
1668.00,0.3680
1667.00,0.3693
1666.00,0.3707
1665.00,0.3722
1664.00,0.3739
1663.00,0.3755
1662.00,0.3771
1661.00,0.3788
1660.00,0.3805
1659.00,0.3821
1658.00,0.3837
1657.00,0.3855
1656.00,0.3874
1655.00,0.3895
1654.00,0.3918
1653.00,0.3946
1652.00,0.3973
1651.00,0.3994
1650.00,0.4017
1649.00,0.4036
1648.00,0.4043
1647.00,0.4089
1646.00,0.4128
1645.00,0.4165
1644.00,0.4197
1643.00,0.4230
1642.00,0.4262
1641.00,0.4296
1640.00,0.4330
1639.00,0.4366
1638.00,0.4408
1637.00,0.4463
1636.00,0.4530
1635.00,0.4596
1634.00,0.4655
1633.00,0.4710
1632.00,0.4764
1631.00,0.4819
1630.00,0.4878
1629.00,0.4945
1628.00,0.5018
1627.00,0.5091
1626.00,0.5165
1625.00,0.5248
1624.00,0.5347
1623.00,0.5454
1622.00,0.5564
1621.00,0.5677
1620.00,0.5795
1619.00,0.5922
1618.00,0.6066
1617.00,0.6234
1616.00,0.6418
1615.00,0.6602
1614.00,0.6788
1613.00,0.6993
1612.00,0.7225
1611.00,0.7476
1610.00,0.7732
1609.00,0.7989
1608.00,0.8239
1607.00,0.8475
1606.00,0.8705
1605.00,0.8959
1604.00,0.9260
1603.00,0.9611
1602.00,1.0007
1601.00,1.0444
1600.00,1.0897
1599.00,1.1329
1598.00,1.1732
1597.00,1.2150
1596.00,1.2628
1595.00,1.3185
1594.00,1.3842
1593.00,1.4652
1592.00,1.5659
1591.00,1.6851
1590.00,1.8221
1589.00,1.9858
1588.00,2.1869
1587.00,2.4134
1586.00,2.6265
1585.00,2.8236
1584.00,3.0308
1583.00,3.1433
1582.00,3.1050
1581.00,3.1114
1580.00,3.2244
1579.00,3.2687
1578.00,3.1629
1577.00,3.1324
1576.00,3.2281
1575.00,3.2246
1574.00,3.0651
1573.00,2.9427
1572.00,2.8499
1571.00,2.7030
1570.00,2.5421
1569.00,2.4463
1568.00,2.4207
1567.00,2.4297
1566.00,2.4610
1565.00,2.5411
1564.00,2.6847
1563.00,2.8381
1562.00,2.9241
1561.00,3.0002
1560.00,3.1224
1559.00,3.0425
1558.00,2.7756
1557.00,2.5632
1556.00,2.3677
1555.00,2.1465
1554.00,1.9351
1553.00,1.7629
1552.00,1.6240
1551.00,1.5030
1550.00,1.3965
1549.00,1.3087
1548.00,1.2382
1547.00,1.1784
1546.00,1.1246
1545.00,1.0769
1544.00,1.0356
1543.00,0.9989
1542.00,0.9650
1541.00,0.9329
1540.00,0.9020
1539.00,0.8732
1538.00,0.8493
1537.00,0.8316
1536.00,0.8182
1535.00,0.8070
1534.00,0.7982
1533.00,0.7935
1532.00,0.7936
1531.00,0.7975
1530.00,0.8047
1529.00,0.8152
1528.00,0.8281
1527.00,0.8411
1526.00,0.8534
1525.00,0.8658
1524.00,0.8798
1523.00,0.8972
1522.00,0.9200
1521.00,0.9479
1520.00,0.9760
1519.00,0.9988
1518.00,1.0134
1517.00,1.0172
1516.00,1.0068
1515.00,0.9823
1514.00,0.9478
1513.00,0.9084
1512.00,0.8686
1511.00,0.8326
1510.00,0.8028
1509.00,0.7798
1508.00,0.7623
1507.00,0.7495
1506.00,0.7420
1505.00,0.7402
1504.00,0.7433
1503.00,0.7492
1502.00,0.7564
1501.00,0.7635
1500.00,0.7694
1499.00,0.7723
1498.00,0.7720
1497.00,0.7695
1496.00,0.7664
1495.00,0.7638
1494.00,0.7633
1493.00,0.7662
1492.00,0.7733
1491.00,0.7845
1490.00,0.7996
1489.00,0.8189
1488.00,0.8420
1487.00,0.8681
1486.00,0.8964
1485.00,0.9268
1484.00,0.9589
1483.00,0.9923
1482.00,1.0278
1481.00,1.0670
1480.00,1.1104
1479.00,1.1590
1478.00,1.2169
1477.00,1.2897
1476.00,1.3816
1475.00,1.4957
1474.00,1.6418
1473.00,1.8380
1472.00,2.0979
1471.00,2.4112
1470.00,2.7380
1469.00,3.0259
1468.00,3.2096
1467.00,3.2265
1466.00,3.1722
1465.00,3.1752
1464.00,3.2367
1463.00,3.2765
1462.00,3.2753
1461.00,3.2894
1460.00,3.3068
1459.00,3.2643
1458.00,3.2099
1457.00,3.2378
1456.00,3.3221
1455.00,3.3395
1454.00,3.3093
1453.00,3.3072
1452.00,3.2978
1451.00,3.2221
1450.00,3.1333
1449.00,3.0966
1448.00,3.0964
1447.00,3.0857
1446.00,3.0700
1445.00,3.0731
1444.00,3.0616
1443.00,2.9989
1442.00,2.9236
1441.00,2.8735
1440.00,2.8291
1439.00,2.7588
1438.00,2.6672
1437.00,2.5643
1436.00,2.4393
1435.00,2.2934
1434.00,2.1448
1433.00,2.0018
1432.00,1.8646
1431.00,1.7368
1430.00,1.6244
1429.00,1.5309
1428.00,1.4565
1427.00,1.4002
1426.00,1.3600
1425.00,1.3349
1424.00,1.3242
1423.00,1.3258
1422.00,1.3363
1421.00,1.3534
1420.00,1.3756
1419.00,1.4016
1418.00,1.4316
1417.00,1.4684
1416.00,1.5140
1415.00,1.5637
1414.00,1.6041
1413.00,1.6178
1412.00,1.5946
1411.00,1.5408
1410.00,1.4733
1409.00,1.4054
1408.00,1.3417
1407.00,1.2813
1406.00,1.2233
1405.00,1.1676
1404.00,1.1160
1403.00,1.0708
1402.00,1.0329
1401.00,1.0019
1400.00,0.9771
1399.00,0.9586
1398.00,0.9457
1397.00,0.9361
1396.00,0.9268
1395.00,0.9147
1394.00,0.8992
1393.00,0.8821
1392.00,0.8662
1391.00,0.8542
1390.00,0.8485
1389.00,0.8516
1388.00,0.8660
1387.00,0.8933
1386.00,0.9336
1385.00,0.9875
1384.00,1.0586
1383.00,1.1525
1382.00,1.2738
1381.00,1.4233
1380.00,1.5929
1379.00,1.7490
1378.00,1.8244
1377.00,1.7803
1376.00,1.6633
1375.00,1.5350
1374.00,1.4267
1373.00,1.3482
1372.00,1.2970
1371.00,1.2651
1370.00,1.2442
1369.00,1.2279
1368.00,1.2119
1367.00,1.1935
1366.00,1.1705
1365.00,1.1422
1364.00,1.1085
1363.00,1.0714
1362.00,1.0344
1361.00,1.0013
1360.00,0.9738
1359.00,0.9522
1358.00,0.9362
1357.00,0.9254
1356.00,0.9193
1355.00,0.9168
1354.00,0.9163
1353.00,0.9163
1352.00,0.9155
1351.00,0.9132
1350.00,0.9091
1349.00,0.9045
1348.00,0.9013
1347.00,0.9014
1346.00,0.9063
1345.00,0.9163
1344.00,0.9301
1343.00,0.9442
1342.00,0.9541
1341.00,0.9553
1340.00,0.9454
1339.00,0.9255
1338.00,0.8984
1337.00,0.8678
1336.00,0.8364
1335.00,0.8067
1334.00,0.7803
1333.00,0.7585
1332.00,0.7418
1331.00,0.7305
1330.00,0.7254
1329.00,0.7275
1328.00,0.7384
1327.00,0.7594
1326.00,0.7901
1325.00,0.8253
1324.00,0.8544
1323.00,0.8664
1322.00,0.8585
1321.00,0.8387
1320.00,0.8177
1319.00,0.8020
1318.00,0.7930
1317.00,0.7894
1316.00,0.7898
1315.00,0.7933
1314.00,0.7991
1313.00,0.8069
1312.00,0.8158
1311.00,0.8251
1310.00,0.8340
1309.00,0.8426
1308.00,0.8514
1307.00,0.8613
1306.00,0.8736
1305.00,0.8881
1304.00,0.9019
1303.00,0.9097
1302.00,0.9075
1301.00,0.8968
1300.00,0.8841
1299.00,0.8766
1298.00,0.8771
1297.00,0.8824
1296.00,0.8841
1295.00,0.8745
1294.00,0.8530
1293.00,0.8256
1292.00,0.7994
1291.00,0.7779
1290.00,0.7609
1289.00,0.7468
1288.00,0.7343
1287.00,0.7222
1286.00,0.7098
1285.00,0.6965
1284.00,0.6827
1283.00,0.6692
1282.00,0.6566
1281.00,0.6456
1280.00,0.6365
1279.00,0.6295
1278.00,0.6242
1277.00,0.6202
1276.00,0.6176
1275.00,0.6163
1274.00,0.6166
1273.00,0.6184
1272.00,0.6216
1271.00,0.6255
1270.00,0.6288
1269.00,0.6299
1268.00,0.6278
1267.00,0.6222
1266.00,0.6139
1265.00,0.6046
1264.00,0.5961
1263.00,0.5895
1262.00,0.5851
1261.00,0.5827
1260.00,0.5820
1259.00,0.5828
1258.00,0.5842
1257.00,0.5856
1256.00,0.5862
1255.00,0.5857
1254.00,0.5841
1253.00,0.5814
1252.00,0.5780
1251.00,0.5742
1250.00,0.5702
1249.00,0.5660
1248.00,0.5621
1247.00,0.5584
1246.00,0.5549
1245.00,0.5511
1244.00,0.5467
1243.00,0.5415
1242.00,0.5354
1241.00,0.5286
1240.00,0.5219
1239.00,0.5158
1238.00,0.5107
1237.00,0.5068
1236.00,0.5041
1235.00,0.5030
1234.00,0.5036
1233.00,0.5058
1232.00,0.5097
1231.00,0.5153
1230.00,0.5222
1229.00,0.5295
1228.00,0.5365
1227.00,0.5431
1226.00,0.5491
1225.00,0.5547
1224.00,0.5603
1223.00,0.5660
1222.00,0.5715
1221.00,0.5752
1220.00,0.5750
1219.00,0.5697
1218.00,0.5605
1217.00,0.5502
1216.00,0.5417
1215.00,0.5361
1214.00,0.5328
1213.00,0.5297
1212.00,0.5249
1211.00,0.5178
1210.00,0.5090
1209.00,0.5004
1208.00,0.4936
1207.00,0.4896
1206.00,0.4881
1205.00,0.4879
1204.00,0.4879
1203.00,0.4872
1202.00,0.4860
1201.00,0.4850
1200.00,0.4851
1199.00,0.4867
1198.00,0.4898
1197.00,0.4940
1196.00,0.4994
1195.00,0.5061
1194.00,0.5141
1193.00,0.5232
1192.00,0.5323
1191.00,0.5398
1190.00,0.5438
1189.00,0.5431
1188.00,0.5381
1187.00,0.5306
1186.00,0.5226
1185.00,0.5156
1184.00,0.5102
1183.00,0.5059
1182.00,0.5025
1181.00,0.4994
1180.00,0.4963
1179.00,0.4929
1178.00,0.4890
1177.00,0.4845
1176.00,0.4792
1175.00,0.4733
1174.00,0.4671
1173.00,0.4610
1172.00,0.4554
1171.00,0.4505
1170.00,0.4462
1169.00,0.4425
1168.00,0.4392
1167.00,0.4363
1166.00,0.4338
1165.00,0.4316
1164.00,0.4298
1163.00,0.4287
1162.00,0.4286
1161.00,0.4296
1160.00,0.4321
1159.00,0.4365
1158.00,0.4437
1157.00,0.4551
1156.00,0.4731
1155.00,0.5010
1154.00,0.5400
1153.00,0.5850
1152.00,0.6220
1151.00,0.6350
1150.00,0.6206
1149.00,0.5917
1148.00,0.5640
1147.00,0.5453
1146.00,0.5360
1145.00,0.5338
1144.00,0.5367
1143.00,0.5438
1142.00,0.5549
1141.00,0.5704
1140.00,0.5906
1139.00,0.6146
1138.00,0.6390
1137.00,0.6593
1136.00,0.6713
1135.00,0.6732
1134.00,0.6659
1133.00,0.6515
1132.00,0.6322
1131.00,0.6100
1130.00,0.5870
1129.00,0.5659
1128.00,0.5485
1127.00,0.5358
1126.00,0.5275
1125.00,0.5230
1124.00,0.5213
1123.00,0.5216
1122.00,0.5229
1121.00,0.5250
1120.00,0.5281
1119.00,0.5329
1118.00,0.5399
1117.00,0.5494
1116.00,0.5607
1115.00,0.5712
1114.00,0.5770
1113.00,0.5752
1112.00,0.5654
1111.00,0.5502
1110.00,0.5330
1109.00,0.5166
1108.00,0.5029
1107.00,0.4926
1106.00,0.4856
1105.00,0.4814
1104.00,0.4796
1103.00,0.4794
1102.00,0.4803
1101.00,0.4818
1100.00,0.4836
1099.00,0.4850
1098.00,0.4856
1097.00,0.4851
1096.00,0.4837
1095.00,0.4819
1094.00,0.4802
1093.00,0.4790
1092.00,0.4784
1091.00,0.4786
1090.00,0.4799
1089.00,0.4827
1088.00,0.4872
1087.00,0.4937
1086.00,0.5020
1085.00,0.5119
1084.00,0.5233
1083.00,0.5359
1082.00,0.5495
1081.00,0.5633
1080.00,0.5767
1079.00,0.5884
1078.00,0.5967
1077.00,0.6005
1076.00,0.5995
1075.00,0.5941
1074.00,0.5857
1073.00,0.5760
1072.00,0.5664
1071.00,0.5575
1070.00,0.5497
1069.00,0.5431
1068.00,0.5379
1067.00,0.5343
1066.00,0.5319
1065.00,0.5305
1064.00,0.5298
1063.00,0.5298
1062.00,0.5305
1061.00,0.5315
1060.00,0.5326
1059.00,0.5335
1058.00,0.5339
1057.00,0.5340
1056.00,0.5339
1055.00,0.5338
1054.00,0.5337
1053.00,0.5340
1052.00,0.5352
1051.00,0.5375
1050.00,0.5410
1049.00,0.5454
1048.00,0.5501
1047.00,0.5548
1046.00,0.5588
1045.00,0.5619
1044.00,0.5643
1043.00,0.5661
1042.00,0.5679
1041.00,0.5700
1040.00,0.5726
1039.00,0.5757
1038.00,0.5788
1037.00,0.5814
1036.00,0.5840
1035.00,0.5872
1034.00,0.5918
1033.00,0.5981
1032.00,0.6062
1031.00,0.6158
1030.00,0.6258
1029.00,0.6350
1028.00,0.6421
1027.00,0.6461
1026.00,0.6467
1025.00,0.6444
1024.00,0.6404
1023.00,0.6360
1022.00,0.6324
1021.00,0.6303
1020.00,0.6304
1019.00,0.6326
1018.00,0.6364
1017.00,0.6416
1016.00,0.6479
1015.00,0.6551
1014.00,0.6624
1013.00,0.6694
1012.00,0.6756
1011.00,0.6813
1010.00,0.6870
1009.00,0.6930
1008.00,0.6994
1007.00,0.7059
1006.00,0.7121
1005.00,0.7177
1004.00,0.7224
1003.00,0.7259
1002.00,0.7279
1001.00,0.7280
1000.00,0.7260
999.00,0.7214
998.00,0.7139
997.00,0.7039
996.00,0.6921
995.00,0.6793
994.00,0.6660
993.00,0.6524
992.00,0.6386
991.00,0.6247
990.00,0.6108
989.00,0.5973
988.00,0.5845
987.00,0.5726
986.00,0.5614
985.00,0.5507
984.00,0.5404
983.00,0.5306
982.00,0.5213
981.00,0.5122
980.00,0.5034
979.00,0.4947
978.00,0.4862
977.00,0.4779
976.00,0.4702
975.00,0.4632
974.00,0.4572
973.00,0.4522
972.00,0.4483
971.00,0.4457
970.00,0.4442
969.00,0.4435
968.00,0.4436
967.00,0.4442
966.00,0.4447
965.00,0.4446
964.00,0.4433
963.00,0.4406
962.00,0.4367
961.00,0.4320
960.00,0.4272
959.00,0.4230
958.00,0.4200
957.00,0.4179
956.00,0.4168
955.00,0.4162
954.00,0.4159
953.00,0.4158
952.00,0.4157
951.00,0.4162
950.00,0.4177
949.00,0.4206
948.00,0.4249
947.00,0.4305
946.00,0.4367
945.00,0.4426
944.00,0.4473
943.00,0.4501
942.00,0.4507
941.00,0.4491
940.00,0.4458
939.00,0.4419
938.00,0.4379
937.00,0.4345
936.00,0.4318
935.00,0.4299
934.00,0.4287
933.00,0.4285
932.00,0.4297
931.00,0.4327
930.00,0.4380
929.00,0.4460
928.00,0.4570
927.00,0.4708
926.00,0.4867
925.00,0.5027
924.00,0.5165
923.00,0.5266
922.00,0.5327
921.00,0.5351
920.00,0.5340
919.00,0.5293
918.00,0.5205
917.00,0.5076
916.00,0.4911
915.00,0.4727
914.00,0.4543
913.00,0.4379
912.00,0.4248
911.00,0.4149
910.00,0.4074
909.00,0.4017
908.00,0.3972
907.00,0.3938
906.00,0.3911
905.00,0.3890
904.00,0.3876
903.00,0.3869
902.00,0.3870
901.00,0.3878
900.00,0.3895
899.00,0.3919
898.00,0.3950
897.00,0.3988
896.00,0.4034
895.00,0.4091
894.00,0.4159
893.00,0.4236
892.00,0.4315
891.00,0.4385
890.00,0.4436
889.00,0.4457
888.00,0.4446
887.00,0.4405
886.00,0.4345
885.00,0.4278
884.00,0.4217
883.00,0.4169
882.00,0.4137
881.00,0.4120
880.00,0.4115
879.00,0.4119
878.00,0.4126
877.00,0.4135
876.00,0.4145
875.00,0.4157
874.00,0.4169
873.00,0.4180
872.00,0.4190
871.00,0.4204
870.00,0.4226
869.00,0.4259
868.00,0.4308
867.00,0.4374
866.00,0.4457
865.00,0.4555
864.00,0.4662
863.00,0.4767
862.00,0.4850
861.00,0.4890
860.00,0.4879
859.00,0.4823
858.00,0.4742
857.00,0.4658
856.00,0.4586
855.00,0.4530
854.00,0.4492
853.00,0.4469
852.00,0.4459
851.00,0.4461
850.00,0.4472
849.00,0.4489
848.00,0.4511
847.00,0.4536
846.00,0.4563
845.00,0.4590
844.00,0.4621
843.00,0.4663
842.00,0.4722
841.00,0.4808
840.00,0.4923
839.00,0.5064
838.00,0.5214
837.00,0.5345
836.00,0.5423
835.00,0.5421
834.00,0.5338
833.00,0.5201
832.00,0.5052
831.00,0.4923
830.00,0.4830
829.00,0.4775
828.00,0.4757
827.00,0.4771
826.00,0.4814
825.00,0.4883
824.00,0.4968
823.00,0.5052
822.00,0.5112
821.00,0.5129
820.00,0.5099
819.00,0.5031
818.00,0.4940
817.00,0.4843
816.00,0.4754
815.00,0.4681
814.00,0.4625
813.00,0.4583
812.00,0.4548
811.00,0.4520
810.00,0.4494
809.00,0.4470
808.00,0.4446
807.00,0.4420
806.00,0.4391
805.00,0.4362
804.00,0.4337
803.00,0.4322
802.00,0.4316
801.00,0.4318
800.00,0.4330
799.00,0.4349
798.00,0.4376
797.00,0.4407
796.00,0.4440
795.00,0.4474
794.00,0.4508
793.00,0.4543
792.00,0.4580
791.00,0.4616
790.00,0.4650
789.00,0.4679
788.00,0.4706
787.00,0.4741
786.00,0.4791
785.00,0.4867
784.00,0.4968
783.00,0.5084
782.00,0.5196
781.00,0.5274
780.00,0.5295
779.00,0.5247
778.00,0.5141
777.00,0.5005
776.00,0.4869
775.00,0.4757
774.00,0.4679
773.00,0.4636
772.00,0.4628
771.00,0.4648
770.00,0.4691
769.00,0.4751
768.00,0.4822
767.00,0.4898
766.00,0.4973
765.00,0.5044
764.00,0.5111
763.00,0.5177
762.00,0.5238
761.00,0.5292
760.00,0.5334
759.00,0.5362
758.00,0.5373
757.00,0.5375
756.00,0.5379
755.00,0.5395
754.00,0.5427
753.00,0.5472
752.00,0.5529
751.00,0.5604
750.00,0.5701
749.00,0.5826
748.00,0.5976
747.00,0.6138
746.00,0.6291
745.00,0.6413
744.00,0.6490
743.00,0.6524
742.00,0.6529
741.00,0.6525
740.00,0.6530
739.00,0.6559
738.00,0.6621
737.00,0.6719
736.00,0.6856
735.00,0.7033
734.00,0.7248
733.00,0.7499
732.00,0.7791
731.00,0.8135
730.00,0.8546
729.00,0.9041
728.00,0.9634
727.00,1.0333
726.00,1.1136
725.00,1.2011
724.00,1.2877
723.00,1.3588
722.00,1.3936
721.00,1.3737
720.00,1.3008
719.00,1.1996
718.00,1.0959
717.00,1.0033
716.00,0.9256
715.00,0.8620
714.00,0.8097
713.00,0.7655
712.00,0.7272
711.00,0.6936
710.00,0.6641
709.00,0.6384
708.00,0.6159
707.00,0.5964
706.00,0.5796
705.00,0.5649
704.00,0.5520
703.00,0.5407
702.00,0.5308
701.00,0.5220
700.00,0.5141
699.00,0.5067
698.00,0.4995
697.00,0.4929
696.00,0.4871
695.00,0.4824
694.00,0.4787
693.00,0.4760
692.00,0.4742
691.00,0.4734
690.00,0.4732
689.00,0.4731
688.00,0.4733
687.00,0.4740
686.00,0.4759
685.00,0.4793
684.00,0.4842
683.00,0.4904
682.00,0.4976
681.00,0.5060
680.00,0.5155
679.00,0.5258
678.00,0.5361
677.00,0.5462
676.00,0.5557
675.00,0.5645
674.00,0.5718
673.00,0.5775
672.00,0.5813
671.00,0.5838
670.00,0.5852
669.00,0.5861
668.00,0.5863
667.00,0.5863
666.00,0.5874
665.00,0.5895
664.00,0.5916
663.00,0.5927
662.00,0.5922
661.00,0.5896
660.00,0.5850
659.00,0.5791
658.00,0.5728
657.00,0.5669
656.00,0.5620
655.00,0.5585
654.00,0.5564
653.00,0.5556
652.00,0.5558
651.00,0.5574
650.00,0.5602
649.00,0.5643
648.00,0.5692
647.00,0.5744
646.00,0.5792
645.00,0.5829
644.00,0.5853
643.00,0.5859
642.00,0.5844
641.00,0.5806
640.00,0.5746
639.00,0.5667
638.00,0.5578
637.00,0.5484
636.00,0.5390
635.00,0.5300
634.00,0.5221
633.00,0.5156
632.00,0.5108
631.00,0.5079
630.00,0.5070
629.00,0.5081
628.00,0.5108
627.00,0.5154
626.00,0.5219
625.00,0.5300
624.00,0.5396
623.00,0.5502
622.00,0.5615
621.00,0.5732
620.00,0.5848
619.00,0.5953
618.00,0.6033
617.00,0.6074
616.00,0.6069
615.00,0.6020
614.00,0.5935
613.00,0.5824
612.00,0.5697
611.00,0.5564
610.00,0.5431
609.00,0.5306
608.00,0.5195
607.00,0.5101
606.00,0.5026
605.00,0.4968
604.00,0.4924
603.00,0.4893
602.00,0.4870
601.00,0.4852
600.00,0.4836
599.00,0.4825
598.00,0.4820
597.00,0.4819
596.00,0.4819
595.00,0.4819
594.00,0.4823
593.00,0.4834
592.00,0.4852
591.00,0.4876
590.00,0.4902
589.00,0.4930
588.00,0.4959
587.00,0.4989
586.00,0.5017
585.00,0.5043
584.00,0.5069
583.00,0.5096
582.00,0.5124
581.00,0.5150
580.00,0.5175
579.00,0.5202
578.00,0.5229
577.00,0.5257
576.00,0.5286
575.00,0.5322
574.00,0.5368
573.00,0.5423
572.00,0.5486
571.00,0.5555
570.00,0.5629
569.00,0.5705
568.00,0.5784
567.00,0.5867
566.00,0.5951
565.00,0.6036
564.00,0.6118
563.00,0.6193
562.00,0.6257
561.00,0.6313
560.00,0.6367
559.00,0.6421
558.00,0.6470
557.00,0.6510
556.00,0.6536
555.00,0.6546
554.00,0.6547
553.00,0.6549
552.00,0.6566
551.00,0.6606
550.00,0.6665
