Created as New Dataset,
cm-1,A
4000.00,0.3717
3999.00,0.3717
3998.00,0.3716
3997.00,0.3716
3996.00,0.3715
3995.00,0.3714
3994.00,0.3713
3993.00,0.3711
3992.00,0.3709
3991.00,0.3706
3990.00,0.3703
3989.00,0.3699
3988.00,0.3695
3987.00,0.3691
3986.00,0.3686
3985.00,0.3682
3984.00,0.3677
3983.00,0.3672
3982.00,0.3667
3981.00,0.3663
3980.00,0.3659
3979.00,0.3655
3978.00,0.3650
3977.00,0.3645
3976.00,0.3641
3975.00,0.3636
3974.00,0.3632
3973.00,0.3629
3972.00,0.3625
3971.00,0.3621
3970.00,0.3617
3969.00,0.3613
3968.00,0.3609
3967.00,0.3605
3966.00,0.3600
3965.00,0.3595
3964.00,0.3589
3963.00,0.3583
3962.00,0.3577
3961.00,0.3571
3960.00,0.3566
3959.00,0.3561
3958.00,0.3557
3957.00,0.3553
3956.00,0.3548
3955.00,0.3544
3954.00,0.3540
3953.00,0.3537
3952.00,0.3534
3951.00,0.3531
3950.00,0.3529
3949.00,0.3527
3948.00,0.3524
3947.00,0.3522
3946.00,0.3519
3945.00,0.3517
3944.00,0.3515
3943.00,0.3512
3942.00,0.3510
3941.00,0.3508
3940.00,0.3506
3939.00,0.3505
3938.00,0.3504
3937.00,0.3504
3936.00,0.3503
3935.00,0.3502
3934.00,0.3501
3933.00,0.3500
3932.00,0.3499
3931.00,0.3499
3930.00,0.3499
3929.00,0.3500
3928.00,0.3501
3927.00,0.3501
3926.00,0.3501
3925.00,0.3500
3924.00,0.3499
3923.00,0.3499
3922.00,0.3499
3921.00,0.3499
3920.00,0.3499
3919.00,0.3499
3918.00,0.3498
3917.00,0.3497
3916.00,0.3495
3915.00,0.3494
3914.00,0.3493
3913.00,0.3492
3912.00,0.3491
3911.00,0.3490
3910.00,0.3490
3909.00,0.3489
3908.00,0.3487
3907.00,0.3485
3906.00,0.3483
3905.00,0.3481
3904.00,0.3480
3903.00,0.3479
3902.00,0.3478
3901.00,0.3477
3900.00,0.3476
3899.00,0.3475
3898.00,0.3475
3897.00,0.3474
3896.00,0.3473
3895.00,0.3472
3894.00,0.3470
3893.00,0.3468
3892.00,0.3466
3891.00,0.3465
3890.00,0.3463
3889.00,0.3462
3888.00,0.3460
3887.00,0.3460
3886.00,0.3460
3885.00,0.3459
3884.00,0.3458
3883.00,0.3455
3882.00,0.3453
3881.00,0.3453
3880.00,0.3453
3879.00,0.3453
3878.00,0.3452
3877.00,0.3450
3876.00,0.3449
3875.00,0.3448
3874.00,0.3448
3873.00,0.3447
3872.00,0.3446
3871.00,0.3443
3870.00,0.3442
3869.00,0.3440
3868.00,0.3438
3867.00,0.3437
3866.00,0.3435
3865.00,0.3434
3864.00,0.3433
3863.00,0.3431
3862.00,0.3430
3861.00,0.3429
3860.00,0.3428
3859.00,0.3428
3858.00,0.3429
3857.00,0.3428
3856.00,0.3428
3855.00,0.3428
3854.00,0.3428
3853.00,0.3429
3852.00,0.3429
3851.00,0.3428
3850.00,0.3427
3849.00,0.3427
3848.00,0.3427
3847.00,0.3427
3846.00,0.3427
3845.00,0.3427
3844.00,0.3426
3843.00,0.3425
3842.00,0.3424
3841.00,0.3423
3840.00,0.3422
3839.00,0.3420
3838.00,0.3419
3837.00,0.3417
3836.00,0.3415
3835.00,0.3412
3834.00,0.3410
3833.00,0.3408
3832.00,0.3406
3831.00,0.3404
3830.00,0.3402
3829.00,0.3400
3828.00,0.3399
3827.00,0.3399
3826.00,0.3399
3825.00,0.3398
3824.00,0.3397
3823.00,0.3396
3822.00,0.3395
3821.00,0.3395
3820.00,0.3393
3819.00,0.3390
3818.00,0.3388
3817.00,0.3387
3816.00,0.3388
3815.00,0.3387
3814.00,0.3386
3813.00,0.3384
3812.00,0.3382
3811.00,0.3381
3810.00,0.3379
3809.00,0.3376
3808.00,0.3374
3807.00,0.3372
3806.00,0.3370
3805.00,0.3368
3804.00,0.3366
3803.00,0.3364
3802.00,0.3362
3801.00,0.3360
3800.00,0.3357
3799.00,0.3353
3798.00,0.3349
3797.00,0.3347
3796.00,0.3345
3795.00,0.3343
3794.00,0.3341
3793.00,0.3339
3792.00,0.3337
3791.00,0.3336
3790.00,0.3335
3789.00,0.3335
3788.00,0.3334
3787.00,0.3334
3786.00,0.3335
3785.00,0.3335
3784.00,0.3335
3783.00,0.3334
3782.00,0.3333
3781.00,0.3333
3780.00,0.3334
3779.00,0.3335
3778.00,0.3336
3777.00,0.3337
3776.00,0.3337
3775.00,0.3338
3774.00,0.3338
3773.00,0.3337
3772.00,0.3335
3771.00,0.3333
3770.00,0.3331
3769.00,0.3330
3768.00,0.3329
3767.00,0.3328
3766.00,0.3327
3765.00,0.3326
3764.00,0.3325
3763.00,0.3323
3762.00,0.3321
3761.00,0.3320
3760.00,0.3318
3759.00,0.3317
3758.00,0.3315
3757.00,0.3315
3756.00,0.3314
3755.00,0.3313
3754.00,0.3312
3753.00,0.3311
3752.00,0.3310
3751.00,0.3310
3750.00,0.3310
3749.00,0.3310
3748.00,0.3309
3747.00,0.3308
3746.00,0.3308
3745.00,0.3310
3744.00,0.3312
3743.00,0.3312
3742.00,0.3310
3741.00,0.3309
3740.00,0.3309
3739.00,0.3308
3738.00,0.3308
3737.00,0.3306
3736.00,0.3304
3735.00,0.3301
3734.00,0.3298
3733.00,0.3296
3732.00,0.3294
3731.00,0.3293
3730.00,0.3291
3729.00,0.3289
3728.00,0.3288
3727.00,0.3286
3726.00,0.3285
3725.00,0.3283
3724.00,0.3281
3723.00,0.3280
3722.00,0.3279
3721.00,0.3278
3720.00,0.3277
3719.00,0.3276
3718.00,0.3276
3717.00,0.3276
3716.00,0.3276
3715.00,0.3276
3714.00,0.3277
3713.00,0.3279
3712.00,0.3281
3711.00,0.3282
3710.00,0.3284
3709.00,0.3285
3708.00,0.3287
3707.00,0.3289
3706.00,0.3290
3705.00,0.3291
3704.00,0.3292
3703.00,0.3293
3702.00,0.3294
3701.00,0.3295
3700.00,0.3296
3699.00,0.3296
3698.00,0.3297
3697.00,0.3297
3696.00,0.3298
3695.00,0.3299
3694.00,0.3299
3693.00,0.3299
3692.00,0.3300
3691.00,0.3301
3690.00,0.3301
3689.00,0.3301
3688.00,0.3301
3687.00,0.3302
3686.00,0.3303
3685.00,0.3304
3684.00,0.3305
3683.00,0.3306
3682.00,0.3307
3681.00,0.3308
3680.00,0.3308
3679.00,0.3308
3678.00,0.3308
3677.00,0.3308
3676.00,0.3309
3675.00,0.3310
3674.00,0.3311
3673.00,0.3311
3672.00,0.3312
3671.00,0.3313
3670.00,0.3314
3669.00,0.3316
3668.00,0.3317
3667.00,0.3319
3666.00,0.3321
3665.00,0.3323
3664.00,0.3325
3663.00,0.3327
3662.00,0.3329
3661.00,0.3332
3660.00,0.3333
3659.00,0.3335
3658.00,0.3337
3657.00,0.3339
3656.00,0.3343
3655.00,0.3346
3654.00,0.3349
3653.00,0.3352
3652.00,0.3355
3651.00,0.3358
3650.00,0.3361
3649.00,0.3363
3648.00,0.3366
3647.00,0.3369
3646.00,0.3374
3645.00,0.3378
3644.00,0.3383
3643.00,0.3389
3642.00,0.3395
3641.00,0.3401
3640.00,0.3408
3639.00,0.3415
3638.00,0.3423
3637.00,0.3432
3636.00,0.3441
3635.00,0.3450
3634.00,0.3459
3633.00,0.3469
3632.00,0.3480
3631.00,0.3495
3630.00,0.3516
3629.00,0.3542
3628.00,0.3570
3627.00,0.3595
3626.00,0.3615
3625.00,0.3628
3624.00,0.3633
3623.00,0.3629
3622.00,0.3616
3621.00,0.3596
3620.00,0.3570
3619.00,0.3543
3618.00,0.3518
3617.00,0.3497
3616.00,0.3480
3615.00,0.3468
3614.00,0.3460
3613.00,0.3455
3612.00,0.3452
3611.00,0.3451
3610.00,0.3451
3609.00,0.3452
3608.00,0.3454
3607.00,0.3455
3606.00,0.3455
3605.00,0.3454
3604.00,0.3451
3603.00,0.3447
3602.00,0.3442
3601.00,0.3434
3600.00,0.3425
3599.00,0.3415
3598.00,0.3404
3597.00,0.3394
3596.00,0.3384
3595.00,0.3374
3594.00,0.3365
3593.00,0.3357
3592.00,0.3350
3591.00,0.3343
3590.00,0.3337
3589.00,0.3331
3588.00,0.3326
3587.00,0.3321
3586.00,0.3317
3585.00,0.3313
3584.00,0.3308
3583.00,0.3303
3582.00,0.3297
3581.00,0.3291
3580.00,0.3286
3579.00,0.3281
3578.00,0.3276
3577.00,0.3273
3576.00,0.3270
3575.00,0.3268
3574.00,0.3266
3573.00,0.3264
3572.00,0.3263
3571.00,0.3262
3570.00,0.3263
3569.00,0.3264
3568.00,0.3265
3567.00,0.3266
3566.00,0.3267
3565.00,0.3268
3564.00,0.3269
3563.00,0.3270
3562.00,0.3271
3561.00,0.3273
3560.00,0.3274
3559.00,0.3275
3558.00,0.3277
3557.00,0.3279
3556.00,0.3281
3555.00,0.3284
3554.00,0.3287
3553.00,0.3290
3552.00,0.3293
3551.00,0.3297
3550.00,0.3301
3549.00,0.3305
3548.00,0.3309
3547.00,0.3313
3546.00,0.3317
3545.00,0.3322
3544.00,0.3326
3543.00,0.3331
3542.00,0.3336
3541.00,0.3341
3540.00,0.3346
3539.00,0.3351
3538.00,0.3356
3537.00,0.3361
3536.00,0.3367
3535.00,0.3373
3534.00,0.3379
3533.00,0.3385
3532.00,0.3391
3531.00,0.3397
3530.00,0.3404
3529.00,0.3410
3528.00,0.3417
3527.00,0.3424
3526.00,0.3432
3525.00,0.3439
3524.00,0.3446
3523.00,0.3452
3522.00,0.3459
3521.00,0.3466
3520.00,0.3473
3519.00,0.3481
3518.00,0.3488
3517.00,0.3496
3516.00,0.3503
3515.00,0.3511
3514.00,0.3519
3513.00,0.3527
3512.00,0.3535
3511.00,0.3543
3510.00,0.3552
3509.00,0.3561
3508.00,0.3570
3507.00,0.3579
3506.00,0.3588
3505.00,0.3597
3504.00,0.3606
3503.00,0.3616
3502.00,0.3626
3501.00,0.3636
3500.00,0.3645
3499.00,0.3655
3498.00,0.3665
3497.00,0.3675
3496.00,0.3686
3495.00,0.3697
3494.00,0.3707
3493.00,0.3718
3492.00,0.3729
3491.00,0.3740
3490.00,0.3752
3489.00,0.3764
3488.00,0.3775
3487.00,0.3787
3486.00,0.3798
3485.00,0.3809
3484.00,0.3821
3483.00,0.3833
3482.00,0.3846
3481.00,0.3858
3480.00,0.3870
3479.00,0.3882
3478.00,0.3895
3477.00,0.3909
3476.00,0.3922
3475.00,0.3935
3474.00,0.3947
3473.00,0.3961
3472.00,0.3975
3471.00,0.3989
3470.00,0.4004
3469.00,0.4018
3468.00,0.4033
3467.00,0.4048
3466.00,0.4062
3465.00,0.4077
3464.00,0.4092
3463.00,0.4107
3462.00,0.4124
3461.00,0.4141
3460.00,0.4158
3459.00,0.4175
3458.00,0.4192
3457.00,0.4209
3456.00,0.4227
3455.00,0.4246
3454.00,0.4265
3453.00,0.4286
3452.00,0.4307
3451.00,0.4329
3450.00,0.4351
3449.00,0.4374
3448.00,0.4399
3447.00,0.4426
3446.00,0.4455
3445.00,0.4485
3444.00,0.4515
3443.00,0.4546
3442.00,0.4577
3441.00,0.4608
3440.00,0.4638
3439.00,0.4667
3438.00,0.4694
3437.00,0.4720
3436.00,0.4744
3435.00,0.4765
3434.00,0.4785
3433.00,0.4803
3432.00,0.4820
3431.00,0.4836
3430.00,0.4852
3429.00,0.4868
3428.00,0.4883
3427.00,0.4899
3426.00,0.4914
3425.00,0.4930
3424.00,0.4946
3423.00,0.4962
3422.00,0.4978
3421.00,0.4994
3420.00,0.5011
3419.00,0.5028
3418.00,0.5046
3417.00,0.5064
3416.00,0.5081
3415.00,0.5099
3414.00,0.5117
3413.00,0.5135
3412.00,0.5154
3411.00,0.5173
3410.00,0.5192
3409.00,0.5212
3408.00,0.5232
3407.00,0.5252
3406.00,0.5272
3405.00,0.5292
3404.00,0.5312
3403.00,0.5333
3402.00,0.5353
3401.00,0.5373
3400.00,0.5392
3399.00,0.5411
3398.00,0.5430
3397.00,0.5449
3396.00,0.5468
3395.00,0.5486
3394.00,0.5504
3393.00,0.5523
3392.00,0.5542
3391.00,0.5560
3390.00,0.5577
3389.00,0.5595
3388.00,0.5613
3387.00,0.5630
3386.00,0.5648
3385.00,0.5665
3384.00,0.5681
3383.00,0.5698
3382.00,0.5714
3381.00,0.5732
3380.00,0.5749
3379.00,0.5767
3378.00,0.5784
3377.00,0.5802
3376.00,0.5819
3375.00,0.5837
3374.00,0.5854
3373.00,0.5871
3372.00,0.5888
3371.00,0.5904
3370.00,0.5921
3369.00,0.5939
3368.00,0.5958
3367.00,0.5977
3366.00,0.5995
3365.00,0.6012
3364.00,0.6029
3363.00,0.6047
3362.00,0.6065
3361.00,0.6083
3360.00,0.6102
3359.00,0.6119
3358.00,0.6136
3357.00,0.6152
3356.00,0.6169
3355.00,0.6185
3354.00,0.6203
3353.00,0.6220
3352.00,0.6236
3351.00,0.6251
3350.00,0.6265
3349.00,0.6279
3348.00,0.6293
3347.00,0.6307
3346.00,0.6321
3345.00,0.6334
3344.00,0.6346
3343.00,0.6357
3342.00,0.6367
3341.00,0.6376
3340.00,0.6386
3339.00,0.6394
3338.00,0.6402
3337.00,0.6408
3336.00,0.6412
3335.00,0.6414
3334.00,0.6416
3333.00,0.6418
3332.00,0.6420
3331.00,0.6420
3330.00,0.6419
3329.00,0.6417
3328.00,0.6413
3327.00,0.6409
3326.00,0.6404
3325.00,0.6398
3324.00,0.6392
3323.00,0.6385
3322.00,0.6378
3321.00,0.6370
3320.00,0.6361
3319.00,0.6351
3318.00,0.6342
3317.00,0.6331
3316.00,0.6320
3315.00,0.6309
3314.00,0.6298
3313.00,0.6287
3312.00,0.6276
3311.00,0.6266
3310.00,0.6255
3309.00,0.6245
3308.00,0.6235
3307.00,0.6225
3306.00,0.6215
3305.00,0.6205
3304.00,0.6196
3303.00,0.6186
3302.00,0.6178
3301.00,0.6170
3300.00,0.6163
3299.00,0.6156
3298.00,0.6149
3297.00,0.6143
3296.00,0.6138
3295.00,0.6134
3294.00,0.6131
3293.00,0.6128
3292.00,0.6125
3291.00,0.6122
3290.00,0.6119
3289.00,0.6117
3288.00,0.6116
3287.00,0.6116
3286.00,0.6116
3285.00,0.6116
3284.00,0.6117
3283.00,0.6117
3282.00,0.6118
3281.00,0.6120
3280.00,0.6121
3279.00,0.6122
3278.00,0.6124
3277.00,0.6125
3276.00,0.6127
3275.00,0.6128
3274.00,0.6131
3273.00,0.6134
3272.00,0.6137
3271.00,0.6140
3270.00,0.6142
3269.00,0.6144
3268.00,0.6146
3267.00,0.6148
3266.00,0.6150
3265.00,0.6152
3264.00,0.6154
3263.00,0.6155
3262.00,0.6157
3261.00,0.6158
3260.00,0.6159
3259.00,0.6158
3258.00,0.6158
3257.00,0.6158
3256.00,0.6157
3255.00,0.6156
3254.00,0.6154
3253.00,0.6151
3252.00,0.6148
3251.00,0.6144
3250.00,0.6140
3249.00,0.6136
3248.00,0.6130
3247.00,0.6124
3246.00,0.6117
3245.00,0.6109
3244.00,0.6101
3243.00,0.6093
3242.00,0.6084
3241.00,0.6075
3240.00,0.6065
3239.00,0.6055
3238.00,0.6043
3237.00,0.6031
3236.00,0.6019
3235.00,0.6006
3234.00,0.5994
3233.00,0.5981
3232.00,0.5968
3231.00,0.5954
3230.00,0.5940
3229.00,0.5926
3228.00,0.5912
3227.00,0.5898
3226.00,0.5883
3225.00,0.5868
3224.00,0.5853
3223.00,0.5838
3222.00,0.5823
3221.00,0.5807
3220.00,0.5790
3219.00,0.5774
3218.00,0.5758
3217.00,0.5742
3216.00,0.5726
3215.00,0.5709
3214.00,0.5693
3213.00,0.5678
3212.00,0.5662
3211.00,0.5646
3210.00,0.5630
3209.00,0.5614
3208.00,0.5599
3207.00,0.5583
3206.00,0.5568
3205.00,0.5552
3204.00,0.5536
3203.00,0.5520
3202.00,0.5504
3201.00,0.5488
3200.00,0.5472
3199.00,0.5457
3198.00,0.5442
3197.00,0.5426
3196.00,0.5409
3195.00,0.5392
3194.00,0.5375
3193.00,0.5358
3192.00,0.5341
3191.00,0.5324
3190.00,0.5308
3189.00,0.5292
3188.00,0.5275
3187.00,0.5258
3186.00,0.5240
3185.00,0.5222
3184.00,0.5205
3183.00,0.5188
3182.00,0.5171
3181.00,0.5154
3180.00,0.5137
3179.00,0.5120
3178.00,0.5103
3177.00,0.5086
3176.00,0.5070
3175.00,0.5054
3174.00,0.5038
3173.00,0.5023
3172.00,0.5007
3171.00,0.4991
3170.00,0.4976
3169.00,0.4960
3168.00,0.4944
3167.00,0.4928
3166.00,0.4913
3165.00,0.4899
3164.00,0.4886
3163.00,0.4873
3162.00,0.4860
3161.00,0.4847
3160.00,0.4834
3159.00,0.4822
3158.00,0.4809
3157.00,0.4797
3156.00,0.4785
3155.00,0.4773
3154.00,0.4762
3153.00,0.4750
3152.00,0.4740
3151.00,0.4729
3150.00,0.4719
3149.00,0.4709
3148.00,0.4699
3147.00,0.4689
3146.00,0.4679
3145.00,0.4670
3144.00,0.4660
3143.00,0.4651
3142.00,0.4643
3141.00,0.4635
3140.00,0.4627
3139.00,0.4620
3138.00,0.4613
3137.00,0.4606
3136.00,0.4599
3135.00,0.4592
3134.00,0.4585
3133.00,0.4578
3132.00,0.4572
3131.00,0.4566
3130.00,0.4560
3129.00,0.4553
3128.00,0.4548
3127.00,0.4543
3126.00,0.4539
3125.00,0.4535
3124.00,0.4532
3123.00,0.4529
3122.00,0.4527
3121.00,0.4525
3120.00,0.4524
3119.00,0.4523
3118.00,0.4522
3117.00,0.4522
3116.00,0.4523
3115.00,0.4524
3114.00,0.4526
3113.00,0.4530
3112.00,0.4534
3111.00,0.4538
3110.00,0.4543
3109.00,0.4548
3108.00,0.4555
3107.00,0.4561
3106.00,0.4568
3105.00,0.4575
3104.00,0.4583
3103.00,0.4591
3102.00,0.4600
3101.00,0.4609
3100.00,0.4617
3099.00,0.4626
3098.00,0.4634
3097.00,0.4642
3096.00,0.4651
3095.00,0.4660
3094.00,0.4669
3093.00,0.4678
3092.00,0.4687
3091.00,0.4696
3090.00,0.4706
3089.00,0.4717
3088.00,0.4728
3087.00,0.4741
3086.00,0.4753
3085.00,0.4767
3084.00,0.4781
3083.00,0.4796
3082.00,0.4812
3081.00,0.4828
3080.00,0.4846
3079.00,0.4865
3078.00,0.4885
3077.00,0.4907
3076.00,0.4930
3075.00,0.4955
3074.00,0.4981
3073.00,0.5008
3072.00,0.5036
3071.00,0.5066
3070.00,0.5096
3069.00,0.5128
3068.00,0.5161
3067.00,0.5194
3066.00,0.5229
3065.00,0.5265
3064.00,0.5302
3063.00,0.5339
3062.00,0.5377
3061.00,0.5414
3060.00,0.5451
3059.00,0.5487
3058.00,0.5523
3057.00,0.5560
3056.00,0.5596
3055.00,0.5631
3054.00,0.5664
3053.00,0.5695
3052.00,0.5726
3051.00,0.5756
3050.00,0.5786
3049.00,0.5817
3048.00,0.5848
3047.00,0.5879
3046.00,0.5911
3045.00,0.5945
3044.00,0.5982
3043.00,0.6020
3042.00,0.6061
3041.00,0.6104
3040.00,0.6149
3039.00,0.6196
3038.00,0.6246
3037.00,0.6299
3036.00,0.6354
3035.00,0.6413
3034.00,0.6473
3033.00,0.6535
3032.00,0.6598
3031.00,0.6662
3030.00,0.6725
3029.00,0.6789
3028.00,0.6853
3027.00,0.6916
3026.00,0.6980
3025.00,0.7045
3024.00,0.7112
3023.00,0.7180
3022.00,0.7250
3021.00,0.7322
3020.00,0.7396
3019.00,0.7472
3018.00,0.7552
3017.00,0.7637
3016.00,0.7726
3015.00,0.7819
3014.00,0.7918
3013.00,0.8023
3012.00,0.8134
3011.00,0.8250
3010.00,0.8373
3009.00,0.8503
3008.00,0.8640
3007.00,0.8787
3006.00,0.8942
3005.00,0.9106
3004.00,0.9278
3003.00,0.9458
3002.00,0.9648
3001.00,0.9849
3000.00,1.0062
2999.00,1.0288
2998.00,1.0529
2997.00,1.0787
2996.00,1.1061
2995.00,1.1354
2994.00,1.1668
2993.00,1.2004
2992.00,1.2365
2991.00,1.2755
2990.00,1.3181
2989.00,1.3645
2988.00,1.4150
2987.00,1.4699
2986.00,1.5300
2985.00,1.5961
2984.00,1.6691
2983.00,1.7498
2982.00,1.8390
2981.00,1.9376
2980.00,2.0462
2979.00,2.1655
2978.00,2.2973
2977.00,2.4432
2976.00,2.6050
2975.00,2.7840
2974.00,2.9758
2973.00,3.1644
2972.00,3.3293
2971.00,3.4782
2970.00,3.6500
2969.00,3.8757
2968.00,4.1561
2967.00,4.4568
2966.00,4.7511
2965.00,4.7928
2964.00,4.4605
2963.00,4.2405
2962.00,4.2987
2961.00,4.3659
2960.00,4.1073
2959.00,3.8995
2958.00,3.8443
2957.00,3.9333
2956.00,4.0186
2955.00,4.0609
2954.00,4.0906
2953.00,4.0479
2952.00,4.0007
2951.00,4.0102
2950.00,4.0793
2949.00,4.1104
2948.00,4.1280
2947.00,4.2081
2946.00,4.3009
2945.00,4.2489
2944.00,4.1836
2943.00,4.3276
2942.00,4.4968
2941.00,4.2899
2940.00,4.1285
2939.00,4.1760
2938.00,4.2583
2937.00,4.1590
2936.00,4.0828
2935.00,4.1727
2934.00,4.3629
2933.00,4.5541
2932.00,4.5951
2931.00,4.2246
2930.00,3.9542
2929.00,3.8589
2928.00,3.9151
2927.00,4.0439
2926.00,4.1774
2925.00,4.3630
2924.00,4.6992
2923.00,4.7170
2922.00,4.2841
2921.00,4.0387
2920.00,3.9773
2919.00,4.0318
2918.00,4.0380
2917.00,3.9406
2916.00,3.8230
2915.00,3.7528
2914.00,3.7478
2913.00,3.7816
2912.00,3.8196
2911.00,3.8394
2910.00,3.8488
2909.00,3.8738
2908.00,3.9500
2907.00,4.1173
2906.00,4.3089
2905.00,4.3614
2904.00,4.2470
2903.00,4.2404
2902.00,4.3024
2901.00,4.4748
2900.00,4.8630
2899.00,4.4087
2898.00,4.0905
2897.00,3.9665
2896.00,4.1158
2895.00,4.4305
2894.00,4.4772
2893.00,4.3807
2892.00,4.2321
2891.00,4.0900
2890.00,3.9909
2889.00,3.9250
2888.00,3.8584
2887.00,3.8289
2886.00,3.8771
2885.00,4.0064
2884.00,4.1385
2883.00,4.2708
2882.00,4.5696
2881.00,4.8380
2880.00,4.5636
2879.00,4.5208
2878.00,4.6157
2877.00,4.3000
2876.00,3.9815
2875.00,3.8783
2874.00,3.9870
2873.00,4.3136
2872.00,4.7966
2871.00,4.6043
2870.00,4.3778
2869.00,4.4545
2868.00,4.6055
2867.00,4.2437
2866.00,3.9923
2865.00,3.9659
2864.00,4.1119
2863.00,4.2094
2862.00,4.0938
2861.00,4.0411
2860.00,4.1670
2859.00,4.3655
2858.00,4.3436
2857.00,4.1886
2856.00,4.1642
2855.00,4.1956
2854.00,4.3228
2853.00,4.5469
2852.00,4.2945
2851.00,4.0876
2850.00,4.0403
2849.00,4.2122
2848.00,4.3317
2847.00,4.1289
2846.00,3.9692
2845.00,3.9100
2844.00,3.9863
2843.00,4.1520
2842.00,4.1738
2841.00,3.8875
2840.00,3.5688
2839.00,3.3233
2838.00,3.1230
2837.00,2.9343
2836.00,2.7496
2835.00,2.5763
2834.00,2.4195
2833.00,2.2793
2832.00,2.1539
2831.00,2.0416
2830.00,1.9405
2829.00,1.8490
2828.00,1.7664
2827.00,1.6920
2826.00,1.6250
2825.00,1.5642
2824.00,1.5084
2823.00,1.4575
2822.00,1.4108
2821.00,1.3681
2820.00,1.3286
2819.00,1.2919
2818.00,1.2578
2817.00,1.2259
2816.00,1.1958
2815.00,1.1674
2814.00,1.1407
2813.00,1.1153
2812.00,1.0913
2811.00,1.0685
2810.00,1.0466
2809.00,1.0255
2808.00,1.0050
2807.00,0.9852
2806.00,0.9660
2805.00,0.9474
2804.00,0.9294
2803.00,0.9119
2802.00,0.8949
2801.00,0.8784
2800.00,0.8625
2799.00,0.8473
2798.00,0.8327
2797.00,0.8189
2796.00,0.8056
2795.00,0.7930
2794.00,0.7811
2793.00,0.7699
2792.00,0.7593
2791.00,0.7491
2790.00,0.7393
2789.00,0.7299
2788.00,0.7208
2787.00,0.7119
2786.00,0.7031
2785.00,0.6943
2784.00,0.6854
2783.00,0.6766
2782.00,0.6680
2781.00,0.6595
2780.00,0.6513
2779.00,0.6434
2778.00,0.6358
2777.00,0.6285
2776.00,0.6215
2775.00,0.6148
2774.00,0.6085
2773.00,0.6027
2772.00,0.5974
2771.00,0.5925
2770.00,0.5880
2769.00,0.5840
2768.00,0.5804
2767.00,0.5772
2766.00,0.5743
2765.00,0.5718
2764.00,0.5696
2763.00,0.5676
2762.00,0.5660
2761.00,0.5645
2760.00,0.5634
2759.00,0.5624
2758.00,0.5615
2757.00,0.5609
2756.00,0.5604
2755.00,0.5601
2754.00,0.5601
2753.00,0.5603
2752.00,0.5607
2751.00,0.5612
2750.00,0.5620
2749.00,0.5629
2748.00,0.5640
2747.00,0.5651
2746.00,0.5664
2745.00,0.5678
2744.00,0.5695
2743.00,0.5713
2742.00,0.5735
2741.00,0.5760
2740.00,0.5789
2739.00,0.5823
2738.00,0.5861
2737.00,0.5903
2736.00,0.5949
2735.00,0.5998
2734.00,0.6048
2733.00,0.6094
2732.00,0.6130
2731.00,0.6150
2730.00,0.6149
2729.00,0.6127
2728.00,0.6087
2727.00,0.6033
2726.00,0.5973
2725.00,0.5913
2724.00,0.5856
2723.00,0.5807
2722.00,0.5766
2721.00,0.5732
2720.00,0.5705
2719.00,0.5683
2718.00,0.5664
2717.00,0.5645
2716.00,0.5626
2715.00,0.5602
2714.00,0.5577
2713.00,0.5549
2712.00,0.5522
2711.00,0.5496
2710.00,0.5471
2709.00,0.5448
2708.00,0.5426
2707.00,0.5407
2706.00,0.5391
2705.00,0.5378
2704.00,0.5367
2703.00,0.5358
2702.00,0.5353
2701.00,0.5350
2700.00,0.5350
2699.00,0.5353
2698.00,0.5358
2697.00,0.5366
2696.00,0.5375
2695.00,0.5387
2694.00,0.5402
2693.00,0.5419
2692.00,0.5438
2691.00,0.5458
2690.00,0.5477
2689.00,0.5494
2688.00,0.5509
2687.00,0.5521
2686.00,0.5532
2685.00,0.5541
2684.00,0.5548
2683.00,0.5553
2682.00,0.5558
2681.00,0.5561
2680.00,0.5565
2679.00,0.5568
2678.00,0.5572
2677.00,0.5575
2676.00,0.5579
2675.00,0.5582
2674.00,0.5583
2673.00,0.5582
2672.00,0.5579
2671.00,0.5573
2670.00,0.5564
2669.00,0.5551
2668.00,0.5534
2667.00,0.5512
2666.00,0.5487
2665.00,0.5460
2664.00,0.5430
2663.00,0.5399
2662.00,0.5369
2661.00,0.5339
2660.00,0.5311
2659.00,0.5285
2658.00,0.5259
2657.00,0.5234
2656.00,0.5209
2655.00,0.5184
2654.00,0.5161
2653.00,0.5138
2652.00,0.5117
2651.00,0.5097
2650.00,0.5078
2649.00,0.5059
2648.00,0.5040
2647.00,0.5022
2646.00,0.5004
2645.00,0.4988
2644.00,0.4973
2643.00,0.4960
2642.00,0.4946
2641.00,0.4933
2640.00,0.4920
2639.00,0.4907
2638.00,0.4895
2637.00,0.4883
2636.00,0.4871
2635.00,0.4859
2634.00,0.4847
2633.00,0.4835
2632.00,0.4822
2631.00,0.4809
2630.00,0.4795
2629.00,0.4780
2628.00,0.4766
2627.00,0.4752
2626.00,0.4738
2625.00,0.4724
2624.00,0.4711
2623.00,0.4698
2622.00,0.4685
2621.00,0.4674
2620.00,0.4662
2619.00,0.4651
2618.00,0.4640
2617.00,0.4629
2616.00,0.4618
2615.00,0.4607
2614.00,0.4596
2613.00,0.4585
2612.00,0.4574
2611.00,0.4563
2610.00,0.4552
2609.00,0.4542
2608.00,0.4532
2607.00,0.4522
2606.00,0.4512
2605.00,0.4503
2604.00,0.4493
2603.00,0.4483
2602.00,0.4473
2601.00,0.4462
2600.00,0.4452
2599.00,0.4441
2598.00,0.4430
2597.00,0.4417
2596.00,0.4405
2595.00,0.4392
2594.00,0.4378
2593.00,0.4365
2592.00,0.4352
2591.00,0.4339
2590.00,0.4326
2589.00,0.4314
2588.00,0.4301
2587.00,0.4288
2586.00,0.4275
2585.00,0.4261
2584.00,0.4247
2583.00,0.4233
2582.00,0.4218
2581.00,0.4203
2580.00,0.4186
2579.00,0.4170
2578.00,0.4153
2577.00,0.4137
2576.00,0.4122
2575.00,0.4106
2574.00,0.4091
2573.00,0.4076
2572.00,0.4062
2571.00,0.4048
2570.00,0.4034
2569.00,0.4020
2568.00,0.4007
2567.00,0.3994
2566.00,0.3982
2565.00,0.3969
2564.00,0.3956
2563.00,0.3943
2562.00,0.3930
2561.00,0.3917
2560.00,0.3905
2559.00,0.3894
2558.00,0.3883
2557.00,0.3872
2556.00,0.3861
2555.00,0.3850
2554.00,0.3840
2553.00,0.3829
2552.00,0.3820
2551.00,0.3811
2550.00,0.3803
2549.00,0.3796
2548.00,0.3788
2547.00,0.3781
2546.00,0.3775
2545.00,0.3769
2544.00,0.3763
2543.00,0.3758
2542.00,0.3753
2541.00,0.3749
2540.00,0.3744
2539.00,0.3740
2538.00,0.3735
2537.00,0.3730
2536.00,0.3724
2535.00,0.3717
2534.00,0.3709
2533.00,0.3701
2532.00,0.3692
2531.00,0.3681
2530.00,0.3670
2529.00,0.3658
2528.00,0.3645
2527.00,0.3630
2526.00,0.3616
2525.00,0.3602
2524.00,0.3589
2523.00,0.3576
2522.00,0.3564
2521.00,0.3552
2520.00,0.3540
2519.00,0.3528
2518.00,0.3516
2517.00,0.3505
2516.00,0.3495
2515.00,0.3485
2514.00,0.3474
2513.00,0.3464
2512.00,0.3454
2511.00,0.3444
2510.00,0.3434
2509.00,0.3426
2508.00,0.3418
2507.00,0.3410
2506.00,0.3402
2505.00,0.3395
2504.00,0.3390
2503.00,0.3385
2502.00,0.3380
2501.00,0.3377
2500.00,0.3373
2499.00,0.3368
2498.00,0.3364
2497.00,0.3359
2496.00,0.3354
2495.00,0.3349
2494.00,0.3343
2493.00,0.3338
2492.00,0.3332
2491.00,0.3327
2490.00,0.3321
2489.00,0.3315
2488.00,0.3309
2487.00,0.3304
2486.00,0.3298
2485.00,0.3293
2484.00,0.3287
2483.00,0.3282
2482.00,0.3277
2481.00,0.3272
2480.00,0.3266
2479.00,0.3260
2478.00,0.3254
2477.00,0.3248
2476.00,0.3242
2475.00,0.3236
2474.00,0.3231
2473.00,0.3225
2472.00,0.3220
2471.00,0.3214
2470.00,0.3209
2469.00,0.3204
2468.00,0.3199
2467.00,0.3195
2466.00,0.3191
2465.00,0.3187
2464.00,0.3184
2463.00,0.3180
2462.00,0.3178
2461.00,0.3175
2460.00,0.3172
2459.00,0.3169
2458.00,0.3167
2457.00,0.3166
2456.00,0.3165
2455.00,0.3165
2454.00,0.3166
2453.00,0.3166
2452.00,0.3166
2451.00,0.3166
2450.00,0.3165
2449.00,0.3165
2448.00,0.3165
2447.00,0.3165
2446.00,0.3166
2445.00,0.3168
2444.00,0.3169
2443.00,0.3171
2442.00,0.3172
2441.00,0.3174
2440.00,0.3175
2439.00,0.3176
2438.00,0.3177
2437.00,0.3178
2436.00,0.3178
2435.00,0.3179
2434.00,0.3180
2433.00,0.3180
2432.00,0.3180
2431.00,0.3180
2430.00,0.3181
2429.00,0.3181
2428.00,0.3182
2427.00,0.3183
2426.00,0.3184
2425.00,0.3184
2424.00,0.3185
2423.00,0.3185
2422.00,0.3185
2421.00,0.3185
2420.00,0.3185
2419.00,0.3186
2418.00,0.3186
2417.00,0.3187
2416.00,0.3188
2415.00,0.3189
2414.00,0.3188
2413.00,0.3188
2412.00,0.3188
2411.00,0.3188
2410.00,0.3188
2409.00,0.3189
2408.00,0.3190
2407.00,0.3191
2406.00,0.3192
2405.00,0.3193
2404.00,0.3193
2403.00,0.3194
2402.00,0.3195
2401.00,0.3196
2400.00,0.3198
2399.00,0.3200
2398.00,0.3201
2397.00,0.3202
2396.00,0.3204
2395.00,0.3205
2394.00,0.3207
2393.00,0.3209
2392.00,0.3211
2391.00,0.3213
2390.00,0.3215
2389.00,0.3218
2388.00,0.3219
2387.00,0.3221
2386.00,0.3222
2385.00,0.3224
2384.00,0.3226
2383.00,0.3228
2382.00,0.3230
2381.00,0.3233
2380.00,0.3235
2379.00,0.3237
2378.00,0.3239
2377.00,0.3240
2376.00,0.3240
2375.00,0.3239
2374.00,0.3238
2373.00,0.3237
2372.00,0.3237
2371.00,0.3238
2370.00,0.3239
2369.00,0.3241
2368.00,0.3243
2367.00,0.3245
2366.00,0.3247
2365.00,0.3250
2364.00,0.3251
2363.00,0.3252
2362.00,0.3253
2361.00,0.3253
2360.00,0.3255
2359.00,0.3256
2358.00,0.3257
2357.00,0.3257
2356.00,0.3256
2355.00,0.3254
2354.00,0.3254
2353.00,0.3254
2352.00,0.3255
2351.00,0.3255
2350.00,0.3255
2349.00,0.3254
2348.00,0.3253
2347.00,0.3253
2346.00,0.3253
2345.00,0.3253
2344.00,0.3252
2343.00,0.3251
2342.00,0.3249
2341.00,0.3248
2340.00,0.3247
2339.00,0.3247
2338.00,0.3246
2337.00,0.3246
2336.00,0.3244
2335.00,0.3243
2334.00,0.3242
2333.00,0.3242
2332.00,0.3241
2331.00,0.3239
2330.00,0.3235
2329.00,0.3231
2328.00,0.3228
2327.00,0.3224
2326.00,0.3222
2325.00,0.3220
2324.00,0.3218
2323.00,0.3215
2322.00,0.3212
2321.00,0.3207
2320.00,0.3203
2319.00,0.3198
2318.00,0.3193
2317.00,0.3190
2316.00,0.3187
2315.00,0.3184
2314.00,0.3180
2313.00,0.3176
2312.00,0.3172
2311.00,0.3167
2310.00,0.3162
2309.00,0.3157
2308.00,0.3152
2307.00,0.3146
2306.00,0.3140
2305.00,0.3134
2304.00,0.3129
2303.00,0.3124
2302.00,0.3120
2301.00,0.3116
2300.00,0.3112
2299.00,0.3108
2298.00,0.3104
2297.00,0.3100
2296.00,0.3097
2295.00,0.3093
2294.00,0.3090
2293.00,0.3085
2292.00,0.3081
2291.00,0.3077
2290.00,0.3072
2289.00,0.3068
2288.00,0.3063
2287.00,0.3059
2286.00,0.3054
2285.00,0.3049
2284.00,0.3045
2283.00,0.3041
2282.00,0.3037
2281.00,0.3034
2280.00,0.3031
2279.00,0.3028
2278.00,0.3025
2277.00,0.3023
2276.00,0.3020
2275.00,0.3017
2274.00,0.3015
2273.00,0.3013
2272.00,0.3012
2271.00,0.3010
2270.00,0.3010
2269.00,0.3009
2268.00,0.3008
2267.00,0.3008
2266.00,0.3007
2265.00,0.3006
2264.00,0.3005
2263.00,0.3003
2262.00,0.3001
2261.00,0.2999
2260.00,0.2997
2259.00,0.2994
2258.00,0.2992
2257.00,0.2989
2256.00,0.2986
2255.00,0.2983
2254.00,0.2981
2253.00,0.2978
2252.00,0.2975
2251.00,0.2972
2250.00,0.2969
2249.00,0.2965
2248.00,0.2962
2247.00,0.2959
2246.00,0.2955
2245.00,0.2952
2244.00,0.2949
2243.00,0.2945
2242.00,0.2942
2241.00,0.2940
2240.00,0.2937
2239.00,0.2935
2238.00,0.2932
2237.00,0.2930
2236.00,0.2928
2235.00,0.2926
2234.00,0.2924
2233.00,0.2922
2232.00,0.2921
2231.00,0.2920
2230.00,0.2919
2229.00,0.2919
2228.00,0.2918
2227.00,0.2918
2226.00,0.2917
2225.00,0.2917
2224.00,0.2916
2223.00,0.2916
2222.00,0.2915
2221.00,0.2914
2220.00,0.2913
2219.00,0.2912
2218.00,0.2911
2217.00,0.2910
2216.00,0.2909
2215.00,0.2908
2214.00,0.2907
2213.00,0.2906
2212.00,0.2905
2211.00,0.2905
2210.00,0.2904
2209.00,0.2903
2208.00,0.2903
2207.00,0.2903
2206.00,0.2903
2205.00,0.2904
2204.00,0.2905
2203.00,0.2906
2202.00,0.2907
2201.00,0.2908
2200.00,0.2909
2199.00,0.2909
2198.00,0.2910
2197.00,0.2911
2196.00,0.2912
2195.00,0.2913
2194.00,0.2915
2193.00,0.2916
2192.00,0.2918
2191.00,0.2920
2190.00,0.2922
2189.00,0.2923
2188.00,0.2923
2187.00,0.2924
2186.00,0.2924
2185.00,0.2925
2184.00,0.2925
2183.00,0.2925
2182.00,0.2925
2181.00,0.2925
2180.00,0.2925
2179.00,0.2924
2178.00,0.2925
2177.00,0.2925
2176.00,0.2925
2175.00,0.2925
2174.00,0.2925
2173.00,0.2925
2172.00,0.2926
2171.00,0.2927
2170.00,0.2928
2169.00,0.2929
2168.00,0.2929
2167.00,0.2929
2166.00,0.2930
2165.00,0.2930
2164.00,0.2931
2163.00,0.2932
2162.00,0.2932
2161.00,0.2932
2160.00,0.2931
2159.00,0.2931
2158.00,0.2930
2157.00,0.2930
2156.00,0.2930
2155.00,0.2929
2154.00,0.2929
2153.00,0.2928
2152.00,0.2927
2151.00,0.2926
2150.00,0.2923
2149.00,0.2920
2148.00,0.2916
2147.00,0.2911
2146.00,0.2904
2145.00,0.2897
2144.00,0.2890
2143.00,0.2883
2142.00,0.2875
2141.00,0.2869
2140.00,0.2862
2139.00,0.2856
2138.00,0.2850
2137.00,0.2845
2136.00,0.2840
2135.00,0.2836
2134.00,0.2833
2133.00,0.2831
2132.00,0.2829
2131.00,0.2827
2130.00,0.2826
2129.00,0.2825
2128.00,0.2823
2127.00,0.2821
2126.00,0.2820
2125.00,0.2818
2124.00,0.2817
2123.00,0.2816
2122.00,0.2815
2121.00,0.2814
2120.00,0.2812
2119.00,0.2811
2118.00,0.2809
2117.00,0.2808
2116.00,0.2807
2115.00,0.2805
2114.00,0.2803
2113.00,0.2802
2112.00,0.2800
2111.00,0.2798
2110.00,0.2796
2109.00,0.2794
2108.00,0.2793
2107.00,0.2791
2106.00,0.2789
2105.00,0.2788
2104.00,0.2788
2103.00,0.2788
2102.00,0.2788
2101.00,0.2788
2100.00,0.2788
2099.00,0.2788
2098.00,0.2788
2097.00,0.2789
2096.00,0.2790
2095.00,0.2791
2094.00,0.2791
2093.00,0.2791
2092.00,0.2791
2091.00,0.2792
2090.00,0.2791
2089.00,0.2791
2088.00,0.2791
2087.00,0.2791
2086.00,0.2790
2085.00,0.2790
2084.00,0.2790
2083.00,0.2790
2082.00,0.2790
2081.00,0.2790
2080.00,0.2790
2079.00,0.2789
2078.00,0.2789
2077.00,0.2789
2076.00,0.2789
2075.00,0.2789
2074.00,0.2789
2073.00,0.2790
2072.00,0.2791
2071.00,0.2791
2070.00,0.2792
2069.00,0.2793
2068.00,0.2795
2067.00,0.2797
2066.00,0.2799
2065.00,0.2801
2064.00,0.2804
2063.00,0.2806
2062.00,0.2808
2061.00,0.2811
2060.00,0.2815
2059.00,0.2818
2058.00,0.2822
2057.00,0.2827
2056.00,0.2831
2055.00,0.2835
2054.00,0.2839
2053.00,0.2843
2052.00,0.2848
2051.00,0.2853
2050.00,0.2858
2049.00,0.2863
2048.00,0.2867
2047.00,0.2871
2046.00,0.2875
2045.00,0.2879
2044.00,0.2882
2043.00,0.2884
2042.00,0.2886
2041.00,0.2887
2040.00,0.2888
2039.00,0.2888
2038.00,0.2889
2037.00,0.2890
2036.00,0.2891
2035.00,0.2893
2034.00,0.2895
2033.00,0.2898
2032.00,0.2900
2031.00,0.2903
2030.00,0.2906
2029.00,0.2910
2028.00,0.2914
2027.00,0.2918
2026.00,0.2921
2025.00,0.2923
2024.00,0.2924
2023.00,0.2923
2022.00,0.2919
2021.00,0.2914
2020.00,0.2907
2019.00,0.2898
2018.00,0.2887
2017.00,0.2876
2016.00,0.2864
2015.00,0.2851
2014.00,0.2839
2013.00,0.2827
2012.00,0.2816
2011.00,0.2806
2010.00,0.2797
2009.00,0.2790
2008.00,0.2782
2007.00,0.2775
2006.00,0.2769
2005.00,0.2763
2004.00,0.2758
2003.00,0.2753
2002.00,0.2749
2001.00,0.2745
2000.00,0.2743
1999.00,0.2740
1998.00,0.2737
1997.00,0.2735
1996.00,0.2733
1995.00,0.2730
1994.00,0.2729
1993.00,0.2728
1992.00,0.2727
1991.00,0.2727
1990.00,0.2726
1989.00,0.2726
1988.00,0.2726
1987.00,0.2725
1986.00,0.2724
1985.00,0.2724
1984.00,0.2724
1983.00,0.2724
1982.00,0.2724
1981.00,0.2724
1980.00,0.2724
1979.00,0.2723
1978.00,0.2723
1977.00,0.2723
1976.00,0.2723
1975.00,0.2723
1974.00,0.2722
1973.00,0.2722
1972.00,0.2721
1971.00,0.2719
1970.00,0.2718
1969.00,0.2718
1968.00,0.2717
1967.00,0.2717
1966.00,0.2715
1965.00,0.2714
1964.00,0.2713
1963.00,0.2712
1962.00,0.2712
1961.00,0.2712
1960.00,0.2713
1959.00,0.2713
1958.00,0.2714
1957.00,0.2715
1956.00,0.2716
1955.00,0.2717
1954.00,0.2718
1953.00,0.2720
1952.00,0.2722
1951.00,0.2724
1950.00,0.2725
1949.00,0.2727
1948.00,0.2729
1947.00,0.2730
1946.00,0.2730
1945.00,0.2731
1944.00,0.2734
1943.00,0.2738
1942.00,0.2742
1941.00,0.2745
1940.00,0.2748
1939.00,0.2749
1938.00,0.2750
1937.00,0.2751
1936.00,0.2751
1935.00,0.2751
1934.00,0.2750
1933.00,0.2750
1932.00,0.2751
1931.00,0.2751
1930.00,0.2751
1929.00,0.2752
1928.00,0.2753
1927.00,0.2752
1926.00,0.2752
1925.00,0.2753
1924.00,0.2755
1923.00,0.2757
1922.00,0.2758
1921.00,0.2760
1920.00,0.2762
1919.00,0.2766
1918.00,0.2769
1917.00,0.2773
1916.00,0.2775
1915.00,0.2776
1914.00,0.2776
1913.00,0.2776
1912.00,0.2777
1911.00,0.2777
1910.00,0.2779
1909.00,0.2780
1908.00,0.2782
1907.00,0.2782
1906.00,0.2783
1905.00,0.2783
1904.00,0.2783
1903.00,0.2784
1902.00,0.2784
1901.00,0.2784
1900.00,0.2784
1899.00,0.2784
1898.00,0.2784
1897.00,0.2785
1896.00,0.2786
1895.00,0.2786
1894.00,0.2785
1893.00,0.2783
1892.00,0.2781
1891.00,0.2781
1890.00,0.2781
1889.00,0.2783
1888.00,0.2783
1887.00,0.2784
1886.00,0.2784
1885.00,0.2786
1884.00,0.2787
1883.00,0.2787
1882.00,0.2787
1881.00,0.2788
1880.00,0.2789
1879.00,0.2790
1878.00,0.2790
1877.00,0.2791
1876.00,0.2791
1875.00,0.2791
1874.00,0.2792
1873.00,0.2793
1872.00,0.2793
1871.00,0.2794
1870.00,0.2795
1869.00,0.2795
1868.00,0.2790
1867.00,0.2791
1866.00,0.2792
1865.00,0.2792
1864.00,0.2792
1863.00,0.2790
1862.00,0.2788
1861.00,0.2786
1860.00,0.2784
1859.00,0.2781
1858.00,0.2779
1857.00,0.2776
1856.00,0.2774
1855.00,0.2771
1854.00,0.2769
1853.00,0.2767
1852.00,0.2765
1851.00,0.2763
1850.00,0.2762
1849.00,0.2761
1848.00,0.2760
1847.00,0.2759
1846.00,0.2758
1845.00,0.2758
1844.00,0.2758
1843.00,0.2759
1842.00,0.2760
1841.00,0.2761
1840.00,0.2762
1839.00,0.2762
1838.00,0.2762
1837.00,0.2763
1836.00,0.2764
1835.00,0.2765
1834.00,0.2766
1833.00,0.2766
1832.00,0.2767
1831.00,0.2767
1830.00,0.2767
1829.00,0.2766
1828.00,0.2768
1827.00,0.2759
1826.00,0.2760
1825.00,0.2763
1824.00,0.2766
1823.00,0.2767
1822.00,0.2768
1821.00,0.2768
1820.00,0.2769
1819.00,0.2770
1818.00,0.2771
1817.00,0.2771
1816.00,0.2771
1815.00,0.2770
1814.00,0.2768
1813.00,0.2767
1812.00,0.2769
1811.00,0.2771
1810.00,0.2773
1809.00,0.2777
1808.00,0.2780
1807.00,0.2782
1806.00,0.2783
1805.00,0.2783
1804.00,0.2784
1803.00,0.2785
1802.00,0.2787
1801.00,0.2799
1800.00,0.2805
1799.00,0.2809
1798.00,0.2813
1797.00,0.2816
1796.00,0.2821
1795.00,0.2824
1794.00,0.2828
1793.00,0.2832
1792.00,0.2837
1791.00,0.2841
1790.00,0.2845
1789.00,0.2849
1788.00,0.2855
1787.00,0.2857
1786.00,0.2861
1785.00,0.2867
1784.00,0.2871
1783.00,0.2874
1782.00,0.2879
1781.00,0.2885
1780.00,0.2890
1779.00,0.2895
1778.00,0.2897
1777.00,0.2899
1776.00,0.2900
1775.00,0.2902
1774.00,0.2905
1773.00,0.2910
1772.00,0.2915
1771.00,0.2919
1770.00,0.2926
1769.00,0.2935
1768.00,0.2942
1767.00,0.2945
1766.00,0.2945
1765.00,0.2946
1764.00,0.2950
1763.00,0.2956
1762.00,0.2964
1761.00,0.2972
1760.00,0.2980
1759.00,0.2987
1758.00,0.2997
1757.00,0.3009
1756.00,0.3021
1755.00,0.3033
1754.00,0.3047
1753.00,0.3063
1752.00,0.3080
1751.00,0.3097
1750.00,0.3114
1749.00,0.3134
1748.00,0.3155
1747.00,0.3173
1746.00,0.3188
1745.00,0.3199
1744.00,0.3207
1743.00,0.3210
1742.00,0.3210
1741.00,0.3211
1740.00,0.3211
1739.00,0.3207
1738.00,0.3199
1737.00,0.3194
1736.00,0.3196
1735.00,0.3200
1734.00,0.3203
1733.00,0.3200
1732.00,0.3193
1731.00,0.3190
1730.00,0.3192
1729.00,0.3197
1728.00,0.3202
1727.00,0.3206
1726.00,0.3213
1725.00,0.3219
1724.00,0.3227
1723.00,0.3234
1722.00,0.3242
1721.00,0.3250
1720.00,0.3258
1719.00,0.3266
1718.00,0.3274
1717.00,0.3285
1716.00,0.3293
1715.00,0.3300
1714.00,0.3311
1713.00,0.3324
1712.00,0.3336
1711.00,0.3348
1710.00,0.3358
1709.00,0.3368
1708.00,0.3379
1707.00,0.3393
1706.00,0.3408
1705.00,0.3420
1704.00,0.3426
1703.00,0.3427
1702.00,0.3426
1701.00,0.3427
1700.00,0.3429
1699.00,0.3429
1698.00,0.3432
1697.00,0.3439
1696.00,0.3444
1695.00,0.3439
1694.00,0.3430
1693.00,0.3425
1692.00,0.3427
1691.00,0.3431
1690.00,0.3435
1689.00,0.3441
1688.00,0.3449
1687.00,0.3457
1686.00,0.3464
1685.00,0.3473
1684.00,0.3483
1683.00,0.3490
1682.00,0.3498
1681.00,0.3507
1680.00,0.3517
1679.00,0.3520
1678.00,0.3540
1677.00,0.3554
1676.00,0.3566
1675.00,0.3579
1674.00,0.3592
1673.00,0.3605
1672.00,0.3619
1671.00,0.3633
1670.00,0.3648
1669.00,0.3664
1668.00,0.3681
1667.00,0.3697
1666.00,0.3710
1665.00,0.3728
1664.00,0.3733
1663.00,0.3750
1662.00,0.3773
1661.00,0.3793
1660.00,0.3812
1659.00,0.3826
1658.00,0.3837
1657.00,0.3849
1656.00,0.3865
1655.00,0.3890
1654.00,0.3930
1653.00,0.3977
1652.00,0.4006
1651.00,0.4010
1650.00,0.4013
1649.00,0.4032
1648.00,0.4068
1647.00,0.4114
1646.00,0.4161
1645.00,0.4203
1644.00,0.4239
1643.00,0.4272
1642.00,0.4307
1641.00,0.4345
1640.00,0.4383
1639.00,0.4421
1638.00,0.4466
1637.00,0.4524
1636.00,0.4598
1635.00,0.4674
1634.00,0.4741
1633.00,0.4802
1632.00,0.4861
1631.00,0.4920
1630.00,0.4983
1629.00,0.5054
1628.00,0.5133
1627.00,0.5212
1626.00,0.5291
1625.00,0.5379
1624.00,0.5484
1623.00,0.5602
1622.00,0.5723
1621.00,0.5844
1620.00,0.5969
1619.00,0.6102
1618.00,0.6257
1617.00,0.6442
1616.00,0.6644
1615.00,0.6844
1614.00,0.7046
1613.00,0.7270
1612.00,0.7524
1611.00,0.7798
1610.00,0.8080
1609.00,0.8365
1608.00,0.8649
1607.00,0.8922
1606.00,0.9194
1605.00,0.9494
1604.00,0.9848
1603.00,1.0255
1602.00,1.0712
1601.00,1.1214
1600.00,1.1743
1599.00,1.2258
1598.00,1.2750
1597.00,1.3270
1596.00,1.3867
1595.00,1.4555
1594.00,1.5354
1593.00,1.6333
1592.00,1.7552
1591.00,1.8989
1590.00,2.0604
1589.00,2.2523
1588.00,2.4963
1587.00,2.7896
1586.00,3.0857
1585.00,3.4921
1584.00,4.0766
1583.00,3.7960
1582.00,4.0617
1581.00,4.1801
1580.00,3.8572
1579.00,3.8025
1578.00,3.8706
1577.00,3.9120
1576.00,4.0338
1575.00,3.8894
1574.00,3.7892
1573.00,3.4926
1572.00,3.3783
1571.00,3.1846
1570.00,2.9525
1569.00,2.8447
1568.00,2.8357
1567.00,2.8500
1566.00,2.8668
1565.00,2.9656
1564.00,3.2125
1563.00,3.5244
1562.00,3.5798
1561.00,3.6305
1560.00,4.0538
1559.00,3.6844
1558.00,3.1166
1557.00,2.8283
1556.00,2.5904
1555.00,2.3264
1554.00,2.0855
1553.00,1.8960
1552.00,1.7439
1551.00,1.6104
1550.00,1.4926
1549.00,1.3958
1548.00,1.3186
1547.00,1.2529
1546.00,1.1935
1545.00,1.1402
1544.00,1.0936
1543.00,1.0518
1542.00,1.0129
1541.00,0.9765
1540.00,0.9420
1539.00,0.9105
1538.00,0.8842
1537.00,0.8643
1536.00,0.8491
1535.00,0.8364
1534.00,0.8265
1533.00,0.8214
1532.00,0.8217
1531.00,0.8261
1530.00,0.8338
1529.00,0.8449
1528.00,0.8580
1527.00,0.8709
1526.00,0.8824
1525.00,0.8935
1524.00,0.9060
1523.00,0.9218
1522.00,0.9434
1521.00,0.9704
1520.00,0.9975
1519.00,1.0191
1518.00,1.0324
1517.00,1.0353
1516.00,1.0246
1515.00,1.0002
1514.00,0.9658
1513.00,0.9265
1512.00,0.8869
1511.00,0.8509
1510.00,0.8211
1509.00,0.7981
1508.00,0.7806
1507.00,0.7678
1506.00,0.7603
1505.00,0.7587
1504.00,0.7617
1503.00,0.7676
1502.00,0.7748
1501.00,0.7820
1500.00,0.7880
1499.00,0.7912
1498.00,0.7913
1497.00,0.7894
1496.00,0.7869
1495.00,0.7846
1494.00,0.7840
1493.00,0.7868
1492.00,0.7937
1491.00,0.8048
1490.00,0.8201
1489.00,0.8398
1488.00,0.8634
1487.00,0.8899
1486.00,0.9186
1485.00,0.9496
1484.00,0.9824
1483.00,1.0169
1482.00,1.0538
1481.00,1.0947
1480.00,1.1400
1479.00,1.1907
1478.00,1.2509
1477.00,1.3265
1476.00,1.4217
1475.00,1.5397
1474.00,1.6905
1473.00,1.8933
1472.00,2.1660
1471.00,2.5097
1470.00,2.9100
1469.00,3.3896
1468.00,4.0974
1467.00,4.4635
1466.00,4.1624
1465.00,3.8966
1464.00,3.7126
1463.00,3.7323
1462.00,3.9957
1461.00,4.2907
1460.00,4.0247
1459.00,3.8645
1458.00,3.8350
1457.00,3.9726
1456.00,4.2280
1455.00,4.0770
1454.00,3.9515
1453.00,3.8847
1452.00,3.8030
1451.00,3.7580
1450.00,3.8214
1449.00,4.0296
1448.00,4.3011
1447.00,4.3894
1446.00,3.8586
1445.00,3.6682
1444.00,3.5665
1443.00,3.3794
1442.00,3.2207
1441.00,3.1491
1440.00,3.1284
1439.00,3.0792
1438.00,2.9829
1437.00,2.8534
1436.00,2.6846
1435.00,2.4950
1434.00,2.3148
1433.00,2.1495
1432.00,1.9950
1431.00,1.8540
1430.00,1.7325
1429.00,1.6330
1428.00,1.5540
1427.00,1.4930
1426.00,1.4484
1425.00,1.4200
1424.00,1.4074
1423.00,1.4086
1422.00,1.4204
1421.00,1.4400
1420.00,1.4660
1419.00,1.4967
1418.00,1.5326
1417.00,1.5769
1416.00,1.6320
1415.00,1.6921
1414.00,1.7411
1413.00,1.7567
1412.00,1.7252
1411.00,1.6561
1410.00,1.5732
1409.00,1.4929
1408.00,1.4193
1407.00,1.3503
1406.00,1.2843
1405.00,1.2212
1404.00,1.1630
1403.00,1.1119
1402.00,1.0689
1401.00,1.0335
1400.00,1.0046
1399.00,0.9823
1398.00,0.9658
1397.00,0.9531
1396.00,0.9411
1395.00,0.9270
1394.00,0.9100
1393.00,0.8919
1392.00,0.8754
1391.00,0.8632
1390.00,0.8573
1389.00,0.8602
1388.00,0.8741
1387.00,0.9006
1386.00,0.9401
1385.00,0.9936
1384.00,1.0645
1383.00,1.1585
1382.00,1.2802
1381.00,1.4310
1380.00,1.6031
1379.00,1.7629
1378.00,1.8405
1377.00,1.7950
1376.00,1.6750
1375.00,1.5440
1374.00,1.4338
1373.00,1.3540
1372.00,1.3019
1371.00,1.2693
1370.00,1.2479
1369.00,1.2312
1368.00,1.2150
1367.00,1.1962
1366.00,1.1730
1365.00,1.1445
1364.00,1.1109
1363.00,1.0741
1362.00,1.0375
1361.00,1.0048
1360.00,0.9776
1359.00,0.9562
1358.00,0.9402
1357.00,0.9296
1356.00,0.9239
1355.00,0.9218
1354.00,0.9219
1353.00,0.9227
1352.00,0.9229
1351.00,0.9215
1350.00,0.9182
1349.00,0.9143
1348.00,0.9116
1347.00,0.9122
1346.00,0.9173
1345.00,0.9276
1344.00,0.9416
1343.00,0.9560
1342.00,0.9663
1341.00,0.9682
1340.00,0.9595
1339.00,0.9408
1338.00,0.9143
1337.00,0.8832
1336.00,0.8504
1335.00,0.8187
1334.00,0.7906
1333.00,0.7675
1332.00,0.7498
1331.00,0.7380
1330.00,0.7330
1329.00,0.7359
1328.00,0.7485
1327.00,0.7726
1326.00,0.8076
1325.00,0.8476
1324.00,0.8805
1323.00,0.8930
1322.00,0.8820
1321.00,0.8570
1320.00,0.8310
1319.00,0.8112
1318.00,0.7994
1317.00,0.7940
1316.00,0.7934
1315.00,0.7963
1314.00,0.8019
1313.00,0.8095
1312.00,0.8185
1311.00,0.8281
1310.00,0.8376
1309.00,0.8470
1308.00,0.8566
1307.00,0.8675
1306.00,0.8812
1305.00,0.8975
1304.00,0.9133
1303.00,0.9224
1302.00,0.9203
1301.00,0.9088
1300.00,0.8955
1299.00,0.8885
1298.00,0.8908
1297.00,0.8983
1296.00,0.9012
1295.00,0.8908
1294.00,0.8663
1293.00,0.8354
1292.00,0.8062
1291.00,0.7827
1290.00,0.7644
1289.00,0.7497
1288.00,0.7369
1287.00,0.7247
1286.00,0.7119
1285.00,0.6982
1284.00,0.6839
1283.00,0.6698
1282.00,0.6568
1281.00,0.6455
1280.00,0.6363
1279.00,0.6291
1278.00,0.6236
1277.00,0.6194
1276.00,0.6166
1275.00,0.6152
1274.00,0.6154
1273.00,0.6172
1272.00,0.6203
1271.00,0.6244
1270.00,0.6280
1269.00,0.6296
1268.00,0.6277
1267.00,0.6220
1266.00,0.6134
1265.00,0.6038
1264.00,0.5949
1263.00,0.5881
1262.00,0.5835
1261.00,0.5812
1260.00,0.5807
1259.00,0.5817
1258.00,0.5833
1257.00,0.5845
1256.00,0.5849
1255.00,0.5843
1254.00,0.5827
1253.00,0.5803
1252.00,0.5771
1251.00,0.5736
1250.00,0.5696
1249.00,0.5656
1248.00,0.5616
1247.00,0.5578
1246.00,0.5541
1245.00,0.5502
1244.00,0.5458
1243.00,0.5406
1242.00,0.5345
1241.00,0.5276
1240.00,0.5207
1239.00,0.5144
1238.00,0.5092
1237.00,0.5052
1236.00,0.5028
1235.00,0.5020
1234.00,0.5030
1233.00,0.5057
1232.00,0.5102
1231.00,0.5164
1230.00,0.5238
1229.00,0.5315
1228.00,0.5388
1227.00,0.5454
1226.00,0.5514
1225.00,0.5570
1224.00,0.5627
1223.00,0.5690
1222.00,0.5754
1221.00,0.5800
1220.00,0.5802
1219.00,0.5746
1218.00,0.5644
1217.00,0.5528
1216.00,0.5431
1215.00,0.5367
1214.00,0.5327
1213.00,0.5291
1212.00,0.5241
1211.00,0.5170
1210.00,0.5084
1209.00,0.5000
1208.00,0.4935
1207.00,0.4900
1206.00,0.4889
1205.00,0.4892
1204.00,0.4894
1203.00,0.4888
1202.00,0.4874
1201.00,0.4862
1200.00,0.4861
1199.00,0.4877
1198.00,0.4907
1197.00,0.4949
1196.00,0.5001
1195.00,0.5066
1194.00,0.5144
1193.00,0.5230
1192.00,0.5317
1191.00,0.5390
1190.00,0.5429
1189.00,0.5423
1188.00,0.5374
1187.00,0.5299
1186.00,0.5218
1185.00,0.5146
1184.00,0.5088
1183.00,0.5043
1182.00,0.5007
1181.00,0.4974
1180.00,0.4942
1179.00,0.4908
1178.00,0.4870
1177.00,0.4825
1176.00,0.4771
1175.00,0.4713
1174.00,0.4652
1173.00,0.4591
1172.00,0.4533
1171.00,0.4482
1170.00,0.4438
1169.00,0.4402
1168.00,0.4371
1167.00,0.4344
1166.00,0.4323
1165.00,0.4304
1164.00,0.4289
1163.00,0.4280
1162.00,0.4282
1161.00,0.4296
1160.00,0.4325
1159.00,0.4375
1158.00,0.4456
1157.00,0.4583
1156.00,0.4786
1155.00,0.5103
1154.00,0.5548
1153.00,0.6065
1152.00,0.6489
1151.00,0.6625
1150.00,0.6437
1149.00,0.6086
1148.00,0.5756
1147.00,0.5534
1146.00,0.5422
1145.00,0.5392
1144.00,0.5421
1143.00,0.5501
1142.00,0.5629
1141.00,0.5808
1140.00,0.6041
1139.00,0.6315
1138.00,0.6592
1137.00,0.6820
1136.00,0.6954
1135.00,0.6974
1134.00,0.6889
1133.00,0.6724
1132.00,0.6505
1131.00,0.6256
1130.00,0.6002
1129.00,0.5768
1128.00,0.5574
1127.00,0.5432
1126.00,0.5340
1125.00,0.5290
1124.00,0.5271
1123.00,0.5273
1122.00,0.5284
1121.00,0.5303
1120.00,0.5332
1119.00,0.5379
1118.00,0.5451
1117.00,0.5550
1116.00,0.5670
1115.00,0.5781
1114.00,0.5842
1113.00,0.5821
1112.00,0.5712
1111.00,0.5543
1110.00,0.5354
1109.00,0.5178
1108.00,0.5034
1107.00,0.4929
1106.00,0.4859
1105.00,0.4818
1104.00,0.4800
1103.00,0.4800
1102.00,0.4810
1101.00,0.4824
1100.00,0.4838
1099.00,0.4847
1098.00,0.4850
1097.00,0.4843
1096.00,0.4827
1095.00,0.4806
1094.00,0.4785
1093.00,0.4769
1092.00,0.4764
1091.00,0.4771
1090.00,0.4791
1089.00,0.4824
1088.00,0.4875
1087.00,0.4946
1086.00,0.5036
1085.00,0.5142
1084.00,0.5266
1083.00,0.5405
1082.00,0.5556
1081.00,0.5711
1080.00,0.5859
1079.00,0.5986
1078.00,0.6077
1077.00,0.6118
1076.00,0.6106
1075.00,0.6048
1074.00,0.5959
1073.00,0.5856
1072.00,0.5753
1071.00,0.5658
1070.00,0.5574
1069.00,0.5503
1068.00,0.5444
1067.00,0.5400
1066.00,0.5369
1065.00,0.5351
1064.00,0.5343
1063.00,0.5343
1062.00,0.5348
1061.00,0.5357
1060.00,0.5367
1059.00,0.5376
1058.00,0.5380
1057.00,0.5380
1056.00,0.5375
1055.00,0.5370
1054.00,0.5366
1053.00,0.5368
1052.00,0.5379
1051.00,0.5401
1050.00,0.5434
1049.00,0.5474
1048.00,0.5520
1047.00,0.5567
1046.00,0.5609
1045.00,0.5643
1044.00,0.5669
1043.00,0.5690
1042.00,0.5710
1041.00,0.5733
1040.00,0.5761
1039.00,0.5790
1038.00,0.5818
1037.00,0.5842
1036.00,0.5866
1035.00,0.5898
1034.00,0.5943
1033.00,0.6008
1032.00,0.6095
1031.00,0.6199
1030.00,0.6310
1029.00,0.6413
1028.00,0.6493
1027.00,0.6538
1026.00,0.6543
1025.00,0.6512
1024.00,0.6460
1023.00,0.6403
1022.00,0.6357
1021.00,0.6331
1020.00,0.6327
1019.00,0.6346
1018.00,0.6384
1017.00,0.6436
1016.00,0.6500
1015.00,0.6572
1014.00,0.6643
1013.00,0.6709
1012.00,0.6770
1011.00,0.6829
1010.00,0.6888
1009.00,0.6952
1008.00,0.7019
1007.00,0.7087
1006.00,0.7153
1005.00,0.7212
1004.00,0.7265
1003.00,0.7307
1002.00,0.7336
1001.00,0.7345
1000.00,0.7329
999.00,0.7284
998.00,0.7209
997.00,0.7108
996.00,0.6989
995.00,0.6860
994.00,0.6724
993.00,0.6583
992.00,0.6439
991.00,0.6292
990.00,0.6144
989.00,0.6001
988.00,0.5866
987.00,0.5741
986.00,0.5623
985.00,0.5513
984.00,0.5410
983.00,0.5314
982.00,0.5221
981.00,0.5129
980.00,0.5038
979.00,0.4947
978.00,0.4858
977.00,0.4772
976.00,0.4692
975.00,0.4621
974.00,0.4558
973.00,0.4505
972.00,0.4464
971.00,0.4435
970.00,0.4419
969.00,0.4413
968.00,0.4416
967.00,0.4423
966.00,0.4429
965.00,0.4428
964.00,0.4414
963.00,0.4385
962.00,0.4344
961.00,0.4296
960.00,0.4248
959.00,0.4208
958.00,0.4179
957.00,0.4162
956.00,0.4152
955.00,0.4147
954.00,0.4145
953.00,0.4144
952.00,0.4147
951.00,0.4156
950.00,0.4176
949.00,0.4209
948.00,0.4258
947.00,0.4321
946.00,0.4392
945.00,0.4460
944.00,0.4514
943.00,0.4546
942.00,0.4553
941.00,0.4537
940.00,0.4503
939.00,0.4462
938.00,0.4420
937.00,0.4382
936.00,0.4350
935.00,0.4327
934.00,0.4314
933.00,0.4312
932.00,0.4326
931.00,0.4360
930.00,0.4418
929.00,0.4505
928.00,0.4627
927.00,0.4784
926.00,0.4966
925.00,0.5151
924.00,0.5312
923.00,0.5429
922.00,0.5497
921.00,0.5519
920.00,0.5499
919.00,0.5435
918.00,0.5321
917.00,0.5161
916.00,0.4966
915.00,0.4755
914.00,0.4551
913.00,0.4375
912.00,0.4235
911.00,0.4132
910.00,0.4054
909.00,0.3992
908.00,0.3943
907.00,0.3905
906.00,0.3877
905.00,0.3857
904.00,0.3843
903.00,0.3835
902.00,0.3835
901.00,0.3843
900.00,0.3859
899.00,0.3883
898.00,0.3915
897.00,0.3955
896.00,0.4003
895.00,0.4061
894.00,0.4131
893.00,0.4208
892.00,0.4288
891.00,0.4362
890.00,0.4417
889.00,0.4442
888.00,0.4433
887.00,0.4392
886.00,0.4330
885.00,0.4262
884.00,0.4199
883.00,0.4152
882.00,0.4121
881.00,0.4106
880.00,0.4103
879.00,0.4110
878.00,0.4122
877.00,0.4135
876.00,0.4148
875.00,0.4161
874.00,0.4174
873.00,0.4186
872.00,0.4199
871.00,0.4216
870.00,0.4240
869.00,0.4276
868.00,0.4326
867.00,0.4396
866.00,0.4487
865.00,0.4595
864.00,0.4713
863.00,0.4826
862.00,0.4912
861.00,0.4950
860.00,0.4930
859.00,0.4863
858.00,0.4770
857.00,0.4675
856.00,0.4594
855.00,0.4533
854.00,0.4492
853.00,0.4468
852.00,0.4459
851.00,0.4461
850.00,0.4472
849.00,0.4487
848.00,0.4505
847.00,0.4527
846.00,0.4553
845.00,0.4584
844.00,0.4621
843.00,0.4668
842.00,0.4733
841.00,0.4825
840.00,0.4952
839.00,0.5109
838.00,0.5278
837.00,0.5424
836.00,0.5506
835.00,0.5496
834.00,0.5397
833.00,0.5243
832.00,0.5078
831.00,0.4938
830.00,0.4838
829.00,0.4780
828.00,0.4760
827.00,0.4773
826.00,0.4814
825.00,0.4880
824.00,0.4961
823.00,0.5040
822.00,0.5098
821.00,0.5116
820.00,0.5088
819.00,0.5019
818.00,0.4925
817.00,0.4827
816.00,0.4740
815.00,0.4669
814.00,0.4613
813.00,0.4568
812.00,0.4533
811.00,0.4504
810.00,0.4478
809.00,0.4452
808.00,0.4426
807.00,0.4398
806.00,0.4369
805.00,0.4342
804.00,0.4320
803.00,0.4308
802.00,0.4306
801.00,0.4313
800.00,0.4328
799.00,0.4353
798.00,0.4383
797.00,0.4416
796.00,0.4451
795.00,0.4485
794.00,0.4521
793.00,0.4557
792.00,0.4596
791.00,0.4637
790.00,0.4676
789.00,0.4710
788.00,0.4744
787.00,0.4786
786.00,0.4846
785.00,0.4933
784.00,0.5047
783.00,0.5183
782.00,0.5319
781.00,0.5421
780.00,0.5455
779.00,0.5403
778.00,0.5278
777.00,0.5116
776.00,0.4958
775.00,0.4830
774.00,0.4744
773.00,0.4698
772.00,0.4687
771.00,0.4705
770.00,0.4746
769.00,0.4803
768.00,0.4873
767.00,0.4953
766.00,0.5037
765.00,0.5120
764.00,0.5197
763.00,0.5267
762.00,0.5329
761.00,0.5384
760.00,0.5424
759.00,0.5445
758.00,0.5447
757.00,0.5437
756.00,0.5431
755.00,0.5437
754.00,0.5460
753.00,0.5496
752.00,0.5548
751.00,0.5620
750.00,0.5719
749.00,0.5850
748.00,0.6004
747.00,0.6166
746.00,0.6317
745.00,0.6436
744.00,0.6512
743.00,0.6548
742.00,0.6558
741.00,0.6563
740.00,0.6581
739.00,0.6625
738.00,0.6699
737.00,0.6808
736.00,0.6951
735.00,0.7130
734.00,0.7345
733.00,0.7599
732.00,0.7901
731.00,0.8258
730.00,0.8679
729.00,0.9179
728.00,0.9775
727.00,1.0483
726.00,1.1310
725.00,1.2235
724.00,1.3174
723.00,1.3951
722.00,1.4310
721.00,1.4056
720.00,1.3263
719.00,1.2211
718.00,1.1150
717.00,1.0205
716.00,0.9411
715.00,0.8761
714.00,0.8226
713.00,0.7777
712.00,0.7393
711.00,0.7063
710.00,0.6777
709.00,0.6526
708.00,0.6302
707.00,0.6105
706.00,0.5931
705.00,0.5781
704.00,0.5650
703.00,0.5536
702.00,0.5435
701.00,0.5346
700.00,0.5267
699.00,0.5196
698.00,0.5129
697.00,0.5064
696.00,0.5005
695.00,0.4954
694.00,0.4913
693.00,0.4884
692.00,0.4868
691.00,0.4862
690.00,0.4859
689.00,0.4858
688.00,0.4862
687.00,0.4876
686.00,0.4901
685.00,0.4939
684.00,0.4990
683.00,0.5053
682.00,0.5126
681.00,0.5209
680.00,0.5300
679.00,0.5397
678.00,0.5498
677.00,0.5599
676.00,0.5696
675.00,0.5784
674.00,0.5860
673.00,0.5924
672.00,0.5972
671.00,0.6002
670.00,0.6014
669.00,0.6016
668.00,0.6018
667.00,0.6033
666.00,0.6069
665.00,0.6113
664.00,0.6151
663.00,0.6171
662.00,0.6170
661.00,0.6145
660.00,0.6101
659.00,0.6045
658.00,0.5983
657.00,0.5921
656.00,0.5866
655.00,0.5823
654.00,0.5794
653.00,0.5780
652.00,0.5782
651.00,0.5803
650.00,0.5845
649.00,0.5903
648.00,0.5971
647.00,0.6039
646.00,0.6098
645.00,0.6143
644.00,0.6168
643.00,0.6174
642.00,0.6160
641.00,0.6125
640.00,0.6068
639.00,0.5987
638.00,0.5885
637.00,0.5771
636.00,0.5655
635.00,0.5547
634.00,0.5456
633.00,0.5386
632.00,0.5336
631.00,0.5305
630.00,0.5291
629.00,0.5294
628.00,0.5318
627.00,0.5366
626.00,0.5436
625.00,0.5526
624.00,0.5631
623.00,0.5751
622.00,0.5880
621.00,0.6014
620.00,0.6146
619.00,0.6269
618.00,0.6367
617.00,0.6421
616.00,0.6417
615.00,0.6355
614.00,0.6244
613.00,0.6104
612.00,0.5950
611.00,0.5795
610.00,0.5644
609.00,0.5501
608.00,0.5369
607.00,0.5255
606.00,0.5163
605.00,0.5095
604.00,0.5046
603.00,0.5012
602.00,0.4986
601.00,0.4964
600.00,0.4944
599.00,0.4926
598.00,0.4914
597.00,0.4907
596.00,0.4902
595.00,0.4901
594.00,0.4906
593.00,0.4918
592.00,0.4935
591.00,0.4957
590.00,0.4984
589.00,0.5015
588.00,0.5051
587.00,0.5089
586.00,0.5126
585.00,0.5158
584.00,0.5187
583.00,0.5213
582.00,0.5235
581.00,0.5252
580.00,0.5267
579.00,0.5285
578.00,0.5311
577.00,0.5346
576.00,0.5389
575.00,0.5438
574.00,0.5490
573.00,0.5549
572.00,0.5615
571.00,0.5688
570.00,0.5765
569.00,0.5843
568.00,0.5923
567.00,0.6007
566.00,0.6095
565.00,0.6185
564.00,0.6273
563.00,0.6353
562.00,0.6421
561.00,0.6477
560.00,0.6526
559.00,0.6569
558.00,0.6609
557.00,0.6651
556.00,0.6694
555.00,0.6732
554.00,0.6761
553.00,0.6787
552.00,0.6819
551.00,0.6863
550.00,0.6916
