Created as New Dataset,
cm-1,A
4000.00,0.3850
3999.00,0.3846
3998.00,0.3840
3997.00,0.3834
3996.00,0.3828
3995.00,0.3824
3994.00,0.3820
3993.00,0.3816
3992.00,0.3810
3991.00,0.3802
3990.00,0.3794
3989.00,0.3787
3988.00,0.3780
3987.00,0.3773
3986.00,0.3765
3985.00,0.3758
3984.00,0.3750
3983.00,0.3741
3982.00,0.3733
3981.00,0.3724
3980.00,0.3713
3979.00,0.3702
3978.00,0.3690
3977.00,0.3680
3976.00,0.3670
3975.00,0.3661
3974.00,0.3651
3973.00,0.3639
3972.00,0.3627
3971.00,0.3617
3970.00,0.3608
3969.00,0.3599
3968.00,0.3589
3967.00,0.3577
3966.00,0.3563
3965.00,0.3551
3964.00,0.3539
3963.00,0.3528
3962.00,0.3516
3961.00,0.3505
3960.00,0.3492
3959.00,0.3480
3958.00,0.3468
3957.00,0.3456
3956.00,0.3447
3955.00,0.3438
3954.00,0.3428
3953.00,0.3417
3952.00,0.3405
3951.00,0.3393
3950.00,0.3382
3949.00,0.3373
3948.00,0.3364
3947.00,0.3353
3946.00,0.3341
3945.00,0.3328
3944.00,0.3316
3943.00,0.3306
3942.00,0.3299
3941.00,0.3291
3940.00,0.3282
3939.00,0.3270
3938.00,0.3259
3937.00,0.3250
3936.00,0.3243
3935.00,0.3237
3934.00,0.3231
3933.00,0.3223
3932.00,0.3215
3931.00,0.3207
3930.00,0.3199
3929.00,0.3191
3928.00,0.3184
3927.00,0.3176
3926.00,0.3169
3925.00,0.3162
3924.00,0.3155
3923.00,0.3150
3922.00,0.3145
3921.00,0.3139
3920.00,0.3134
3919.00,0.3128
3918.00,0.3123
3917.00,0.3117
3916.00,0.3111
3915.00,0.3105
3914.00,0.3100
3913.00,0.3096
3912.00,0.3093
3911.00,0.3090
3910.00,0.3087
3909.00,0.3083
3908.00,0.3079
3907.00,0.3075
3906.00,0.3070
3905.00,0.3067
3904.00,0.3065
3903.00,0.3064
3902.00,0.3064
3901.00,0.3062
3900.00,0.3060
3899.00,0.3058
3898.00,0.3057
3897.00,0.3056
3896.00,0.3055
3895.00,0.3054
3894.00,0.3053
3893.00,0.3052
3892.00,0.3050
3891.00,0.3049
3890.00,0.3048
3889.00,0.3047
3888.00,0.3047
3887.00,0.3047
3886.00,0.3047
3885.00,0.3047
3884.00,0.3045
3883.00,0.3041
3882.00,0.3035
3881.00,0.3031
3880.00,0.3031
3879.00,0.3033
3878.00,0.3035
3877.00,0.3034
3876.00,0.3030
3875.00,0.3027
3874.00,0.3027
3873.00,0.3029
3872.00,0.3032
3871.00,0.3032
3870.00,0.3030
3869.00,0.3028
3868.00,0.3029
3867.00,0.3030
3866.00,0.3030
3865.00,0.3030
3864.00,0.3032
3863.00,0.3034
3862.00,0.3036
3861.00,0.3036
3860.00,0.3036
3859.00,0.3038
3858.00,0.3040
3857.00,0.3041
3856.00,0.3040
3855.00,0.3038
3854.00,0.3038
3853.00,0.3042
3852.00,0.3049
3851.00,0.3051
3850.00,0.3048
3849.00,0.3043
3848.00,0.3040
3847.00,0.3039
3846.00,0.3041
3845.00,0.3042
3844.00,0.3042
3843.00,0.3040
3842.00,0.3038
3841.00,0.3036
3840.00,0.3035
3839.00,0.3035
3838.00,0.3033
3837.00,0.3031
3836.00,0.3027
3835.00,0.3023
3834.00,0.3020
3833.00,0.3017
3832.00,0.3016
3831.00,0.3016
3830.00,0.3016
3829.00,0.3017
3828.00,0.3017
3827.00,0.3016
3826.00,0.3016
3825.00,0.3017
3824.00,0.3019
3823.00,0.3019
3822.00,0.3017
3821.00,0.3015
3820.00,0.3016
3819.00,0.3018
3818.00,0.3019
3817.00,0.3016
3816.00,0.3014
3815.00,0.3015
3814.00,0.3018
3813.00,0.3022
3812.00,0.3025
3811.00,0.3027
3810.00,0.3028
3809.00,0.3029
3808.00,0.3027
3807.00,0.3025
3806.00,0.3025
3805.00,0.3027
3804.00,0.3028
3803.00,0.3029
3802.00,0.3029
3801.00,0.3030
3800.00,0.3032
3799.00,0.3031
3798.00,0.3029
3797.00,0.3025
3796.00,0.3024
3795.00,0.3024
3794.00,0.3024
3793.00,0.3023
3792.00,0.3019
3791.00,0.3016
3790.00,0.3014
3789.00,0.3012
3788.00,0.3010
3787.00,0.3008
3786.00,0.3006
3785.00,0.3003
3784.00,0.3003
3783.00,0.3003
3782.00,0.3004
3781.00,0.3002
3780.00,0.2999
3779.00,0.2995
3778.00,0.2991
3777.00,0.2986
3776.00,0.2980
3775.00,0.2973
3774.00,0.2967
3773.00,0.2963
3772.00,0.2960
3771.00,0.2957
3770.00,0.2953
3769.00,0.2948
3768.00,0.2943
3767.00,0.2937
3766.00,0.2931
3765.00,0.2925
3764.00,0.2921
3763.00,0.2918
3762.00,0.2915
3761.00,0.2911
3760.00,0.2907
3759.00,0.2903
3758.00,0.2899
3757.00,0.2893
3756.00,0.2888
3755.00,0.2883
3754.00,0.2878
3753.00,0.2874
3752.00,0.2870
3751.00,0.2866
3750.00,0.2862
3749.00,0.2860
3748.00,0.2860
3747.00,0.2860
3746.00,0.2859
3745.00,0.2855
3744.00,0.2851
3743.00,0.2849
3742.00,0.2846
3741.00,0.2842
3740.00,0.2838
3739.00,0.2838
3738.00,0.2839
3737.00,0.2841
3736.00,0.2841
3735.00,0.2838
3734.00,0.2834
3733.00,0.2828
3732.00,0.2823
3731.00,0.2821
3730.00,0.2821
3729.00,0.2823
3728.00,0.2823
3727.00,0.2821
3726.00,0.2818
3725.00,0.2814
3724.00,0.2813
3723.00,0.2812
3722.00,0.2813
3721.00,0.2814
3720.00,0.2813
3719.00,0.2810
3718.00,0.2807
3717.00,0.2805
3716.00,0.2805
3715.00,0.2805
3714.00,0.2804
3713.00,0.2803
3712.00,0.2803
3711.00,0.2805
3710.00,0.2807
3709.00,0.2808
3708.00,0.2809
3707.00,0.2810
3706.00,0.2812
3705.00,0.2816
3704.00,0.2820
3703.00,0.2822
3702.00,0.2823
3701.00,0.2822
3700.00,0.2823
3699.00,0.2826
3698.00,0.2831
3697.00,0.2838
3696.00,0.2846
3695.00,0.2852
3694.00,0.2858
3693.00,0.2864
3692.00,0.2870
3691.00,0.2877
3690.00,0.2882
3689.00,0.2886
3688.00,0.2890
3687.00,0.2893
3686.00,0.2894
3685.00,0.2895
3684.00,0.2897
3683.00,0.2900
3682.00,0.2904
3681.00,0.2907
3680.00,0.2908
3679.00,0.2908
3678.00,0.2907
3677.00,0.2906
3676.00,0.2907
3675.00,0.2911
3674.00,0.2918
3673.00,0.2924
3672.00,0.2927
3671.00,0.2928
3670.00,0.2932
3669.00,0.2938
3668.00,0.2943
3667.00,0.2945
3666.00,0.2945
3665.00,0.2947
3664.00,0.2951
3663.00,0.2958
3662.00,0.2964
3661.00,0.2970
3660.00,0.2974
3659.00,0.2979
3658.00,0.2983
3657.00,0.2988
3656.00,0.2996
3655.00,0.3007
3654.00,0.3019
3653.00,0.3028
3652.00,0.3033
3651.00,0.3037
3650.00,0.3043
3649.00,0.3053
3648.00,0.3063
3647.00,0.3071
3646.00,0.3078
3645.00,0.3085
3644.00,0.3093
3643.00,0.3104
3642.00,0.3116
3641.00,0.3129
3640.00,0.3140
3639.00,0.3149
3638.00,0.3157
3637.00,0.3166
3636.00,0.3177
3635.00,0.3189
3634.00,0.3202
3633.00,0.3214
3632.00,0.3226
3631.00,0.3237
3630.00,0.3247
3629.00,0.3259
3628.00,0.3275
3627.00,0.3292
3626.00,0.3306
3625.00,0.3319
3624.00,0.3333
3623.00,0.3349
3622.00,0.3365
3621.00,0.3381
3620.00,0.3397
3619.00,0.3416
3618.00,0.3436
3617.00,0.3458
3616.00,0.3479
3615.00,0.3500
3614.00,0.3523
3613.00,0.3549
3612.00,0.3577
3611.00,0.3607
3610.00,0.3641
3609.00,0.3680
3608.00,0.3721
3607.00,0.3764
3606.00,0.3807
3605.00,0.3851
3604.00,0.3898
3603.00,0.3948
3602.00,0.4001
3601.00,0.4054
3600.00,0.4109
3599.00,0.4164
3598.00,0.4219
3597.00,0.4274
3596.00,0.4330
3595.00,0.4384
3594.00,0.4434
3593.00,0.4481
3592.00,0.4524
3591.00,0.4564
3590.00,0.4601
3589.00,0.4633
3588.00,0.4662
3587.00,0.4688
3586.00,0.4712
3585.00,0.4735
3584.00,0.4756
3583.00,0.4775
3582.00,0.4791
3581.00,0.4807
3580.00,0.4824
3579.00,0.4842
3578.00,0.4859
3577.00,0.4876
3576.00,0.4892
3575.00,0.4911
3574.00,0.4933
3573.00,0.4956
3572.00,0.4979
3571.00,0.4999
3570.00,0.5020
3569.00,0.5041
3568.00,0.5067
3567.00,0.5096
3566.00,0.5125
3565.00,0.5153
3564.00,0.5181
3563.00,0.5210
3562.00,0.5241
3561.00,0.5275
3560.00,0.5308
3559.00,0.5338
3558.00,0.5368
3557.00,0.5400
3556.00,0.5435
3555.00,0.5473
3554.00,0.5511
3553.00,0.5549
3552.00,0.5588
3551.00,0.5628
3550.00,0.5669
3549.00,0.5712
3548.00,0.5758
3547.00,0.5807
3546.00,0.5857
3545.00,0.5905
3544.00,0.5951
3543.00,0.5996
3542.00,0.6042
3541.00,0.6090
3540.00,0.6142
3539.00,0.6198
3538.00,0.6254
3537.00,0.6308
3536.00,0.6361
3535.00,0.6413
3534.00,0.6467
3533.00,0.6522
3532.00,0.6578
3531.00,0.6636
3530.00,0.6694
3529.00,0.6752
3528.00,0.6812
3527.00,0.6873
3526.00,0.6934
3525.00,0.6993
3524.00,0.7051
3523.00,0.7107
3522.00,0.7161
3521.00,0.7216
3520.00,0.7272
3519.00,0.7329
3518.00,0.7384
3517.00,0.7438
3516.00,0.7489
3515.00,0.7539
3514.00,0.7589
3513.00,0.7641
3512.00,0.7694
3511.00,0.7747
3510.00,0.7797
3509.00,0.7846
3508.00,0.7892
3507.00,0.7937
3506.00,0.7980
3505.00,0.8023
3504.00,0.8065
3503.00,0.8106
3502.00,0.8147
3501.00,0.8188
3500.00,0.8226
3499.00,0.8260
3498.00,0.8291
3497.00,0.8321
3496.00,0.8354
3495.00,0.8389
3494.00,0.8424
3493.00,0.8458
3492.00,0.8491
3491.00,0.8522
3490.00,0.8551
3489.00,0.8576
3488.00,0.8600
3487.00,0.8623
3486.00,0.8647
3485.00,0.8670
3484.00,0.8692
3483.00,0.8712
3482.00,0.8729
3481.00,0.8744
3480.00,0.8759
3479.00,0.8772
3478.00,0.8782
3477.00,0.8789
3476.00,0.8793
3475.00,0.8793
3474.00,0.8792
3473.00,0.8792
3472.00,0.8791
3471.00,0.8782
3470.00,0.8765
3469.00,0.8743
3468.00,0.8721
3467.00,0.8698
3466.00,0.8669
3465.00,0.8632
3464.00,0.8591
3463.00,0.8548
3462.00,0.8507
3461.00,0.8465
3460.00,0.8423
3459.00,0.8377
3458.00,0.8327
3457.00,0.8274
3456.00,0.8221
3455.00,0.8168
3454.00,0.8116
3453.00,0.8060
3452.00,0.8001
3451.00,0.7939
3450.00,0.7878
3449.00,0.7820
3448.00,0.7765
3447.00,0.7711
3446.00,0.7655
3445.00,0.7599
3444.00,0.7543
3443.00,0.7485
3442.00,0.7428
3441.00,0.7372
3440.00,0.7318
3439.00,0.7265
3438.00,0.7208
3437.00,0.7150
3436.00,0.7094
3435.00,0.7042
3434.00,0.6990
3433.00,0.6936
3432.00,0.6877
3431.00,0.6819
3430.00,0.6766
3429.00,0.6719
3428.00,0.6672
3427.00,0.6621
3426.00,0.6568
3425.00,0.6515
3424.00,0.6466
3423.00,0.6419
3422.00,0.6374
3421.00,0.6330
3420.00,0.6286
3419.00,0.6243
3418.00,0.6202
3417.00,0.6162
3416.00,0.6123
3415.00,0.6083
3414.00,0.6044
3413.00,0.6006
3412.00,0.5971
3411.00,0.5938
3410.00,0.5906
3409.00,0.5875
3408.00,0.5847
3407.00,0.5820
3406.00,0.5794
3405.00,0.5769
3404.00,0.5745
3403.00,0.5724
3402.00,0.5703
3401.00,0.5684
3400.00,0.5666
3399.00,0.5647
3398.00,0.5629
3397.00,0.5611
3396.00,0.5594
3395.00,0.5578
3394.00,0.5561
3393.00,0.5541
3392.00,0.5518
3391.00,0.5494
3390.00,0.5470
3389.00,0.5446
3388.00,0.5423
3387.00,0.5400
3386.00,0.5377
3385.00,0.5354
3384.00,0.5331
3383.00,0.5308
3382.00,0.5285
3381.00,0.5263
3380.00,0.5243
3379.00,0.5225
3378.00,0.5208
3377.00,0.5191
3376.00,0.5175
3375.00,0.5158
3374.00,0.5143
3373.00,0.5130
3372.00,0.5117
3371.00,0.5105
3370.00,0.5092
3369.00,0.5081
3368.00,0.5072
3367.00,0.5066
3366.00,0.5061
3365.00,0.5057
3364.00,0.5055
3363.00,0.5054
3362.00,0.5056
3361.00,0.5058
3360.00,0.5060
3359.00,0.5059
3358.00,0.5056
3357.00,0.5052
3356.00,0.5049
3355.00,0.5046
3354.00,0.5042
3353.00,0.5035
3352.00,0.5026
3351.00,0.5016
3350.00,0.5005
3349.00,0.4993
3348.00,0.4981
3347.00,0.4967
3346.00,0.4952
3345.00,0.4934
3344.00,0.4913
3343.00,0.4889
3342.00,0.4864
3341.00,0.4839
3340.00,0.4816
3339.00,0.4792
3338.00,0.4766
3337.00,0.4738
3336.00,0.4709
3335.00,0.4681
3334.00,0.4653
3333.00,0.4624
3332.00,0.4595
3331.00,0.4565
3330.00,0.4535
3329.00,0.4504
3328.00,0.4473
3327.00,0.4441
3326.00,0.4409
3325.00,0.4376
3324.00,0.4344
3323.00,0.4314
3322.00,0.4284
3321.00,0.4257
3320.00,0.4229
3319.00,0.4202
3318.00,0.4175
3317.00,0.4149
3316.00,0.4122
3315.00,0.4095
3314.00,0.4066
3313.00,0.4039
3312.00,0.4014
3311.00,0.3991
3310.00,0.3968
3309.00,0.3945
3308.00,0.3923
3307.00,0.3900
3306.00,0.3877
3305.00,0.3856
3304.00,0.3836
3303.00,0.3817
3302.00,0.3799
3301.00,0.3779
3300.00,0.3761
3299.00,0.3744
3298.00,0.3729
3297.00,0.3714
3296.00,0.3699
3295.00,0.3684
3294.00,0.3668
3293.00,0.3652
3292.00,0.3637
3291.00,0.3623
3290.00,0.3610
3289.00,0.3598
3288.00,0.3586
3287.00,0.3575
3286.00,0.3564
3285.00,0.3554
3284.00,0.3545
3283.00,0.3537
3282.00,0.3529
3281.00,0.3520
3280.00,0.3510
3279.00,0.3501
3278.00,0.3494
3277.00,0.3486
3276.00,0.3480
3275.00,0.3473
3274.00,0.3467
3273.00,0.3461
3272.00,0.3454
3271.00,0.3448
3270.00,0.3442
3269.00,0.3437
3268.00,0.3432
3267.00,0.3428
3266.00,0.3424
3265.00,0.3420
3264.00,0.3417
3263.00,0.3414
3262.00,0.3410
3261.00,0.3406
3260.00,0.3401
3259.00,0.3397
3258.00,0.3394
3257.00,0.3393
3256.00,0.3392
3255.00,0.3392
3254.00,0.3392
3253.00,0.3391
3252.00,0.3389
3251.00,0.3388
3250.00,0.3388
3249.00,0.3389
3248.00,0.3389
3247.00,0.3389
3246.00,0.3389
3245.00,0.3390
3244.00,0.3393
3243.00,0.3397
3242.00,0.3401
3241.00,0.3405
3240.00,0.3409
3239.00,0.3413
3238.00,0.3418
3237.00,0.3422
3236.00,0.3426
3235.00,0.3430
3234.00,0.3435
3233.00,0.3440
3232.00,0.3446
3231.00,0.3452
3230.00,0.3458
3229.00,0.3465
3228.00,0.3471
3227.00,0.3478
3226.00,0.3486
3225.00,0.3495
3224.00,0.3505
3223.00,0.3513
3222.00,0.3520
3221.00,0.3527
3220.00,0.3535
3219.00,0.3546
3218.00,0.3556
3217.00,0.3565
3216.00,0.3573
3215.00,0.3581
3214.00,0.3591
3213.00,0.3601
3212.00,0.3612
3211.00,0.3623
3210.00,0.3635
3209.00,0.3647
3208.00,0.3657
3207.00,0.3666
3206.00,0.3673
3205.00,0.3682
3204.00,0.3693
3203.00,0.3706
3202.00,0.3717
3201.00,0.3728
3200.00,0.3735
3199.00,0.3742
3198.00,0.3748
3197.00,0.3755
3196.00,0.3762
3195.00,0.3767
3194.00,0.3771
3193.00,0.3773
3192.00,0.3776
3191.00,0.3779
3190.00,0.3780
3189.00,0.3781
3188.00,0.3780
3187.00,0.3778
3186.00,0.3776
3185.00,0.3774
3184.00,0.3773
3183.00,0.3770
3182.00,0.3765
3181.00,0.3758
3180.00,0.3753
3179.00,0.3749
3178.00,0.3746
3177.00,0.3741
3176.00,0.3733
3175.00,0.3725
3174.00,0.3718
3173.00,0.3713
3172.00,0.3709
3171.00,0.3702
3170.00,0.3694
3169.00,0.3686
3168.00,0.3679
3167.00,0.3672
3166.00,0.3665
3165.00,0.3659
3164.00,0.3652
3163.00,0.3646
3162.00,0.3640
3161.00,0.3634
3160.00,0.3631
3159.00,0.3627
3158.00,0.3623
3157.00,0.3617
3156.00,0.3611
3155.00,0.3604
3154.00,0.3599
3153.00,0.3595
3152.00,0.3594
3151.00,0.3594
3150.00,0.3593
3149.00,0.3592
3148.00,0.3591
3147.00,0.3591
3146.00,0.3591
3145.00,0.3589
3144.00,0.3586
3143.00,0.3584
3142.00,0.3584
3141.00,0.3586
3140.00,0.3588
3139.00,0.3589
3138.00,0.3591
3137.00,0.3593
3136.00,0.3595
3135.00,0.3597
3134.00,0.3599
3133.00,0.3602
3132.00,0.3606
3131.00,0.3612
3130.00,0.3617
3129.00,0.3622
3128.00,0.3626
3127.00,0.3630
3126.00,0.3636
3125.00,0.3643
3124.00,0.3650
3123.00,0.3654
3122.00,0.3656
3121.00,0.3658
3120.00,0.3662
3119.00,0.3667
3118.00,0.3674
3117.00,0.3683
3116.00,0.3691
3115.00,0.3698
3114.00,0.3703
3113.00,0.3707
3112.00,0.3712
3111.00,0.3720
3110.00,0.3729
3109.00,0.3739
3108.00,0.3747
3107.00,0.3755
3106.00,0.3763
3105.00,0.3772
3104.00,0.3782
3103.00,0.3792
3102.00,0.3802
3101.00,0.3813
3100.00,0.3826
3099.00,0.3840
3098.00,0.3852
3097.00,0.3863
3096.00,0.3873
3095.00,0.3882
3094.00,0.3890
3093.00,0.3899
3092.00,0.3907
3091.00,0.3916
3090.00,0.3924
3089.00,0.3933
3088.00,0.3943
3087.00,0.3954
3086.00,0.3964
3085.00,0.3975
3084.00,0.3986
3083.00,0.3998
3082.00,0.4011
3081.00,0.4026
3080.00,0.4042
3079.00,0.4061
3078.00,0.4080
3077.00,0.4099
3076.00,0.4118
3075.00,0.4138
3074.00,0.4160
3073.00,0.4183
3072.00,0.4207
3071.00,0.4234
3070.00,0.4263
3069.00,0.4295
3068.00,0.4326
3067.00,0.4356
3066.00,0.4385
3065.00,0.4415
3064.00,0.4446
3063.00,0.4479
3062.00,0.4512
3061.00,0.4545
3060.00,0.4578
3059.00,0.4613
3058.00,0.4646
3057.00,0.4677
3056.00,0.4704
3055.00,0.4729
3054.00,0.4754
3053.00,0.4780
3052.00,0.4805
3051.00,0.4829
3050.00,0.4853
3049.00,0.4877
3048.00,0.4903
3047.00,0.4932
3046.00,0.4963
3045.00,0.4998
3044.00,0.5036
3043.00,0.5077
3042.00,0.5122
3041.00,0.5171
3040.00,0.5224
3039.00,0.5280
3038.00,0.5340
3037.00,0.5404
3036.00,0.5469
3035.00,0.5533
3034.00,0.5597
3033.00,0.5662
3032.00,0.5728
3031.00,0.5792
3030.00,0.5855
3029.00,0.5918
3028.00,0.5983
3027.00,0.6051
3026.00,0.6121
3025.00,0.6196
3024.00,0.6278
3023.00,0.6367
3022.00,0.6464
3021.00,0.6571
3020.00,0.6690
3019.00,0.6821
3018.00,0.6965
3017.00,0.7123
3016.00,0.7298
3015.00,0.7493
3014.00,0.7711
3013.00,0.7952
3012.00,0.8217
3011.00,0.8509
3010.00,0.8839
3009.00,0.9212
3008.00,0.9629
3007.00,1.0090
3006.00,1.0601
3005.00,1.1175
3004.00,1.1826
3003.00,1.2560
3002.00,1.3377
3001.00,1.4279
3000.00,1.5272
2999.00,1.6372
2998.00,1.7599
2997.00,1.8976
2996.00,2.0510
2995.00,2.2190
2994.00,2.4017
2993.00,2.5975
2992.00,2.7972
2991.00,2.9800
2990.00,3.1461
2989.00,3.3656
2988.00,3.7808
2987.00,4.5388
2986.00,4.1082
2985.00,3.6709
2984.00,3.5361
2983.00,3.6248
2982.00,3.8395
2981.00,4.0770
2980.00,4.0312
2979.00,3.7339
2978.00,3.5407
2977.00,3.4707
2976.00,3.5506
2975.00,3.6659
2974.00,3.6735
2973.00,3.6578
2972.00,3.7411
2971.00,3.8791
2970.00,3.9508
2969.00,3.9827
2968.00,4.2511
2967.00,5.0531
2966.00,4.2422
2965.00,3.8934
2964.00,3.8855
2963.00,4.1557
2962.00,4.0968
2961.00,3.7835
2960.00,3.6554
2959.00,3.6631
2958.00,3.6765
2957.00,3.6588
2956.00,3.6041
2955.00,3.5457
2954.00,3.5196
2953.00,3.5401
2952.00,3.5703
2951.00,3.5201
2950.00,3.4383
2949.00,3.4313
2948.00,3.5663
2947.00,3.7856
2946.00,3.8190
2945.00,3.6620
2944.00,3.5778
2943.00,3.6385
2942.00,3.7519
2941.00,3.7993
2940.00,3.7445
2939.00,3.5469
2938.00,3.3605
2937.00,3.2786
2936.00,3.4107
2935.00,3.8327
2934.00,4.0836
2933.00,3.7707
2932.00,3.6069
2931.00,3.6464
2930.00,3.7227
2929.00,3.8706
2928.00,4.6217
2927.00,8.0000
2926.00,3.9694
2925.00,3.5181
2924.00,3.4555
2923.00,3.6740
2922.00,3.8771
2921.00,3.6466
2920.00,3.4634
2919.00,3.4407
2918.00,3.4771
2917.00,3.5181
2916.00,3.7281
2915.00,4.1241
2914.00,3.8160
2913.00,3.3934
2912.00,3.2126
2911.00,3.2497
2910.00,3.4487
2909.00,3.8002
2908.00,4.1681
2907.00,3.9666
2906.00,3.6429
2905.00,3.4644
2904.00,3.4306
2903.00,3.5139
2902.00,3.6396
2901.00,3.6263
2900.00,3.4831
2899.00,3.3799
2898.00,3.3986
2897.00,3.5364
2896.00,3.7186
2895.00,3.7708
2894.00,3.7573
2893.00,3.7937
2892.00,3.7302
2891.00,3.5476
2890.00,3.4505
2889.00,3.5104
2888.00,3.7531
2887.00,4.3838
2886.00,4.7297
2885.00,3.9705
2884.00,3.7112
2883.00,3.7465
2882.00,3.7166
2881.00,3.5639
2880.00,3.5424
2879.00,3.8718
2878.00,4.8914
2877.00,3.8672
2876.00,3.4282
2875.00,3.3014
2874.00,3.3836
2873.00,3.5289
2872.00,3.6951
2871.00,3.7670
2870.00,3.7876
2869.00,3.8593
2868.00,4.2242
2867.00,5.9387
2866.00,4.0612
2865.00,3.5724
2864.00,3.3758
2863.00,3.3850
2862.00,3.4932
2861.00,3.5988
2860.00,3.5513
2859.00,3.4406
2858.00,3.3805
2857.00,3.3841
2856.00,3.4221
2855.00,3.4825
2854.00,3.5726
2853.00,3.8852
2852.00,4.2410
2851.00,3.6842
2850.00,3.4287
2849.00,3.5101
2848.00,3.8992
2847.00,3.8036
2846.00,3.5639
2845.00,3.6168
2844.00,3.8376
2843.00,3.5072
2842.00,3.1174
2841.00,2.8946
2840.00,2.7938
2839.00,2.7401
2838.00,2.6646
2837.00,2.5453
2836.00,2.4104
2835.00,2.2895
2834.00,2.1871
2833.00,2.0955
2832.00,2.0077
2831.00,1.9244
2830.00,1.8483
2829.00,1.7807
2828.00,1.7199
2827.00,1.6640
2826.00,1.6123
2825.00,1.5651
2824.00,1.5225
2823.00,1.4850
2822.00,1.4524
2821.00,1.4239
2820.00,1.3976
2819.00,1.3726
2818.00,1.3488
2817.00,1.3271
2816.00,1.3078
2815.00,1.2903
2814.00,1.2742
2813.00,1.2596
2812.00,1.2468
2811.00,1.2362
2810.00,1.2283
2809.00,1.2229
2808.00,1.2196
2807.00,1.2172
2806.00,1.2153
2805.00,1.2138
2804.00,1.2129
2803.00,1.2122
2802.00,1.2116
2801.00,1.2107
2800.00,1.2095
2799.00,1.2077
2798.00,1.2047
2797.00,1.2002
2796.00,1.1943
2795.00,1.1873
2794.00,1.1792
2793.00,1.1705
2792.00,1.1620
2791.00,1.1538
2790.00,1.1458
2789.00,1.1374
2788.00,1.1285
2787.00,1.1193
2786.00,1.1099
2785.00,1.1004
2784.00,1.0907
2783.00,1.0809
2782.00,1.0712
2781.00,1.0616
2780.00,1.0523
2779.00,1.0429
2778.00,1.0333
2777.00,1.0232
2776.00,1.0132
2775.00,1.0036
2774.00,0.9945
2773.00,0.9857
2772.00,0.9768
2771.00,0.9679
2770.00,0.9589
2769.00,0.9498
2768.00,0.9404
2767.00,0.9310
2766.00,0.9215
2765.00,0.9122
2764.00,0.9031
2763.00,0.8939
2762.00,0.8847
2761.00,0.8752
2760.00,0.8655
2759.00,0.8557
2758.00,0.8462
2757.00,0.8368
2756.00,0.8276
2755.00,0.8187
2754.00,0.8101
2753.00,0.8019
2752.00,0.7940
2751.00,0.7864
2750.00,0.7793
2749.00,0.7725
2748.00,0.7659
2747.00,0.7595
2746.00,0.7535
2745.00,0.7481
2744.00,0.7431
2743.00,0.7382
2742.00,0.7332
2741.00,0.7281
2740.00,0.7233
2739.00,0.7190
2738.00,0.7151
2737.00,0.7115
2736.00,0.7082
2735.00,0.7049
2734.00,0.7015
2733.00,0.6977
2732.00,0.6935
2731.00,0.6890
2730.00,0.6843
2729.00,0.6794
2728.00,0.6740
2727.00,0.6684
2726.00,0.6629
2725.00,0.6573
2724.00,0.6515
2723.00,0.6455
2722.00,0.6395
2721.00,0.6336
2720.00,0.6279
2719.00,0.6225
2718.00,0.6171
2717.00,0.6120
2716.00,0.6070
2715.00,0.6022
2714.00,0.5978
2713.00,0.5938
2712.00,0.5900
2711.00,0.5865
2710.00,0.5831
2709.00,0.5801
2708.00,0.5775
2707.00,0.5753
2706.00,0.5733
2705.00,0.5714
2704.00,0.5696
2703.00,0.5678
2702.00,0.5659
2701.00,0.5640
2700.00,0.5621
2699.00,0.5600
2698.00,0.5575
2697.00,0.5548
2696.00,0.5521
2695.00,0.5496
2694.00,0.5474
2693.00,0.5453
2692.00,0.5434
2691.00,0.5417
2690.00,0.5402
2689.00,0.5389
2688.00,0.5377
2687.00,0.5367
2686.00,0.5362
2685.00,0.5360
2684.00,0.5361
2683.00,0.5362
2682.00,0.5364
2681.00,0.5366
2680.00,0.5369
2679.00,0.5372
2678.00,0.5375
2677.00,0.5378
2676.00,0.5378
2675.00,0.5376
2674.00,0.5370
2673.00,0.5362
2672.00,0.5351
2671.00,0.5336
2670.00,0.5317
2669.00,0.5296
2668.00,0.5275
2667.00,0.5253
2666.00,0.5231
2665.00,0.5207
2664.00,0.5183
2663.00,0.5157
2662.00,0.5128
2661.00,0.5097
2660.00,0.5067
2659.00,0.5040
2658.00,0.5014
2657.00,0.4989
2656.00,0.4967
2655.00,0.4947
2654.00,0.4930
2653.00,0.4913
2652.00,0.4896
2651.00,0.4881
2650.00,0.4868
2649.00,0.4857
2648.00,0.4846
2647.00,0.4835
2646.00,0.4826
2645.00,0.4819
2644.00,0.4812
2643.00,0.4804
2642.00,0.4795
2641.00,0.4783
2640.00,0.4769
2639.00,0.4753
2638.00,0.4736
2637.00,0.4717
2636.00,0.4694
2635.00,0.4668
2634.00,0.4642
2633.00,0.4614
2632.00,0.4586
2631.00,0.4555
2630.00,0.4523
2629.00,0.4490
2628.00,0.4457
2627.00,0.4425
2626.00,0.4392
2625.00,0.4360
2624.00,0.4330
2623.00,0.4301
2622.00,0.4274
2621.00,0.4247
2620.00,0.4221
2619.00,0.4199
2618.00,0.4181
2617.00,0.4165
2616.00,0.4151
2615.00,0.4138
2614.00,0.4127
2613.00,0.4120
2612.00,0.4114
2611.00,0.4108
2610.00,0.4104
2609.00,0.4101
2608.00,0.4098
2607.00,0.4095
2606.00,0.4093
2605.00,0.4093
2604.00,0.4094
2603.00,0.4093
2602.00,0.4092
2601.00,0.4089
2600.00,0.4087
2599.00,0.4084
2598.00,0.4081
2597.00,0.4076
2596.00,0.4073
2595.00,0.4071
2594.00,0.4071
2593.00,0.4071
2592.00,0.4069
2591.00,0.4065
2590.00,0.4060
2589.00,0.4054
2588.00,0.4048
2587.00,0.4040
2586.00,0.4030
2585.00,0.4017
2584.00,0.4002
2583.00,0.3984
2582.00,0.3964
2581.00,0.3941
2580.00,0.3917
2579.00,0.3891
2578.00,0.3864
2577.00,0.3836
2576.00,0.3806
2575.00,0.3773
2574.00,0.3739
2573.00,0.3706
2572.00,0.3674
2571.00,0.3643
2570.00,0.3612
2569.00,0.3581
2568.00,0.3551
2567.00,0.3524
2566.00,0.3500
2565.00,0.3478
2564.00,0.3457
2563.00,0.3438
2562.00,0.3420
2561.00,0.3403
2560.00,0.3387
2559.00,0.3371
2558.00,0.3358
2557.00,0.3346
2556.00,0.3335
2555.00,0.3324
2554.00,0.3314
2553.00,0.3305
2552.00,0.3297
2551.00,0.3290
2550.00,0.3282
2549.00,0.3275
2548.00,0.3267
2547.00,0.3260
2546.00,0.3252
2545.00,0.3246
2544.00,0.3239
2543.00,0.3231
2542.00,0.3223
2541.00,0.3216
2540.00,0.3210
2539.00,0.3204
2538.00,0.3196
2537.00,0.3189
2536.00,0.3183
2535.00,0.3178
2534.00,0.3172
2533.00,0.3166
2532.00,0.3158
2531.00,0.3151
2530.00,0.3144
2529.00,0.3139
2528.00,0.3135
2527.00,0.3132
2526.00,0.3127
2525.00,0.3123
2524.00,0.3119
2523.00,0.3117
2522.00,0.3115
2521.00,0.3113
2520.00,0.3111
2519.00,0.3108
2518.00,0.3106
2517.00,0.3104
2516.00,0.3103
2515.00,0.3103
2514.00,0.3102
2513.00,0.3102
2512.00,0.3101
2511.00,0.3101
2510.00,0.3101
2509.00,0.3103
2508.00,0.3105
2507.00,0.3108
2506.00,0.3110
2505.00,0.3111
2504.00,0.3111
2503.00,0.3112
2502.00,0.3112
2501.00,0.3115
2500.00,0.3118
2499.00,0.3121
2498.00,0.3121
2497.00,0.3120
2496.00,0.3119
2495.00,0.3119
2494.00,0.3119
2493.00,0.3118
2492.00,0.3116
2491.00,0.3114
2490.00,0.3112
2489.00,0.3110
2488.00,0.3108
2487.00,0.3107
2486.00,0.3107
2485.00,0.3106
2484.00,0.3105
2483.00,0.3104
2482.00,0.3104
2481.00,0.3104
2480.00,0.3102
2479.00,0.3100
2478.00,0.3097
2477.00,0.3096
2476.00,0.3095
2475.00,0.3094
2474.00,0.3091
2473.00,0.3089
2472.00,0.3087
2471.00,0.3086
2470.00,0.3085
2469.00,0.3084
2468.00,0.3084
2467.00,0.3084
2466.00,0.3082
2465.00,0.3081
2464.00,0.3081
2463.00,0.3081
2462.00,0.3080
2461.00,0.3077
2460.00,0.3076
2459.00,0.3075
2458.00,0.3076
2457.00,0.3075
2456.00,0.3074
2455.00,0.3072
2454.00,0.3070
2453.00,0.3067
2452.00,0.3064
2451.00,0.3060
2450.00,0.3056
2449.00,0.3053
2448.00,0.3051
2447.00,0.3049
2446.00,0.3046
2445.00,0.3043
2444.00,0.3041
2443.00,0.3038
2442.00,0.3035
2441.00,0.3033
2440.00,0.3032
2439.00,0.3030
2438.00,0.3026
2437.00,0.3022
2436.00,0.3019
2435.00,0.3017
2434.00,0.3016
2433.00,0.3016
2432.00,0.3017
2431.00,0.3017
2430.00,0.3016
2429.00,0.3015
2428.00,0.3015
2427.00,0.3016
2426.00,0.3016
2425.00,0.3015
2424.00,0.3015
2423.00,0.3015
2422.00,0.3016
2421.00,0.3016
2420.00,0.3017
2419.00,0.3017
2418.00,0.3017
2417.00,0.3019
2416.00,0.3021
2415.00,0.3022
2414.00,0.3023
2413.00,0.3024
2412.00,0.3024
2411.00,0.3025
2410.00,0.3026
2409.00,0.3028
2408.00,0.3030
2407.00,0.3032
2406.00,0.3034
2405.00,0.3037
2404.00,0.3041
2403.00,0.3044
2402.00,0.3047
2401.00,0.3050
2400.00,0.3052
2399.00,0.3054
2398.00,0.3057
2397.00,0.3060
2396.00,0.3065
2395.00,0.3070
2394.00,0.3073
2393.00,0.3075
2392.00,0.3077
2391.00,0.3079
2390.00,0.3079
2389.00,0.3079
2388.00,0.3080
2387.00,0.3080
2386.00,0.3079
2385.00,0.3076
2384.00,0.3072
2383.00,0.3066
2382.00,0.3058
2381.00,0.3050
2380.00,0.3041
2379.00,0.3032
2378.00,0.3022
2377.00,0.3011
2376.00,0.2999
2375.00,0.2987
2374.00,0.2976
2373.00,0.2967
2372.00,0.2962
2371.00,0.2959
2370.00,0.2959
2369.00,0.2959
2368.00,0.2960
2367.00,0.2961
2366.00,0.2962
2365.00,0.2965
2364.00,0.2970
2363.00,0.2975
2362.00,0.2979
2361.00,0.2982
2360.00,0.2984
2359.00,0.2984
2358.00,0.2980
2357.00,0.2976
2356.00,0.2972
2355.00,0.2973
2354.00,0.2977
2353.00,0.2983
2352.00,0.2986
2351.00,0.2983
2350.00,0.2975
2349.00,0.2969
2348.00,0.2968
2347.00,0.2973
2346.00,0.2979
2345.00,0.2981
2344.00,0.2977
2343.00,0.2971
2342.00,0.2968
2341.00,0.2970
2340.00,0.2974
2339.00,0.2980
2338.00,0.2984
2337.00,0.2986
2336.00,0.2984
2335.00,0.2979
2334.00,0.2974
2333.00,0.2971
2332.00,0.2971
2331.00,0.2972
2330.00,0.2973
2329.00,0.2974
2328.00,0.2974
2327.00,0.2975
2326.00,0.2977
2325.00,0.2981
2324.00,0.2985
2323.00,0.2989
2322.00,0.2992
2321.00,0.2996
2320.00,0.3001
2319.00,0.3007
2318.00,0.3014
2317.00,0.3022
2316.00,0.3032
2315.00,0.3042
2314.00,0.3053
2313.00,0.3065
2312.00,0.3077
2311.00,0.3086
2310.00,0.3095
2309.00,0.3105
2308.00,0.3116
2307.00,0.3128
2306.00,0.3139
2305.00,0.3148
2304.00,0.3156
2303.00,0.3164
2302.00,0.3172
2301.00,0.3180
2300.00,0.3188
2299.00,0.3196
2298.00,0.3204
2297.00,0.3210
2296.00,0.3215
2295.00,0.3219
2294.00,0.3224
2293.00,0.3229
2292.00,0.3234
2291.00,0.3237
2290.00,0.3239
2289.00,0.3241
2288.00,0.3244
2287.00,0.3246
2286.00,0.3249
2285.00,0.3251
2284.00,0.3254
2283.00,0.3256
2282.00,0.3258
2281.00,0.3260
2280.00,0.3261
2279.00,0.3264
2278.00,0.3268
2277.00,0.3271
2276.00,0.3273
2275.00,0.3274
2274.00,0.3274
2273.00,0.3275
2272.00,0.3277
2271.00,0.3279
2270.00,0.3280
2269.00,0.3282
2268.00,0.3283
2267.00,0.3284
2266.00,0.3284
2265.00,0.3284
2264.00,0.3284
2263.00,0.3284
2262.00,0.3284
2261.00,0.3285
2260.00,0.3286
2259.00,0.3288
2258.00,0.3289
2257.00,0.3290
2256.00,0.3291
2255.00,0.3293
2254.00,0.3295
2253.00,0.3298
2252.00,0.3300
2251.00,0.3302
2250.00,0.3304
2249.00,0.3307
2248.00,0.3310
2247.00,0.3315
2246.00,0.3320
2245.00,0.3325
2244.00,0.3330
2243.00,0.3334
2242.00,0.3337
2241.00,0.3340
2240.00,0.3341
2239.00,0.3343
2238.00,0.3344
2237.00,0.3348
2236.00,0.3352
2235.00,0.3356
2234.00,0.3360
2233.00,0.3364
2232.00,0.3369
2231.00,0.3373
2230.00,0.3377
2229.00,0.3381
2228.00,0.3384
2227.00,0.3387
2226.00,0.3390
2225.00,0.3394
2224.00,0.3398
2223.00,0.3401
2222.00,0.3404
2221.00,0.3407
2220.00,0.3410
2219.00,0.3413
2218.00,0.3416
2217.00,0.3419
2216.00,0.3422
2215.00,0.3425
2214.00,0.3427
2213.00,0.3429
2212.00,0.3430
2211.00,0.3430
2210.00,0.3431
2209.00,0.3433
2208.00,0.3435
2207.00,0.3436
2206.00,0.3435
2205.00,0.3434
2204.00,0.3433
2203.00,0.3432
2202.00,0.3431
2201.00,0.3430
2200.00,0.3429
2199.00,0.3428
2198.00,0.3426
2197.00,0.3424
2196.00,0.3423
2195.00,0.3423
2194.00,0.3423
2193.00,0.3422
2192.00,0.3421
2191.00,0.3419
2190.00,0.3418
2189.00,0.3416
2188.00,0.3416
2187.00,0.3415
2186.00,0.3415
2185.00,0.3415
2184.00,0.3416
2183.00,0.3416
2182.00,0.3415
2181.00,0.3415
2180.00,0.3414
2179.00,0.3414
2178.00,0.3414
2177.00,0.3414
2176.00,0.3413
2175.00,0.3412
2174.00,0.3410
2173.00,0.3408
2172.00,0.3407
2171.00,0.3406
2170.00,0.3404
2169.00,0.3402
2168.00,0.3400
2167.00,0.3397
2166.00,0.3393
2165.00,0.3389
2164.00,0.3386
2163.00,0.3382
2162.00,0.3377
2161.00,0.3372
2160.00,0.3369
2159.00,0.3367
2158.00,0.3365
2157.00,0.3363
2156.00,0.3360
2155.00,0.3357
2154.00,0.3353
2153.00,0.3350
2152.00,0.3348
2151.00,0.3346
2150.00,0.3343
2149.00,0.3339
2148.00,0.3336
2147.00,0.3334
2146.00,0.3332
2145.00,0.3331
2144.00,0.3329
2143.00,0.3327
2142.00,0.3324
2141.00,0.3322
2140.00,0.3320
2139.00,0.3319
2138.00,0.3317
2137.00,0.3317
2136.00,0.3316
2135.00,0.3315
2134.00,0.3313
2133.00,0.3310
2132.00,0.3307
2131.00,0.3305
2130.00,0.3305
2129.00,0.3304
2128.00,0.3303
2127.00,0.3302
2126.00,0.3301
2125.00,0.3301
2124.00,0.3300
2123.00,0.3300
2122.00,0.3299
2121.00,0.3300
2120.00,0.3300
2119.00,0.3302
2118.00,0.3303
2117.00,0.3306
2116.00,0.3310
2115.00,0.3313
2114.00,0.3316
2113.00,0.3320
2112.00,0.3324
2111.00,0.3329
2110.00,0.3334
2109.00,0.3339
2108.00,0.3344
2107.00,0.3349
2106.00,0.3353
2105.00,0.3356
2104.00,0.3360
2103.00,0.3365
2102.00,0.3369
2101.00,0.3373
2100.00,0.3377
2099.00,0.3379
2098.00,0.3381
2097.00,0.3384
2096.00,0.3388
2095.00,0.3390
2094.00,0.3392
2093.00,0.3392
2092.00,0.3395
2091.00,0.3398
2090.00,0.3403
2089.00,0.3406
2088.00,0.3410
2087.00,0.3413
2086.00,0.3417
2085.00,0.3422
2084.00,0.3427
2083.00,0.3431
2082.00,0.3436
2081.00,0.3441
2080.00,0.3447
2079.00,0.3451
2078.00,0.3453
2077.00,0.3456
2076.00,0.3460
2075.00,0.3464
2074.00,0.3468
2073.00,0.3474
2072.00,0.3478
2071.00,0.3481
2070.00,0.3482
2069.00,0.3482
2068.00,0.3483
2067.00,0.3485
2066.00,0.3491
2065.00,0.3499
2064.00,0.3508
2063.00,0.3514
2062.00,0.3519
2061.00,0.3524
2060.00,0.3530
2059.00,0.3536
2058.00,0.3542
2057.00,0.3549
2056.00,0.3557
2055.00,0.3563
2054.00,0.3569
2053.00,0.3574
2052.00,0.3581
2051.00,0.3589
2050.00,0.3599
2049.00,0.3609
2048.00,0.3621
2047.00,0.3631
2046.00,0.3640
2045.00,0.3648
2044.00,0.3658
2043.00,0.3672
2042.00,0.3689
2041.00,0.3706
2040.00,0.3721
2039.00,0.3734
2038.00,0.3744
2037.00,0.3755
2036.00,0.3767
2035.00,0.3778
2034.00,0.3787
2033.00,0.3796
2032.00,0.3804
2031.00,0.3811
2030.00,0.3818
2029.00,0.3826
2028.00,0.3833
2027.00,0.3838
2026.00,0.3841
2025.00,0.3842
2024.00,0.3843
2023.00,0.3842
2022.00,0.3838
2021.00,0.3830
2020.00,0.3821
2019.00,0.3814
2018.00,0.3811
2017.00,0.3812
2016.00,0.3814
2015.00,0.3813
2014.00,0.3808
2013.00,0.3800
2012.00,0.3790
2011.00,0.3780
2010.00,0.3771
2009.00,0.3763
2008.00,0.3756
2007.00,0.3750
2006.00,0.3743
2005.00,0.3736
2004.00,0.3729
2003.00,0.3722
2002.00,0.3714
2001.00,0.3707
2000.00,0.3700
1999.00,0.3691
1998.00,0.3682
1997.00,0.3673
1996.00,0.3665
1995.00,0.3658
1994.00,0.3651
1993.00,0.3644
1992.00,0.3637
1991.00,0.3631
1990.00,0.3626
1989.00,0.3622
1988.00,0.3618
1987.00,0.3614
1986.00,0.3607
1985.00,0.3602
1984.00,0.3598
1983.00,0.3594
1982.00,0.3590
1981.00,0.3587
1980.00,0.3583
1979.00,0.3579
1978.00,0.3574
1977.00,0.3570
1976.00,0.3566
1975.00,0.3563
1974.00,0.3559
1973.00,0.3554
1972.00,0.3550
1971.00,0.3544
1970.00,0.3538
1969.00,0.3533
1968.00,0.3529
1967.00,0.3526
1966.00,0.3523
1965.00,0.3521
1964.00,0.3518
1963.00,0.3514
1962.00,0.3511
1961.00,0.3507
1960.00,0.3505
1959.00,0.3502
1958.00,0.3498
1957.00,0.3493
1956.00,0.3488
1955.00,0.3484
1954.00,0.3480
1953.00,0.3476
1952.00,0.3473
1951.00,0.3468
1950.00,0.3463
1949.00,0.3457
1948.00,0.3452
1947.00,0.3445
1946.00,0.3438
1945.00,0.3431
1944.00,0.3425
1943.00,0.3418
1942.00,0.3413
1941.00,0.3408
1940.00,0.3405
1939.00,0.3401
1938.00,0.3395
1937.00,0.3391
1936.00,0.3387
1935.00,0.3383
1934.00,0.3378
1933.00,0.3373
1932.00,0.3369
1931.00,0.3365
1930.00,0.3360
1929.00,0.3355
1928.00,0.3351
1927.00,0.3347
1926.00,0.3343
1925.00,0.3338
1924.00,0.3333
1923.00,0.3328
1922.00,0.3324
1921.00,0.3318
1920.00,0.3312
1919.00,0.3305
1918.00,0.3298
1917.00,0.3292
1916.00,0.3287
1915.00,0.3281
1914.00,0.3274
1913.00,0.3266
1912.00,0.3258
1911.00,0.3249
1910.00,0.3240
1909.00,0.3230
1908.00,0.3220
1907.00,0.3211
1906.00,0.3201
1905.00,0.3193
1904.00,0.3186
1903.00,0.3179
1902.00,0.3172
1901.00,0.3164
1900.00,0.3155
1899.00,0.3147
1898.00,0.3139
1897.00,0.3133
1896.00,0.3127
1895.00,0.3121
1894.00,0.3116
1893.00,0.3111
1892.00,0.3107
1891.00,0.3104
1890.00,0.3102
1889.00,0.3101
1888.00,0.3102
1887.00,0.3101
1886.00,0.3100
1885.00,0.3099
1884.00,0.3098
1883.00,0.3097
1882.00,0.3095
1881.00,0.3095
1880.00,0.3096
1879.00,0.3097
1878.00,0.3096
1877.00,0.3094
1876.00,0.3093
1875.00,0.3092
1874.00,0.3090
1873.00,0.3089
1872.00,0.3090
1871.00,0.3090
1870.00,0.3089
1869.00,0.3089
1868.00,0.3090
1867.00,0.3091
1866.00,0.3092
1865.00,0.3093
1864.00,0.3093
1863.00,0.3093
1862.00,0.3093
1861.00,0.3093
1860.00,0.3095
1859.00,0.3096
1858.00,0.3097
1857.00,0.3099
1856.00,0.3103
1855.00,0.3106
1854.00,0.3110
1853.00,0.3115
1852.00,0.3120
1851.00,0.3123
1850.00,0.3125
1849.00,0.3127
1848.00,0.3130
1847.00,0.3134
1846.00,0.3138
1845.00,0.3143
1844.00,0.3149
1843.00,0.3155
1842.00,0.3159
1841.00,0.3163
1840.00,0.3168
1839.00,0.3173
1838.00,0.3178
1837.00,0.3184
1836.00,0.3191
1835.00,0.3198
1834.00,0.3203
1833.00,0.3210
1832.00,0.3219
1831.00,0.3229
1830.00,0.3240
1829.00,0.3251
1828.00,0.3263
1827.00,0.3274
1826.00,0.3286
1825.00,0.3301
1824.00,0.3317
1823.00,0.3332
1822.00,0.3347
1821.00,0.3364
1820.00,0.3384
1819.00,0.3406
1818.00,0.3428
1817.00,0.3452
1816.00,0.3477
1815.00,0.3502
1814.00,0.3525
1813.00,0.3550
1812.00,0.3576
1811.00,0.3604
1810.00,0.3632
1809.00,0.3662
1808.00,0.3695
1807.00,0.3729
1806.00,0.3762
1805.00,0.3796
1804.00,0.3831
1803.00,0.3866
1802.00,0.3902
1801.00,0.3941
1800.00,0.3984
1799.00,0.4030
1798.00,0.4075
1797.00,0.4128
1796.00,0.4144
1795.00,0.4183
1794.00,0.4223
1793.00,0.4267
1792.00,0.4333
1791.00,0.4413
1790.00,0.4494
1789.00,0.4567
1788.00,0.4632
1787.00,0.4695
1786.00,0.4768
1785.00,0.4857
1784.00,0.4952
1783.00,0.5047
1782.00,0.5146
1781.00,0.5258
1780.00,0.5384
1779.00,0.5517
1778.00,0.5656
1777.00,0.5810
1776.00,0.5979
1775.00,0.6162
1774.00,0.6360
1773.00,0.6587
1772.00,0.6848
1771.00,0.7129
1770.00,0.7434
1769.00,0.7799
1768.00,0.8248
1767.00,0.8776
1766.00,0.9363
1765.00,1.0013
1764.00,1.0767
1763.00,1.1700
1762.00,1.2898
1761.00,1.4395
1760.00,1.6149
1759.00,1.8109
1758.00,2.0375
1757.00,2.3205
1756.00,2.6697
1755.00,3.0192
1754.00,3.2510
1753.00,3.4056
1752.00,3.4672
1751.00,3.3425
1750.00,3.2655
1749.00,3.3672
1748.00,3.5951
1747.00,3.6644
1746.00,3.7411
1745.00,3.9973
1744.00,3.6986
1743.00,3.7275
1742.00,3.9108
1741.00,4.0007
1740.00,4.0770
1739.00,3.4996
1738.00,3.4324
1737.00,3.5589
1736.00,3.3591
1735.00,3.1164
1734.00,2.9697
1733.00,2.8059
1732.00,2.5801
1731.00,2.3663
1730.00,2.1857
1729.00,2.0218
1728.00,1.8701
1727.00,1.7359
1726.00,1.6170
1725.00,1.5063
1724.00,1.4015
1723.00,1.3073
1722.00,1.2265
1721.00,1.1553
1720.00,1.0877
1719.00,1.0209
1718.00,0.9574
1717.00,0.9016
1716.00,0.8556
1715.00,0.8179
1714.00,0.7859
1713.00,0.7579
1712.00,0.7335
1711.00,0.7124
1710.00,0.6944
1709.00,0.6788
1708.00,0.6646
1707.00,0.6512
1706.00,0.6392
1705.00,0.6294
1704.00,0.6219
1703.00,0.6155
1702.00,0.6068
1701.00,0.5936
1700.00,0.5781
1699.00,0.5645
1698.00,0.5540
1697.00,0.5443
1696.00,0.5334
1695.00,0.5220
1694.00,0.5122
1693.00,0.5034
1692.00,0.4943
1691.00,0.4849
1690.00,0.4765
1689.00,0.4703
1688.00,0.4656
1687.00,0.4606
1686.00,0.4535
1685.00,0.4454
1684.00,0.4383
1683.00,0.4328
1682.00,0.4293
1681.00,0.4276
1680.00,0.4271
1679.00,0.4268
1678.00,0.4259
1677.00,0.4238
1676.00,0.4208
1675.00,0.4180
1674.00,0.4164
1673.00,0.4157
1672.00,0.4149
1671.00,0.4135
1670.00,0.4121
1669.00,0.4114
1668.00,0.4115
1667.00,0.4120
1666.00,0.4124
1665.00,0.4121
1664.00,0.4108
1663.00,0.4093
1662.00,0.4086
1661.00,0.4088
1660.00,0.4095
1659.00,0.4101
1658.00,0.4107
1657.00,0.4117
1656.00,0.4133
1655.00,0.4145
1654.00,0.4154
1653.00,0.4161
1652.00,0.4171
1651.00,0.4185
1650.00,0.4197
1649.00,0.4202
1648.00,0.4209
1647.00,0.4217
1646.00,0.4223
1645.00,0.4226
1644.00,0.4228
1643.00,0.4228
1642.00,0.4226
1641.00,0.4227
1640.00,0.4232
1639.00,0.4240
1638.00,0.4248
1637.00,0.4256
1636.00,0.4260
1635.00,0.4259
1634.00,0.4261
1633.00,0.4273
1632.00,0.4291
1631.00,0.4311
1630.00,0.4331
1629.00,0.4358
1628.00,0.4396
1627.00,0.4440
1626.00,0.4489
1625.00,0.4542
1624.00,0.4605
1623.00,0.4681
1622.00,0.4774
1621.00,0.4880
1620.00,0.4991
1619.00,0.5097
1618.00,0.5197
1617.00,0.5306
1616.00,0.5437
1615.00,0.5589
1614.00,0.5762
1613.00,0.5967
1612.00,0.6207
1611.00,0.6464
1610.00,0.6703
1609.00,0.6886
1608.00,0.6987
1607.00,0.6993
1606.00,0.6917
1605.00,0.6800
1604.00,0.6683
1603.00,0.6585
1602.00,0.6511
1601.00,0.6448
1600.00,0.6370
1599.00,0.6249
1598.00,0.6076
1597.00,0.5866
1596.00,0.5639
1595.00,0.5414
1594.00,0.5205
1593.00,0.5022
1592.00,0.4866
1591.00,0.4733
1590.00,0.4621
1589.00,0.4527
1588.00,0.4447
1587.00,0.4379
1586.00,0.4321
1585.00,0.4273
1584.00,0.4234
1583.00,0.4202
1582.00,0.4178
1581.00,0.4161
1580.00,0.4149
1579.00,0.4136
1578.00,0.4117
1577.00,0.4092
1576.00,0.4062
1575.00,0.4037
1574.00,0.4022
1573.00,0.4013
1572.00,0.3998
1571.00,0.3971
1570.00,0.3942
1569.00,0.3923
1568.00,0.3914
1567.00,0.3911
1566.00,0.3909
1565.00,0.3908
1564.00,0.3911
1563.00,0.3917
1562.00,0.3927
1561.00,0.3920
1560.00,0.3908
1559.00,0.3911
1558.00,0.3914
1557.00,0.3914
1556.00,0.3918
1555.00,0.3928
1554.00,0.3940
1553.00,0.3949
1552.00,0.3960
1551.00,0.3988
1550.00,0.4040
1549.00,0.4101
1548.00,0.4148
1547.00,0.4178
1546.00,0.4216
1545.00,0.4286
1544.00,0.4386
1543.00,0.4491
1542.00,0.4587
1541.00,0.4691
1540.00,0.4812
1539.00,0.4944
1538.00,0.5082
1537.00,0.5224
1536.00,0.5369
1535.00,0.5536
1534.00,0.5758
1533.00,0.6044
1532.00,0.6358
1531.00,0.6674
1530.00,0.6994
1529.00,0.7337
1528.00,0.7713
1527.00,0.8129
1526.00,0.8582
1525.00,0.9040
1524.00,0.9464
1523.00,0.9854
1522.00,1.0259
1521.00,1.0678
1520.00,1.1027
1519.00,1.1236
1518.00,1.1310
1517.00,1.1274
1516.00,1.1132
1515.00,1.0898
1514.00,1.0595
1513.00,1.0241
1512.00,0.9862
1511.00,0.9495
1510.00,0.9172
1509.00,0.8905
1508.00,0.8701
1507.00,0.8527
1506.00,0.8354
1505.00,0.8217
1504.00,0.8141
1503.00,0.8114
1502.00,0.8127
1501.00,0.8174
1500.00,0.8238
1499.00,0.8292
1498.00,0.8314
1497.00,0.8306
1496.00,0.8282
1495.00,0.8264
1494.00,0.8273
1493.00,0.8318
1492.00,0.8413
1491.00,0.8587
1490.00,0.8871
1489.00,0.9267
1488.00,0.9758
1487.00,1.0331
1486.00,1.0993
1485.00,1.1750
1484.00,1.2604
1483.00,1.3568
1482.00,1.4677
1481.00,1.5951
1480.00,1.7346
1479.00,1.8769
1478.00,2.0124
1477.00,2.1333
1476.00,2.2347
1475.00,2.3222
1474.00,2.4160
1473.00,2.5369
1472.00,2.6852
1471.00,2.8375
1470.00,2.9867
1469.00,3.1133
1468.00,3.1803
1467.00,3.2218
1466.00,3.3921
1465.00,3.6578
1464.00,3.3857
1463.00,3.2668
1462.00,3.3546
1461.00,3.3008
1460.00,3.1612
1459.00,3.0839
1458.00,3.0808
1457.00,3.1501
1456.00,3.2461
1455.00,3.2880
1454.00,3.2582
1453.00,3.2227
1452.00,3.1856
1451.00,3.0927
1450.00,2.9468
1449.00,2.7971
1448.00,2.6626
1447.00,2.5430
1446.00,2.4408
1445.00,2.3492
1444.00,2.2542
1443.00,2.1468
1442.00,2.0297
1441.00,1.9128
1440.00,1.8025
1439.00,1.6990
1438.00,1.6000
1437.00,1.5087
1436.00,1.4326
1435.00,1.3744
1434.00,1.3285
1433.00,1.2880
1432.00,1.2513
1431.00,1.2207
1430.00,1.1986
1429.00,1.1849
1428.00,1.1788
1427.00,1.1798
1426.00,1.1878
1425.00,1.2040
1424.00,1.2289
1423.00,1.2591
1422.00,1.2892
1421.00,1.3165
1420.00,1.3418
1419.00,1.3664
1418.00,1.3892
1417.00,1.4091
1416.00,1.4266
1415.00,1.4419
1414.00,1.4567
1413.00,1.4738
1412.00,1.4960
1411.00,1.5238
1410.00,1.5564
1409.00,1.5935
1408.00,1.6342
1407.00,1.6759
1406.00,1.7166
1405.00,1.7572
1404.00,1.7985
1403.00,1.8390
1402.00,1.8790
1401.00,1.9234
1400.00,1.9755
1399.00,2.0323
1398.00,2.0898
1397.00,2.1528
1396.00,2.2276
1395.00,2.3089
1394.00,2.3857
1393.00,2.4596
1392.00,2.5385
1391.00,2.6178
1390.00,2.6899
1389.00,2.7622
1388.00,2.8400
1387.00,2.9006
1386.00,2.9381
1385.00,3.0040
1384.00,3.1464
1383.00,3.3290
1382.00,3.4008
1381.00,3.3875
1380.00,3.4214
1379.00,3.5642
1378.00,3.8579
1377.00,4.3212
1376.00,4.5147
1375.00,3.8390
1374.00,3.5530
1373.00,3.5049
1372.00,3.6016
1371.00,3.6979
1370.00,3.7195
1369.00,3.6427
1368.00,3.7487
1367.00,4.0137
1366.00,3.3622
1365.00,3.0253
1364.00,2.8143
1363.00,2.6311
1362.00,2.4862
1361.00,2.3785
1360.00,2.3051
1359.00,2.2572
1358.00,2.2349
1357.00,2.2392
1356.00,2.2655
1355.00,2.3063
1354.00,2.3627
1353.00,2.4431
1352.00,2.5439
1351.00,2.6384
1350.00,2.7007
1349.00,2.7295
1348.00,2.7354
1347.00,2.7292
1346.00,2.7291
1345.00,2.7599
1344.00,2.8207
1343.00,2.8611
1342.00,2.8300
1341.00,2.7478
1340.00,2.6483
1339.00,2.5407
1338.00,2.4429
1337.00,2.3663
1336.00,2.3001
1335.00,2.2308
1334.00,2.1633
1333.00,2.1100
1332.00,2.0719
1331.00,2.0407
1330.00,2.0120
1329.00,1.9894
1328.00,1.9762
1327.00,1.9711
1326.00,1.9730
1325.00,1.9833
1324.00,2.0031
1323.00,2.0301
1322.00,2.0598
1321.00,2.0882
1320.00,2.1130
1319.00,2.1346
1318.00,2.1566
1317.00,2.1806
1316.00,2.2015
1315.00,2.2144
1314.00,2.2252
1313.00,2.2440
1312.00,2.2701
1311.00,2.2925
1310.00,2.3066
1309.00,2.3209
1308.00,2.3419
1307.00,2.3685
1306.00,2.4010
1305.00,2.4447
1304.00,2.5001
1303.00,2.5599
1302.00,2.6127
1301.00,2.6550
1300.00,2.6915
1299.00,2.7162
1298.00,2.7339
1297.00,2.7586
1296.00,2.7704
1295.00,2.7365
1294.00,2.6691
1293.00,2.5987
1292.00,2.5252
1291.00,2.4403
1290.00,2.3570
1289.00,2.2914
1288.00,2.2439
1287.00,2.2076
1286.00,2.1838
1285.00,2.1780
1284.00,2.1862
1283.00,2.1946
1282.00,2.1950
1281.00,2.1937
1280.00,2.1987
1279.00,2.2099
1278.00,2.2244
1277.00,2.2416
1276.00,2.2606
1275.00,2.2799
1274.00,2.3049
1273.00,2.3449
1272.00,2.3985
1271.00,2.4475
1270.00,2.4762
1269.00,2.4880
1268.00,2.4951
1267.00,2.5000
1266.00,2.5028
1265.00,2.5125
1264.00,2.5404
1263.00,2.5951
1262.00,2.6850
1261.00,2.8151
1260.00,2.9628
1259.00,3.0522
1258.00,3.0459
1257.00,3.0026
1256.00,2.9512
1255.00,2.8972
1254.00,2.8633
1253.00,2.8609
1252.00,2.8642
1251.00,2.8379
1250.00,2.8015
1249.00,2.7973
1248.00,2.8137
1247.00,2.8311
1246.00,2.8828
1245.00,2.9760
1244.00,3.0331
1243.00,2.9872
1242.00,2.9029
1241.00,2.8592
1240.00,2.8721
1239.00,2.8887
1238.00,2.8462
1237.00,2.7525
1236.00,2.6572
1235.00,2.6006
1234.00,2.5879
1233.00,2.5956
1232.00,2.5865
1231.00,2.5377
1230.00,2.4683
1229.00,2.4074
1228.00,2.3601
1227.00,2.3188
1226.00,2.2790
1225.00,2.2412
1224.00,2.2060
1223.00,2.1718
1222.00,2.1376
1221.00,2.1033
1220.00,2.0677
1219.00,2.0310
1218.00,2.0003
1217.00,1.9824
1216.00,1.9741
1215.00,1.9686
1214.00,1.9678
1213.00,1.9796
1212.00,2.0041
1211.00,2.0294
1210.00,2.0432
1209.00,2.0434
1208.00,2.0349
1207.00,2.0261
1206.00,2.0300
1205.00,2.0566
1204.00,2.1023
1203.00,2.1508
1202.00,2.1907
1201.00,2.2274
1200.00,2.2656
1199.00,2.2992
1198.00,2.3308
1197.00,2.3830
1196.00,2.4746
1195.00,2.5936
1194.00,2.7068
1193.00,2.8143
1192.00,2.9729
1191.00,3.2076
1190.00,3.3442
1189.00,3.3011
1188.00,3.2445
1187.00,3.1698
1186.00,3.1015
1185.00,3.0893
1184.00,3.1692
1183.00,3.1681
1182.00,3.1172
1181.00,3.1527
1180.00,3.4517
1179.00,3.7848
1178.00,3.2304
1177.00,3.0891
1176.00,3.0841
1175.00,3.1219
1174.00,3.2689
1173.00,3.5315
1172.00,3.5269
1171.00,3.2227
1170.00,3.1023
1169.00,3.0494
1168.00,3.0700
1167.00,3.1727
1166.00,3.2535
1165.00,3.2602
1164.00,3.2694
1163.00,3.3306
1162.00,3.6400
1161.00,4.5546
1160.00,3.8637
1159.00,3.5006
1158.00,3.4072
1157.00,3.4460
1156.00,3.4553
1155.00,3.5072
1154.00,3.5521
1153.00,3.3240
1152.00,3.1779
1151.00,3.2187
1150.00,3.3798
1149.00,3.3040
1148.00,3.1377
1147.00,3.1246
1146.00,3.1858
1145.00,3.3325
1144.00,3.7290
1143.00,3.5638
1142.00,3.1973
1141.00,3.1063
1140.00,3.1811
1139.00,3.4100
1138.00,3.2977
1137.00,3.2827
1136.00,3.5875
1135.00,3.2940
1134.00,3.1207
1133.00,3.1871
1132.00,3.2944
1131.00,3.3195
1130.00,3.2170
1129.00,3.2151
1128.00,3.2871
1127.00,3.1987
1126.00,3.1167
1125.00,3.1530
1124.00,3.2669
1123.00,3.5050
1122.00,4.1403
1121.00,4.1879
1120.00,3.8647
1119.00,3.9302
1118.00,3.6357
1117.00,3.4122
1116.00,3.3309
1115.00,3.3888
1114.00,3.4394
1113.00,3.5751
1112.00,3.7624
1111.00,3.3760
1110.00,3.1800
1109.00,3.1018
1108.00,3.0392
1107.00,2.9742
1106.00,2.9355
1105.00,2.9855
1104.00,3.1616
1103.00,3.3983
1102.00,3.3352
1101.00,3.1943
1100.00,3.1176
1099.00,3.0737
1098.00,3.0497
1097.00,3.0229
1096.00,3.0328
1095.00,3.1368
1094.00,3.3881
1093.00,3.6805
1092.00,3.4812
1091.00,3.1911
1090.00,3.0643
1089.00,3.0403
1088.00,3.0878
1087.00,3.1673
1086.00,3.2707
1085.00,3.3188
1084.00,3.1774
1083.00,3.0884
1082.00,3.2117
1081.00,3.3279
1080.00,3.1313
1079.00,3.1064
1078.00,3.1450
1077.00,2.9903
1076.00,2.8923
1075.00,2.9466
1074.00,3.0573
1073.00,3.0370
1072.00,3.0222
1071.00,3.1937
1070.00,3.7183
1069.00,4.4474
1068.00,4.1812
1067.00,3.8737
1066.00,4.0590
1065.00,3.7951
1064.00,3.3630
1063.00,3.1931
1062.00,3.3132
1061.00,3.9601
1060.00,3.3367
1059.00,3.0216
1058.00,2.9587
1057.00,3.0235
1056.00,3.2706
1055.00,3.5445
1054.00,3.3776
1053.00,3.0451
1052.00,2.8752
1051.00,2.8215
1050.00,2.8604
1049.00,2.8785
1048.00,2.7681
1047.00,2.6377
1046.00,2.5196
1045.00,2.3994
1044.00,2.2876
1043.00,2.1899
1042.00,2.1068
1041.00,2.0380
1040.00,1.9861
1039.00,1.9525
1038.00,1.9336
1037.00,1.9198
1036.00,1.9030
1035.00,1.8857
1034.00,1.8781
1033.00,1.8869
1032.00,1.9088
1031.00,1.9343
1030.00,1.9565
1029.00,1.9789
1028.00,2.0123
1027.00,2.0636
1026.00,2.1277
1025.00,2.1883
1024.00,2.2321
1023.00,2.2671
1022.00,2.3158
1021.00,2.3922
1020.00,2.4910
1019.00,2.5818
1018.00,2.6322
1017.00,2.6622
1016.00,2.7067
1015.00,2.7653
1014.00,2.8079
1013.00,2.8039
1012.00,2.7466
1011.00,2.6355
1010.00,2.4934
1009.00,2.3481
1008.00,2.2087
1007.00,2.0784
1006.00,1.9598
1005.00,1.8542
1004.00,1.7606
1003.00,1.6762
1002.00,1.5990
1001.00,1.5284
1000.00,1.4645
999.00,1.4077
998.00,1.3577
997.00,1.3139
996.00,1.2752
995.00,1.2403
994.00,1.2079
993.00,1.1766
992.00,1.1456
991.00,1.1153
990.00,1.0866
989.00,1.0600
988.00,1.0352
987.00,1.0115
986.00,0.9894
985.00,0.9698
984.00,0.9533
983.00,0.9389
982.00,0.9253
981.00,0.9114
980.00,0.8970
979.00,0.8828
978.00,0.8699
977.00,0.8593
976.00,0.8516
975.00,0.8471
974.00,0.8447
973.00,0.8436
972.00,0.8433
971.00,0.8443
970.00,0.8471
969.00,0.8513
968.00,0.8562
967.00,0.8614
966.00,0.8670
965.00,0.8741
964.00,0.8835
963.00,0.8958
962.00,0.9110
961.00,0.9284
960.00,0.9467
959.00,0.9642
958.00,0.9794
957.00,0.9921
956.00,1.0034
955.00,1.0158
954.00,1.0314
953.00,1.0514
952.00,1.0773
951.00,1.1115
950.00,1.1562
949.00,1.2121
948.00,1.2781
947.00,1.3517
946.00,1.4307
945.00,1.5125
944.00,1.5928
943.00,1.6664
942.00,1.7287
941.00,1.7792
940.00,1.8200
939.00,1.8574
938.00,1.8990
937.00,1.9466
936.00,1.9928
935.00,2.0246
934.00,2.0374
933.00,2.0410
932.00,2.0470
931.00,2.0578
930.00,2.0661
929.00,2.0653
928.00,2.0581
927.00,2.0507
926.00,2.0429
925.00,2.0257
924.00,1.9926
923.00,1.9508
922.00,1.9136
921.00,1.8859
920.00,1.8612
919.00,1.8317
918.00,1.7966
917.00,1.7588
916.00,1.7204
915.00,1.6820
914.00,1.6474
913.00,1.6221
912.00,1.6085
911.00,1.6034
910.00,1.5988
909.00,1.5878
908.00,1.5681
907.00,1.5409
906.00,1.5072
905.00,1.4655
904.00,1.4137
903.00,1.3520
902.00,1.2828
901.00,1.2106
900.00,1.1400
899.00,1.0742
898.00,1.0146
897.00,0.9611
896.00,0.9133
895.00,0.8710
894.00,0.8342
893.00,0.8029
892.00,0.7767
891.00,0.7550
890.00,0.7370
889.00,0.7223
888.00,0.7110
887.00,0.7035
886.00,0.6996
885.00,0.6989
884.00,0.7015
883.00,0.7086
882.00,0.7215
881.00,0.7407
880.00,0.7656
879.00,0.7959
878.00,0.8312
877.00,0.8713
876.00,0.9152
875.00,0.9609
874.00,1.0061
873.00,1.0484
872.00,1.0860
871.00,1.1169
870.00,1.1394
869.00,1.1529
868.00,1.1589
867.00,1.1600
866.00,1.1578
865.00,1.1521
864.00,1.1422
863.00,1.1290
862.00,1.1140
861.00,1.0981
860.00,1.0818
859.00,1.0660
858.00,1.0521
857.00,1.0405
856.00,1.0309
855.00,1.0225
854.00,1.0149
853.00,1.0078
852.00,1.0013
851.00,0.9958
850.00,0.9924
849.00,0.9919
848.00,0.9935
847.00,0.9958
846.00,0.9983
845.00,1.0025
844.00,1.0109
843.00,1.0245
842.00,1.0419
841.00,1.0601
840.00,1.0773
839.00,1.0927
838.00,1.1047
837.00,1.1108
836.00,1.1102
835.00,1.1054
834.00,1.0999
833.00,1.0948
832.00,1.0894
831.00,1.0834
830.00,1.0774
829.00,1.0728
828.00,1.0704
827.00,1.0697
826.00,1.0688
825.00,1.0640
824.00,1.0513
823.00,1.0286
822.00,0.9963
821.00,0.9569
820.00,0.9151
819.00,0.8752
818.00,0.8393
817.00,0.8069
816.00,0.7766
815.00,0.7477
814.00,0.7203
813.00,0.6944
812.00,0.6700
811.00,0.6475
810.00,0.6275
809.00,0.6096
808.00,0.5929
807.00,0.5765
806.00,0.5602
805.00,0.5439
804.00,0.5275
803.00,0.5112
802.00,0.4950
801.00,0.4794
800.00,0.4647
799.00,0.4513
798.00,0.4395
797.00,0.4291
796.00,0.4197
795.00,0.4111
794.00,0.4033
793.00,0.3962
792.00,0.3895
791.00,0.3831
790.00,0.3768
789.00,0.3708
788.00,0.3654
787.00,0.3607
786.00,0.3568
785.00,0.3532
784.00,0.3497
783.00,0.3464
782.00,0.3436
781.00,0.3418
780.00,0.3408
779.00,0.3407
778.00,0.3411
777.00,0.3417
776.00,0.3422
775.00,0.3426
774.00,0.3431
773.00,0.3435
772.00,0.3437
771.00,0.3436
770.00,0.3434
769.00,0.3436
768.00,0.3447
767.00,0.3467
766.00,0.3495
765.00,0.3526
764.00,0.3562
763.00,0.3606
762.00,0.3657
761.00,0.3715
760.00,0.3782
759.00,0.3861
758.00,0.3947
757.00,0.4034
756.00,0.4108
755.00,0.4165
754.00,0.4206
753.00,0.4237
752.00,0.4261
751.00,0.4284
750.00,0.4305
749.00,0.4316
748.00,0.4312
747.00,0.4290
746.00,0.4256
745.00,0.4225
744.00,0.4207
743.00,0.4209
742.00,0.4229
741.00,0.4264
740.00,0.4308
739.00,0.4357
738.00,0.4409
737.00,0.4459
736.00,0.4504
735.00,0.4541
734.00,0.4568
733.00,0.4586
732.00,0.4598
731.00,0.4605
730.00,0.4603
729.00,0.4587
728.00,0.4554
727.00,0.4506
726.00,0.4444
725.00,0.4366
724.00,0.4270
723.00,0.4159
722.00,0.4041
721.00,0.3925
720.00,0.3819
719.00,0.3724
718.00,0.3642
717.00,0.3572
716.00,0.3519
715.00,0.3482
714.00,0.3457
713.00,0.3437
712.00,0.3420
711.00,0.3410
710.00,0.3408
709.00,0.3415
708.00,0.3425
707.00,0.3436
706.00,0.3445
705.00,0.3452
704.00,0.3459
703.00,0.3466
702.00,0.3471
701.00,0.3471
700.00,0.3465
699.00,0.3454
698.00,0.3439
697.00,0.3422
696.00,0.3405
695.00,0.3391
694.00,0.3383
693.00,0.3379
692.00,0.3374
691.00,0.3365
690.00,0.3351
689.00,0.3336
688.00,0.3324
687.00,0.3319
686.00,0.3320
685.00,0.3324
684.00,0.3334
683.00,0.3352
682.00,0.3374
681.00,0.3399
680.00,0.3423
679.00,0.3452
678.00,0.3489
677.00,0.3538
676.00,0.3599
675.00,0.3666
674.00,0.3738
673.00,0.3809
672.00,0.3874
671.00,0.3923
670.00,0.3959
669.00,0.4002
668.00,0.4064
667.00,0.4132
666.00,0.4200
665.00,0.4261
664.00,0.4301
663.00,0.4323
662.00,0.4333
661.00,0.4339
660.00,0.4340
659.00,0.4338
658.00,0.4334
657.00,0.4330
656.00,0.4327
655.00,0.4325
654.00,0.4322
653.00,0.4319
652.00,0.4316
651.00,0.4316
650.00,0.4324
649.00,0.4338
648.00,0.4359
647.00,0.4386
646.00,0.4421
645.00,0.4460
644.00,0.4500
643.00,0.4539
642.00,0.4575
641.00,0.4606
640.00,0.4627
639.00,0.4633
638.00,0.4625
637.00,0.4610
636.00,0.4592
635.00,0.4576
634.00,0.4565
633.00,0.4564
632.00,0.4573
631.00,0.4586
630.00,0.4598
629.00,0.4607
628.00,0.4622
627.00,0.4648
626.00,0.4686
625.00,0.4731
624.00,0.4778
623.00,0.4823
622.00,0.4866
621.00,0.4906
620.00,0.4943
619.00,0.4977
618.00,0.5009
617.00,0.5043
616.00,0.5081
615.00,0.5123
614.00,0.5161
613.00,0.5191
612.00,0.5212
611.00,0.5223
610.00,0.5225
609.00,0.5222
608.00,0.5220
607.00,0.5227
606.00,0.5250
605.00,0.5291
604.00,0.5344
603.00,0.5398
602.00,0.5443
601.00,0.5485
600.00,0.5536
599.00,0.5601
598.00,0.5676
597.00,0.5763
596.00,0.5864
595.00,0.5973
594.00,0.6076
593.00,0.6166
592.00,0.6254
591.00,0.6353
590.00,0.6461
589.00,0.6564
588.00,0.6662
587.00,0.6767
586.00,0.6879
585.00,0.6984
584.00,0.7067
583.00,0.7133
582.00,0.7194
581.00,0.7249
580.00,0.7287
579.00,0.7297
578.00,0.7283
577.00,0.7263
576.00,0.7249
575.00,0.7246
574.00,0.7255
573.00,0.7269
572.00,0.7274
571.00,0.7258
570.00,0.7228
569.00,0.7202
568.00,0.7200
567.00,0.7227
566.00,0.7277
565.00,0.7333
564.00,0.7372
563.00,0.7378
562.00,0.7357
561.00,0.7333
560.00,0.7324
559.00,0.7333
558.00,0.7357
557.00,0.7390
556.00,0.7431
555.00,0.7479
554.00,0.7534
553.00,0.7598
552.00,0.7664
551.00,0.7721
550.00,0.7752
