Created as New Dataset,
cm-1,A
4000.00,0.3451
3999.00,0.3449
3998.00,0.3447
3997.00,0.3445
3996.00,0.3442
3995.00,0.3440
3994.00,0.3437
3993.00,0.3435
3992.00,0.3432
3991.00,0.3429
3990.00,0.3425
3989.00,0.3421
3988.00,0.3416
3987.00,0.3411
3986.00,0.3406
3985.00,0.3401
3984.00,0.3397
3983.00,0.3392
3982.00,0.3388
3981.00,0.3384
3980.00,0.3380
3979.00,0.3376
3978.00,0.3372
3977.00,0.3369
3976.00,0.3365
3975.00,0.3361
3974.00,0.3357
3973.00,0.3354
3972.00,0.3352
3971.00,0.3349
3970.00,0.3347
3969.00,0.3345
3968.00,0.3342
3967.00,0.3340
3966.00,0.3337
3965.00,0.3335
3964.00,0.3333
3963.00,0.3332
3962.00,0.3331
3961.00,0.3329
3960.00,0.3327
3959.00,0.3325
3958.00,0.3323
3957.00,0.3321
3956.00,0.3320
3955.00,0.3318
3954.00,0.3316
3953.00,0.3314
3952.00,0.3312
3951.00,0.3310
3950.00,0.3308
3949.00,0.3306
3948.00,0.3304
3947.00,0.3302
3946.00,0.3300
3945.00,0.3297
3944.00,0.3295
3943.00,0.3293
3942.00,0.3291
3941.00,0.3290
3940.00,0.3289
3939.00,0.3287
3938.00,0.3286
3937.00,0.3284
3936.00,0.3284
3935.00,0.3283
3934.00,0.3283
3933.00,0.3283
3932.00,0.3283
3931.00,0.3283
3930.00,0.3284
3929.00,0.3284
3928.00,0.3284
3927.00,0.3285
3926.00,0.3285
3925.00,0.3285
3924.00,0.3285
3923.00,0.3285
3922.00,0.3284
3921.00,0.3284
3920.00,0.3284
3919.00,0.3283
3918.00,0.3283
3917.00,0.3282
3916.00,0.3280
3915.00,0.3279
3914.00,0.3278
3913.00,0.3276
3912.00,0.3275
3911.00,0.3274
3910.00,0.3273
3909.00,0.3272
3908.00,0.3270
3907.00,0.3269
3906.00,0.3268
3905.00,0.3268
3904.00,0.3267
3903.00,0.3266
3902.00,0.3266
3901.00,0.3267
3900.00,0.3267
3899.00,0.3267
3898.00,0.3267
3897.00,0.3267
3896.00,0.3266
3895.00,0.3265
3894.00,0.3264
3893.00,0.3263
3892.00,0.3263
3891.00,0.3262
3890.00,0.3261
3889.00,0.3260
3888.00,0.3259
3887.00,0.3258
3886.00,0.3257
3885.00,0.3256
3884.00,0.3255
3883.00,0.3255
3882.00,0.3254
3881.00,0.3254
3880.00,0.3252
3879.00,0.3251
3878.00,0.3250
3877.00,0.3249
3876.00,0.3247
3875.00,0.3246
3874.00,0.3245
3873.00,0.3243
3872.00,0.3242
3871.00,0.3241
3870.00,0.3239
3869.00,0.3238
3868.00,0.3237
3867.00,0.3237
3866.00,0.3236
3865.00,0.3234
3864.00,0.3233
3863.00,0.3232
3862.00,0.3231
3861.00,0.3229
3860.00,0.3228
3859.00,0.3226
3858.00,0.3224
3857.00,0.3223
3856.00,0.3222
3855.00,0.3221
3854.00,0.3221
3853.00,0.3221
3852.00,0.3220
3851.00,0.3221
3850.00,0.3221
3849.00,0.3220
3848.00,0.3220
3847.00,0.3219
3846.00,0.3219
3845.00,0.3218
3844.00,0.3217
3843.00,0.3216
3842.00,0.3214
3841.00,0.3213
3840.00,0.3212
3839.00,0.3210
3838.00,0.3209
3837.00,0.3207
3836.00,0.3207
3835.00,0.3206
3834.00,0.3206
3833.00,0.3205
3832.00,0.3204
3831.00,0.3202
3830.00,0.3201
3829.00,0.3201
3828.00,0.3201
3827.00,0.3201
3826.00,0.3201
3825.00,0.3200
3824.00,0.3200
3823.00,0.3200
3822.00,0.3199
3821.00,0.3198
3820.00,0.3196
3819.00,0.3195
3818.00,0.3194
3817.00,0.3193
3816.00,0.3190
3815.00,0.3188
3814.00,0.3186
3813.00,0.3184
3812.00,0.3182
3811.00,0.3180
3810.00,0.3177
3809.00,0.3174
3808.00,0.3172
3807.00,0.3170
3806.00,0.3168
3805.00,0.3166
3804.00,0.3165
3803.00,0.3164
3802.00,0.3162
3801.00,0.3160
3800.00,0.3158
3799.00,0.3157
3798.00,0.3157
3797.00,0.3156
3796.00,0.3156
3795.00,0.3155
3794.00,0.3154
3793.00,0.3152
3792.00,0.3150
3791.00,0.3148
3790.00,0.3146
3789.00,0.3144
3788.00,0.3142
3787.00,0.3141
3786.00,0.3140
3785.00,0.3139
3784.00,0.3138
3783.00,0.3137
3782.00,0.3136
3781.00,0.3134
3780.00,0.3132
3779.00,0.3130
3778.00,0.3127
3777.00,0.3125
3776.00,0.3123
3775.00,0.3121
3774.00,0.3119
3773.00,0.3117
3772.00,0.3116
3771.00,0.3114
3770.00,0.3112
3769.00,0.3111
3768.00,0.3109
3767.00,0.3108
3766.00,0.3107
3765.00,0.3106
3764.00,0.3106
3763.00,0.3105
3762.00,0.3104
3761.00,0.3103
3760.00,0.3102
3759.00,0.3100
3758.00,0.3098
3757.00,0.3097
3756.00,0.3095
3755.00,0.3094
3754.00,0.3092
3753.00,0.3091
3752.00,0.3090
3751.00,0.3088
3750.00,0.3086
3749.00,0.3084
3748.00,0.3082
3747.00,0.3081
3746.00,0.3081
3745.00,0.3080
3744.00,0.3079
3743.00,0.3077
3742.00,0.3076
3741.00,0.3074
3740.00,0.3073
3739.00,0.3071
3738.00,0.3070
3737.00,0.3069
3736.00,0.3067
3735.00,0.3066
3734.00,0.3065
3733.00,0.3064
3732.00,0.3063
3731.00,0.3062
3730.00,0.3061
3729.00,0.3060
3728.00,0.3058
3727.00,0.3056
3726.00,0.3055
3725.00,0.3053
3724.00,0.3052
3723.00,0.3052
3722.00,0.3051
3721.00,0.3050
3720.00,0.3050
3719.00,0.3049
3718.00,0.3048
3717.00,0.3047
3716.00,0.3046
3715.00,0.3045
3714.00,0.3044
3713.00,0.3044
3712.00,0.3043
3711.00,0.3042
3710.00,0.3042
3709.00,0.3042
3708.00,0.3042
3707.00,0.3042
3706.00,0.3041
3705.00,0.3041
3704.00,0.3041
3703.00,0.3041
3702.00,0.3041
3701.00,0.3041
3700.00,0.3040
3699.00,0.3040
3698.00,0.3040
3697.00,0.3040
3696.00,0.3041
3695.00,0.3042
3694.00,0.3042
3693.00,0.3042
3692.00,0.3041
3691.00,0.3041
3690.00,0.3042
3689.00,0.3043
3688.00,0.3045
3687.00,0.3046
3686.00,0.3047
3685.00,0.3047
3684.00,0.3047
3683.00,0.3047
3682.00,0.3046
3681.00,0.3045
3680.00,0.3044
3679.00,0.3043
3678.00,0.3043
3677.00,0.3043
3676.00,0.3043
3675.00,0.3043
3674.00,0.3043
3673.00,0.3044
3672.00,0.3045
3671.00,0.3047
3670.00,0.3049
3669.00,0.3051
3668.00,0.3053
3667.00,0.3055
3666.00,0.3058
3665.00,0.3062
3664.00,0.3068
3663.00,0.3075
3662.00,0.3083
3661.00,0.3093
3660.00,0.3104
3659.00,0.3119
3658.00,0.3138
3657.00,0.3162
3656.00,0.3190
3655.00,0.3218
3654.00,0.3246
3653.00,0.3271
3652.00,0.3294
3651.00,0.3314
3650.00,0.3327
3649.00,0.3331
3648.00,0.3328
3647.00,0.3318
3646.00,0.3302
3645.00,0.3284
3644.00,0.3265
3643.00,0.3244
3642.00,0.3224
3641.00,0.3206
3640.00,0.3190
3639.00,0.3176
3638.00,0.3165
3637.00,0.3155
3636.00,0.3147
3635.00,0.3140
3634.00,0.3134
3633.00,0.3129
3632.00,0.3124
3631.00,0.3121
3630.00,0.3118
3629.00,0.3116
3628.00,0.3115
3627.00,0.3115
3626.00,0.3116
3625.00,0.3116
3624.00,0.3116
3623.00,0.3115
3622.00,0.3113
3621.00,0.3110
3620.00,0.3107
3619.00,0.3103
3618.00,0.3099
3617.00,0.3096
3616.00,0.3092
3615.00,0.3090
3614.00,0.3088
3613.00,0.3087
3612.00,0.3086
3611.00,0.3086
3610.00,0.3086
3609.00,0.3085
3608.00,0.3085
3607.00,0.3084
3606.00,0.3082
3605.00,0.3079
3604.00,0.3075
3603.00,0.3069
3602.00,0.3063
3601.00,0.3056
3600.00,0.3048
3599.00,0.3039
3598.00,0.3030
3597.00,0.3021
3596.00,0.3013
3595.00,0.3005
3594.00,0.2998
3593.00,0.2991
3592.00,0.2985
3591.00,0.2979
3590.00,0.2974
3589.00,0.2969
3588.00,0.2966
3587.00,0.2963
3586.00,0.2961
3585.00,0.2959
3584.00,0.2957
3583.00,0.2956
3582.00,0.2955
3581.00,0.2954
3580.00,0.2953
3579.00,0.2951
3578.00,0.2950
3577.00,0.2948
3576.00,0.2947
3575.00,0.2946
3574.00,0.2946
3573.00,0.2945
3572.00,0.2944
3571.00,0.2944
3570.00,0.2943
3569.00,0.2943
3568.00,0.2943
3567.00,0.2944
3566.00,0.2944
3565.00,0.2944
3564.00,0.2944
3563.00,0.2944
3562.00,0.2944
3561.00,0.2945
3560.00,0.2945
3559.00,0.2945
3558.00,0.2946
3557.00,0.2946
3556.00,0.2947
3555.00,0.2949
3554.00,0.2951
3553.00,0.2952
3552.00,0.2954
3551.00,0.2957
3550.00,0.2959
3549.00,0.2962
3548.00,0.2964
3547.00,0.2967
3546.00,0.2970
3545.00,0.2972
3544.00,0.2975
3543.00,0.2977
3542.00,0.2979
3541.00,0.2982
3540.00,0.2984
3539.00,0.2985
3538.00,0.2987
3537.00,0.2989
3536.00,0.2992
3535.00,0.2994
3534.00,0.2997
3533.00,0.2999
3532.00,0.3002
3531.00,0.3004
3530.00,0.3007
3529.00,0.3009
3528.00,0.3012
3527.00,0.3014
3526.00,0.3016
3525.00,0.3019
3524.00,0.3022
3523.00,0.3025
3522.00,0.3028
3521.00,0.3032
3520.00,0.3035
3519.00,0.3038
3518.00,0.3040
3517.00,0.3043
3516.00,0.3047
3515.00,0.3051
3514.00,0.3055
3513.00,0.3059
3512.00,0.3063
3511.00,0.3067
3510.00,0.3071
3509.00,0.3075
3508.00,0.3079
3507.00,0.3083
3506.00,0.3088
3505.00,0.3092
3504.00,0.3096
3503.00,0.3101
3502.00,0.3105
3501.00,0.3110
3500.00,0.3115
3499.00,0.3120
3498.00,0.3125
3497.00,0.3130
3496.00,0.3135
3495.00,0.3141
3494.00,0.3147
3493.00,0.3152
3492.00,0.3158
3491.00,0.3164
3490.00,0.3170
3489.00,0.3177
3488.00,0.3183
3487.00,0.3189
3486.00,0.3195
3485.00,0.3201
3484.00,0.3207
3483.00,0.3212
3482.00,0.3217
3481.00,0.3222
3480.00,0.3228
3479.00,0.3233
3478.00,0.3238
3477.00,0.3243
3476.00,0.3248
3475.00,0.3252
3474.00,0.3257
3473.00,0.3262
3472.00,0.3268
3471.00,0.3274
3470.00,0.3279
3469.00,0.3284
3468.00,0.3290
3467.00,0.3296
3466.00,0.3302
3465.00,0.3308
3464.00,0.3314
3463.00,0.3320
3462.00,0.3325
3461.00,0.3332
3460.00,0.3338
3459.00,0.3346
3458.00,0.3353
3457.00,0.3360
3456.00,0.3367
3455.00,0.3375
3454.00,0.3383
3453.00,0.3391
3452.00,0.3400
3451.00,0.3409
3450.00,0.3419
3449.00,0.3429
3448.00,0.3439
3447.00,0.3451
3446.00,0.3463
3445.00,0.3476
3444.00,0.3489
3443.00,0.3503
3442.00,0.3517
3441.00,0.3531
3440.00,0.3544
3439.00,0.3556
3438.00,0.3568
3437.00,0.3578
3436.00,0.3587
3435.00,0.3595
3434.00,0.3603
3433.00,0.3610
3432.00,0.3616
3431.00,0.3623
3430.00,0.3629
3429.00,0.3636
3428.00,0.3642
3427.00,0.3648
3426.00,0.3654
3425.00,0.3661
3424.00,0.3668
3423.00,0.3675
3422.00,0.3682
3421.00,0.3689
3420.00,0.3697
3419.00,0.3705
3418.00,0.3714
3417.00,0.3723
3416.00,0.3733
3415.00,0.3742
3414.00,0.3751
3413.00,0.3760
3412.00,0.3770
3411.00,0.3780
3410.00,0.3791
3409.00,0.3802
3408.00,0.3814
3407.00,0.3826
3406.00,0.3837
3405.00,0.3848
3404.00,0.3860
3403.00,0.3871
3402.00,0.3883
3401.00,0.3895
3400.00,0.3906
3399.00,0.3917
3398.00,0.3928
3397.00,0.3940
3396.00,0.3952
3395.00,0.3964
3394.00,0.3976
3393.00,0.3987
3392.00,0.3998
3391.00,0.4010
3390.00,0.4022
3389.00,0.4034
3388.00,0.4046
3387.00,0.4058
3386.00,0.4070
3385.00,0.4082
3384.00,0.4095
3383.00,0.4108
3382.00,0.4122
3381.00,0.4135
3380.00,0.4149
3379.00,0.4162
3378.00,0.4175
3377.00,0.4189
3376.00,0.4204
3375.00,0.4219
3374.00,0.4235
3373.00,0.4251
3372.00,0.4267
3371.00,0.4282
3370.00,0.4298
3369.00,0.4313
3368.00,0.4329
3367.00,0.4345
3366.00,0.4362
3365.00,0.4378
3364.00,0.4396
3363.00,0.4414
3362.00,0.4432
3361.00,0.4450
3360.00,0.4468
3359.00,0.4487
3358.00,0.4505
3357.00,0.4524
3356.00,0.4542
3355.00,0.4560
3354.00,0.4577
3353.00,0.4595
3352.00,0.4612
3351.00,0.4629
3350.00,0.4646
3349.00,0.4663
3348.00,0.4679
3347.00,0.4695
3346.00,0.4710
3345.00,0.4725
3344.00,0.4740
3343.00,0.4753
3342.00,0.4767
3341.00,0.4780
3340.00,0.4792
3339.00,0.4803
3338.00,0.4814
3337.00,0.4823
3336.00,0.4832
3335.00,0.4840
3334.00,0.4847
3333.00,0.4853
3332.00,0.4857
3331.00,0.4859
3330.00,0.4860
3329.00,0.4861
3328.00,0.4862
3327.00,0.4862
3326.00,0.4861
3325.00,0.4859
3324.00,0.4855
3323.00,0.4851
3322.00,0.4846
3321.00,0.4841
3320.00,0.4835
3319.00,0.4829
3318.00,0.4823
3317.00,0.4815
3316.00,0.4807
3315.00,0.4799
3314.00,0.4791
3313.00,0.4782
3312.00,0.4774
3311.00,0.4765
3310.00,0.4755
3309.00,0.4745
3308.00,0.4736
3307.00,0.4727
3306.00,0.4718
3305.00,0.4709
3304.00,0.4701
3303.00,0.4692
3302.00,0.4683
3301.00,0.4675
3300.00,0.4666
3299.00,0.4658
3298.00,0.4651
3297.00,0.4645
3296.00,0.4638
3295.00,0.4632
3294.00,0.4626
3293.00,0.4620
3292.00,0.4615
3291.00,0.4611
3290.00,0.4607
3289.00,0.4604
3288.00,0.4602
3287.00,0.4600
3286.00,0.4599
3285.00,0.4598
3284.00,0.4597
3283.00,0.4597
3282.00,0.4596
3281.00,0.4597
3280.00,0.4598
3279.00,0.4598
3278.00,0.4599
3277.00,0.4600
3276.00,0.4602
3275.00,0.4605
3274.00,0.4608
3273.00,0.4611
3272.00,0.4615
3271.00,0.4619
3270.00,0.4623
3269.00,0.4627
3268.00,0.4630
3267.00,0.4634
3266.00,0.4638
3265.00,0.4643
3264.00,0.4648
3263.00,0.4652
3262.00,0.4656
3261.00,0.4660
3260.00,0.4664
3259.00,0.4667
3258.00,0.4672
3257.00,0.4676
3256.00,0.4681
3255.00,0.4684
3254.00,0.4687
3253.00,0.4690
3252.00,0.4693
3251.00,0.4696
3250.00,0.4699
3249.00,0.4702
3248.00,0.4704
3247.00,0.4707
3246.00,0.4709
3245.00,0.4712
3244.00,0.4713
3243.00,0.4714
3242.00,0.4714
3241.00,0.4714
3240.00,0.4714
3239.00,0.4714
3238.00,0.4714
3237.00,0.4713
3236.00,0.4712
3235.00,0.4711
3234.00,0.4710
3233.00,0.4708
3232.00,0.4705
3231.00,0.4702
3230.00,0.4699
3229.00,0.4696
3228.00,0.4692
3227.00,0.4689
3226.00,0.4686
3225.00,0.4682
3224.00,0.4678
3223.00,0.4673
3222.00,0.4669
3221.00,0.4665
3220.00,0.4661
3219.00,0.4657
3218.00,0.4652
3217.00,0.4648
3216.00,0.4644
3215.00,0.4640
3214.00,0.4635
3213.00,0.4631
3212.00,0.4626
3211.00,0.4622
3210.00,0.4618
3209.00,0.4614
3208.00,0.4610
3207.00,0.4605
3206.00,0.4600
3205.00,0.4596
3204.00,0.4591
3203.00,0.4586
3202.00,0.4582
3201.00,0.4578
3200.00,0.4573
3199.00,0.4568
3198.00,0.4563
3197.00,0.4557
3196.00,0.4551
3195.00,0.4545
3194.00,0.4539
3193.00,0.4533
3192.00,0.4528
3191.00,0.4522
3190.00,0.4516
3189.00,0.4510
3188.00,0.4504
3187.00,0.4497
3186.00,0.4490
3185.00,0.4483
3184.00,0.4476
3183.00,0.4469
3182.00,0.4461
3181.00,0.4454
3180.00,0.4447
3179.00,0.4440
3178.00,0.4432
3177.00,0.4425
3176.00,0.4417
3175.00,0.4409
3174.00,0.4401
3173.00,0.4393
3172.00,0.4385
3171.00,0.4376
3170.00,0.4368
3169.00,0.4359
3168.00,0.4351
3167.00,0.4342
3166.00,0.4334
3165.00,0.4326
3164.00,0.4318
3163.00,0.4309
3162.00,0.4301
3161.00,0.4293
3160.00,0.4285
3159.00,0.4278
3158.00,0.4270
3157.00,0.4262
3156.00,0.4254
3155.00,0.4247
3154.00,0.4239
3153.00,0.4232
3152.00,0.4225
3151.00,0.4218
3150.00,0.4211
3149.00,0.4204
3148.00,0.4198
3147.00,0.4192
3146.00,0.4186
3145.00,0.4181
3144.00,0.4176
3143.00,0.4171
3142.00,0.4165
3141.00,0.4160
3140.00,0.4156
3139.00,0.4152
3138.00,0.4148
3137.00,0.4144
3136.00,0.4140
3135.00,0.4137
3134.00,0.4133
3133.00,0.4130
3132.00,0.4127
3131.00,0.4124
3130.00,0.4122
3129.00,0.4120
3128.00,0.4118
3127.00,0.4117
3126.00,0.4116
3125.00,0.4115
3124.00,0.4115
3123.00,0.4116
3122.00,0.4117
3121.00,0.4118
3120.00,0.4119
3119.00,0.4120
3118.00,0.4122
3117.00,0.4124
3116.00,0.4127
3115.00,0.4131
3114.00,0.4134
3113.00,0.4139
3112.00,0.4144
3111.00,0.4150
3110.00,0.4156
3109.00,0.4163
3108.00,0.4170
3107.00,0.4179
3106.00,0.4187
3105.00,0.4196
3104.00,0.4205
3103.00,0.4215
3102.00,0.4224
3101.00,0.4233
3100.00,0.4243
3099.00,0.4253
3098.00,0.4264
3097.00,0.4275
3096.00,0.4287
3095.00,0.4299
3094.00,0.4312
3093.00,0.4325
3092.00,0.4339
3091.00,0.4355
3090.00,0.4372
3089.00,0.4390
3088.00,0.4409
3087.00,0.4429
3086.00,0.4450
3085.00,0.4472
3084.00,0.4495
3083.00,0.4520
3082.00,0.4546
3081.00,0.4573
3080.00,0.4602
3079.00,0.4633
3078.00,0.4665
3077.00,0.4699
3076.00,0.4734
3075.00,0.4770
3074.00,0.4807
3073.00,0.4844
3072.00,0.4881
3071.00,0.4919
3070.00,0.4956
3069.00,0.4995
3068.00,0.5034
3067.00,0.5072
3066.00,0.5110
3065.00,0.5147
3064.00,0.5182
3063.00,0.5217
3062.00,0.5251
3061.00,0.5284
3060.00,0.5316
3059.00,0.5346
3058.00,0.5376
3057.00,0.5407
3056.00,0.5438
3055.00,0.5470
3054.00,0.5503
3053.00,0.5536
3052.00,0.5570
3051.00,0.5604
3050.00,0.5640
3049.00,0.5678
3048.00,0.5717
3047.00,0.5757
3046.00,0.5798
3045.00,0.5839
3044.00,0.5881
3043.00,0.5924
3042.00,0.5968
3041.00,0.6014
3040.00,0.6061
3039.00,0.6109
3038.00,0.6160
3037.00,0.6212
3036.00,0.6268
3035.00,0.6326
3034.00,0.6387
3033.00,0.6451
3032.00,0.6518
3031.00,0.6587
3030.00,0.6659
3029.00,0.6733
3028.00,0.6809
3027.00,0.6888
3026.00,0.6970
3025.00,0.7054
3024.00,0.7142
3023.00,0.7232
3022.00,0.7326
3021.00,0.7421
3020.00,0.7519
3019.00,0.7618
3018.00,0.7720
3017.00,0.7826
3016.00,0.7935
3015.00,0.8049
3014.00,0.8166
3013.00,0.8289
3012.00,0.8417
3011.00,0.8551
3010.00,0.8692
3009.00,0.8841
3008.00,0.8998
3007.00,0.9164
3006.00,0.9338
3005.00,0.9517
3004.00,0.9702
3003.00,0.9893
3002.00,1.0092
3001.00,1.0299
3000.00,1.0516
2999.00,1.0745
2998.00,1.0990
2997.00,1.1255
2996.00,1.1544
2995.00,1.1859
2994.00,1.2205
2993.00,1.2583
2992.00,1.2997
2991.00,1.3450
2990.00,1.3951
2989.00,1.4507
2988.00,1.5124
2987.00,1.5807
2986.00,1.6561
2985.00,1.7391
2984.00,1.8305
2983.00,1.9318
2982.00,2.0444
2981.00,2.1683
2980.00,2.3024
2979.00,2.4459
2978.00,2.5995
2977.00,2.7636
2976.00,2.9413
2975.00,3.1394
2974.00,3.3756
2973.00,3.6572
2972.00,4.0345
2971.00,4.5395
2970.00,4.3275
2969.00,4.0863
2968.00,3.9657
2967.00,4.0665
2966.00,4.2669
2965.00,4.5033
2964.00,4.4825
2963.00,4.1371
2962.00,3.9294
2961.00,3.8536
2960.00,3.8795
2959.00,4.0076
2958.00,4.1584
2957.00,4.1852
2956.00,4.1789
2955.00,4.2483
2954.00,4.3654
2953.00,4.3453
2952.00,4.2641
2951.00,4.1846
2950.00,4.1032
2949.00,4.0723
2948.00,4.0733
2947.00,4.0068
2946.00,3.9041
2945.00,3.8848
2944.00,4.0338
2943.00,4.2558
2942.00,4.2522
2941.00,4.1954
2940.00,4.2990
2939.00,4.5278
2938.00,4.3156
2937.00,4.0045
2936.00,3.8330
2935.00,3.8027
2934.00,3.9299
2933.00,4.1631
2932.00,4.1817
2931.00,3.9895
2930.00,3.8633
2929.00,3.8714
2928.00,3.9747
2927.00,4.1382
2926.00,4.3116
2925.00,4.2485
2924.00,4.0158
2923.00,3.8450
2922.00,3.8288
2921.00,3.9319
2920.00,3.9593
2919.00,3.9767
2918.00,4.0947
2917.00,4.2304
2916.00,4.1742
2915.00,4.0179
2914.00,4.0005
2913.00,4.0185
2912.00,4.0423
2911.00,4.1362
2910.00,4.2602
2909.00,4.4574
2908.00,4.7840
2907.00,4.7016
2906.00,4.3472
2905.00,4.1328
2904.00,4.0558
2903.00,4.0741
2902.00,4.1457
2901.00,4.2641
2900.00,4.3761
2899.00,4.4202
2898.00,4.3537
2897.00,4.3937
2896.00,4.5866
2895.00,4.5958
2894.00,4.3935
2893.00,4.2179
2892.00,4.1842
2891.00,4.1805
2890.00,4.1047
2889.00,3.9610
2888.00,3.8177
2887.00,3.7505
2886.00,3.7850
2885.00,3.9144
2884.00,4.1655
2883.00,4.4587
2882.00,4.3342
2881.00,4.0626
2880.00,3.9072
2879.00,3.8918
2878.00,3.9809
2877.00,4.1623
2876.00,4.3175
2875.00,4.4565
2874.00,4.6529
2873.00,4.4545
2872.00,4.2123
2871.00,4.0613
2870.00,4.0687
2869.00,4.1854
2868.00,4.3771
2867.00,4.3750
2866.00,4.1646
2865.00,4.0240
2864.00,4.0562
2863.00,4.2657
2862.00,4.4081
2861.00,4.2724
2860.00,4.0796
2859.00,4.0113
2858.00,4.0332
2857.00,4.1301
2856.00,4.3645
2855.00,4.4618
2854.00,4.2637
2853.00,4.0883
2852.00,3.9758
2851.00,3.8945
2850.00,3.8478
2849.00,3.8659
2848.00,3.9578
2847.00,4.0820
2846.00,4.1098
2845.00,3.9929
2844.00,3.8902
2843.00,3.8913
2842.00,4.0242
2841.00,4.2402
2840.00,4.4187
2839.00,4.2123
2838.00,3.7033
2837.00,3.3063
2836.00,3.0171
2835.00,2.7964
2834.00,2.6061
2833.00,2.4323
2832.00,2.2754
2831.00,2.1362
2830.00,2.0140
2829.00,1.9063
2828.00,1.8114
2827.00,1.7278
2826.00,1.6535
2825.00,1.5862
2824.00,1.5243
2823.00,1.4674
2822.00,1.4149
2821.00,1.3666
2820.00,1.3220
2819.00,1.2809
2818.00,1.2428
2817.00,1.2075
2816.00,1.1745
2815.00,1.1437
2814.00,1.1150
2813.00,1.0879
2812.00,1.0623
2811.00,1.0379
2810.00,1.0147
2809.00,0.9923
2808.00,0.9710
2807.00,0.9507
2806.00,0.9314
2805.00,0.9131
2804.00,0.8955
2803.00,0.8787
2802.00,0.8626
2801.00,0.8472
2800.00,0.8325
2799.00,0.8184
2798.00,0.8049
2797.00,0.7918
2796.00,0.7791
2795.00,0.7670
2794.00,0.7553
2793.00,0.7440
2792.00,0.7330
2791.00,0.7223
2790.00,0.7119
2789.00,0.7016
2788.00,0.6914
2787.00,0.6815
2786.00,0.6718
2785.00,0.6624
2784.00,0.6533
2783.00,0.6444
2782.00,0.6359
2781.00,0.6277
2780.00,0.6197
2779.00,0.6120
2778.00,0.6046
2777.00,0.5977
2776.00,0.5910
2775.00,0.5847
2774.00,0.5788
2773.00,0.5734
2772.00,0.5684
2771.00,0.5638
2770.00,0.5596
2769.00,0.5558
2768.00,0.5524
2767.00,0.5492
2766.00,0.5465
2765.00,0.5441
2764.00,0.5420
2763.00,0.5402
2762.00,0.5387
2761.00,0.5373
2760.00,0.5360
2759.00,0.5348
2758.00,0.5337
2757.00,0.5326
2756.00,0.5316
2755.00,0.5307
2754.00,0.5299
2753.00,0.5293
2752.00,0.5290
2751.00,0.5289
2750.00,0.5290
2749.00,0.5294
2748.00,0.5299
2747.00,0.5306
2746.00,0.5314
2745.00,0.5324
2744.00,0.5337
2743.00,0.5353
2742.00,0.5372
2741.00,0.5396
2740.00,0.5423
2739.00,0.5453
2738.00,0.5488
2737.00,0.5527
2736.00,0.5571
2735.00,0.5618
2734.00,0.5667
2733.00,0.5715
2732.00,0.5758
2731.00,0.5794
2730.00,0.5818
2729.00,0.5831
2728.00,0.5832
2727.00,0.5823
2726.00,0.5807
2725.00,0.5786
2724.00,0.5762
2723.00,0.5736
2722.00,0.5709
2721.00,0.5679
2720.00,0.5647
2719.00,0.5614
2718.00,0.5580
2717.00,0.5545
2716.00,0.5506
2715.00,0.5465
2714.00,0.5423
2713.00,0.5381
2712.00,0.5343
2711.00,0.5307
2710.00,0.5276
2709.00,0.5248
2708.00,0.5224
2707.00,0.5203
2706.00,0.5186
2705.00,0.5173
2704.00,0.5162
2703.00,0.5153
2702.00,0.5147
2701.00,0.5143
2700.00,0.5141
2699.00,0.5142
2698.00,0.5146
2697.00,0.5151
2696.00,0.5159
2695.00,0.5168
2694.00,0.5179
2693.00,0.5190
2692.00,0.5203
2691.00,0.5216
2690.00,0.5229
2689.00,0.5242
2688.00,0.5254
2687.00,0.5266
2686.00,0.5275
2685.00,0.5283
2684.00,0.5289
2683.00,0.5294
2682.00,0.5297
2681.00,0.5301
2680.00,0.5303
2679.00,0.5306
2678.00,0.5309
2677.00,0.5312
2676.00,0.5315
2675.00,0.5317
2674.00,0.5320
2673.00,0.5321
2672.00,0.5320
2671.00,0.5317
2670.00,0.5310
2669.00,0.5301
2668.00,0.5288
2667.00,0.5271
2666.00,0.5252
2665.00,0.5231
2664.00,0.5208
2663.00,0.5185
2662.00,0.5162
2661.00,0.5138
2660.00,0.5114
2659.00,0.5090
2658.00,0.5067
2657.00,0.5044
2656.00,0.5021
2655.00,0.4999
2654.00,0.4978
2653.00,0.4958
2652.00,0.4940
2651.00,0.4923
2650.00,0.4906
2649.00,0.4890
2648.00,0.4875
2647.00,0.4859
2646.00,0.4843
2645.00,0.4829
2644.00,0.4815
2643.00,0.4801
2642.00,0.4788
2641.00,0.4776
2640.00,0.4764
2639.00,0.4753
2638.00,0.4742
2637.00,0.4732
2636.00,0.4722
2635.00,0.4713
2634.00,0.4703
2633.00,0.4693
2632.00,0.4684
2631.00,0.4674
2630.00,0.4664
2629.00,0.4654
2628.00,0.4644
2627.00,0.4634
2626.00,0.4624
2625.00,0.4615
2624.00,0.4605
2623.00,0.4595
2622.00,0.4585
2621.00,0.4575
2620.00,0.4564
2619.00,0.4554
2618.00,0.4543
2617.00,0.4533
2616.00,0.4523
2615.00,0.4513
2614.00,0.4503
2613.00,0.4494
2612.00,0.4483
2611.00,0.4473
2610.00,0.4463
2609.00,0.4454
2608.00,0.4445
2607.00,0.4435
2606.00,0.4424
2605.00,0.4414
2604.00,0.4403
2603.00,0.4393
2602.00,0.4382
2601.00,0.4370
2600.00,0.4358
2599.00,0.4344
2598.00,0.4330
2597.00,0.4315
2596.00,0.4300
2595.00,0.4284
2594.00,0.4268
2593.00,0.4251
2592.00,0.4235
2591.00,0.4218
2590.00,0.4202
2589.00,0.4185
2588.00,0.4169
2587.00,0.4153
2586.00,0.4136
2585.00,0.4120
2584.00,0.4103
2583.00,0.4086
2582.00,0.4068
2581.00,0.4051
2580.00,0.4034
2579.00,0.4017
2578.00,0.4000
2577.00,0.3984
2576.00,0.3968
2575.00,0.3951
2574.00,0.3935
2573.00,0.3920
2572.00,0.3906
2571.00,0.3892
2570.00,0.3878
2569.00,0.3864
2568.00,0.3851
2567.00,0.3837
2566.00,0.3824
2565.00,0.3811
2564.00,0.3797
2563.00,0.3783
2562.00,0.3769
2561.00,0.3755
2560.00,0.3742
2559.00,0.3729
2558.00,0.3716
2557.00,0.3704
2556.00,0.3692
2555.00,0.3680
2554.00,0.3669
2553.00,0.3658
2552.00,0.3648
2551.00,0.3637
2550.00,0.3628
2549.00,0.3618
2548.00,0.3610
2547.00,0.3601
2546.00,0.3592
2545.00,0.3584
2544.00,0.3575
2543.00,0.3567
2542.00,0.3559
2541.00,0.3552
2540.00,0.3545
2539.00,0.3538
2538.00,0.3531
2537.00,0.3525
2536.00,0.3518
2535.00,0.3512
2534.00,0.3506
2533.00,0.3499
2532.00,0.3492
2531.00,0.3484
2530.00,0.3476
2529.00,0.3466
2528.00,0.3456
2527.00,0.3446
2526.00,0.3435
2525.00,0.3424
2524.00,0.3412
2523.00,0.3401
2522.00,0.3391
2521.00,0.3380
2520.00,0.3370
2519.00,0.3360
2518.00,0.3351
2517.00,0.3341
2516.00,0.3332
2515.00,0.3323
2514.00,0.3314
2513.00,0.3306
2512.00,0.3299
2511.00,0.3291
2510.00,0.3284
2509.00,0.3278
2508.00,0.3272
2507.00,0.3266
2506.00,0.3261
2505.00,0.3256
2504.00,0.3252
2503.00,0.3248
2502.00,0.3244
2501.00,0.3241
2500.00,0.3238
2499.00,0.3236
2498.00,0.3233
2497.00,0.3231
2496.00,0.3229
2495.00,0.3225
2494.00,0.3222
2493.00,0.3217
2492.00,0.3213
2491.00,0.3208
2490.00,0.3203
2489.00,0.3198
2488.00,0.3193
2487.00,0.3187
2486.00,0.3182
2485.00,0.3176
2484.00,0.3170
2483.00,0.3165
2482.00,0.3160
2481.00,0.3155
2480.00,0.3150
2479.00,0.3145
2478.00,0.3139
2477.00,0.3134
2476.00,0.3129
2475.00,0.3125
2474.00,0.3121
2473.00,0.3118
2472.00,0.3114
2471.00,0.3111
2470.00,0.3108
2469.00,0.3106
2468.00,0.3103
2467.00,0.3101
2466.00,0.3099
2465.00,0.3097
2464.00,0.3095
2463.00,0.3092
2462.00,0.3090
2461.00,0.3088
2460.00,0.3086
2459.00,0.3084
2458.00,0.3082
2457.00,0.3081
2456.00,0.3079
2455.00,0.3078
2454.00,0.3077
2453.00,0.3076
2452.00,0.3074
2451.00,0.3073
2450.00,0.3071
2449.00,0.3070
2448.00,0.3069
2447.00,0.3069
2446.00,0.3068
2445.00,0.3067
2444.00,0.3067
2443.00,0.3067
2442.00,0.3068
2441.00,0.3068
2440.00,0.3069
2439.00,0.3070
2438.00,0.3071
2437.00,0.3073
2436.00,0.3074
2435.00,0.3075
2434.00,0.3076
2433.00,0.3077
2432.00,0.3078
2431.00,0.3079
2430.00,0.3080
2429.00,0.3081
2428.00,0.3083
2427.00,0.3084
2426.00,0.3085
2425.00,0.3086
2424.00,0.3087
2423.00,0.3088
2422.00,0.3089
2421.00,0.3090
2420.00,0.3091
2419.00,0.3092
2418.00,0.3092
2417.00,0.3093
2416.00,0.3093
2415.00,0.3093
2414.00,0.3094
2413.00,0.3094
2412.00,0.3095
2411.00,0.3095
2410.00,0.3096
2409.00,0.3096
2408.00,0.3096
2407.00,0.3097
2406.00,0.3097
2405.00,0.3097
2404.00,0.3097
2403.00,0.3097
2402.00,0.3098
2401.00,0.3099
2400.00,0.3100
2399.00,0.3100
2398.00,0.3100
2397.00,0.3101
2396.00,0.3101
2395.00,0.3101
2394.00,0.3101
2393.00,0.3101
2392.00,0.3101
2391.00,0.3102
2390.00,0.3102
2389.00,0.3103
2388.00,0.3103
2387.00,0.3103
2386.00,0.3103
2385.00,0.3103
2384.00,0.3103
2383.00,0.3103
2382.00,0.3102
2381.00,0.3102
2380.00,0.3102
2379.00,0.3102
2378.00,0.3102
2377.00,0.3103
2376.00,0.3103
2375.00,0.3102
2374.00,0.3100
2373.00,0.3099
2372.00,0.3098
2371.00,0.3098
2370.00,0.3097
2369.00,0.3097
2368.00,0.3096
2367.00,0.3096
2366.00,0.3096
2365.00,0.3097
2364.00,0.3097
2363.00,0.3096
2362.00,0.3095
2361.00,0.3093
2360.00,0.3092
2359.00,0.3090
2358.00,0.3090
2357.00,0.3090
2356.00,0.3090
2355.00,0.3090
2354.00,0.3090
2353.00,0.3090
2352.00,0.3088
2351.00,0.3085
2350.00,0.3082
2349.00,0.3080
2348.00,0.3081
2347.00,0.3083
2346.00,0.3083
2345.00,0.3082
2344.00,0.3079
2343.00,0.3076
2342.00,0.3074
2341.00,0.3072
2340.00,0.3070
2339.00,0.3069
2338.00,0.3068
2337.00,0.3067
2336.00,0.3067
2335.00,0.3066
2334.00,0.3064
2333.00,0.3063
2332.00,0.3060
2331.00,0.3057
2330.00,0.3053
2329.00,0.3050
2328.00,0.3047
2327.00,0.3045
2326.00,0.3043
2325.00,0.3041
2324.00,0.3039
2323.00,0.3037
2322.00,0.3035
2321.00,0.3032
2320.00,0.3029
2319.00,0.3026
2318.00,0.3023
2317.00,0.3020
2316.00,0.3017
2315.00,0.3015
2314.00,0.3012
2313.00,0.3009
2312.00,0.3006
2311.00,0.3002
2310.00,0.2998
2309.00,0.2994
2308.00,0.2990
2307.00,0.2987
2306.00,0.2983
2305.00,0.2980
2304.00,0.2977
2303.00,0.2975
2302.00,0.2973
2301.00,0.2971
2300.00,0.2970
2299.00,0.2968
2298.00,0.2966
2297.00,0.2964
2296.00,0.2962
2295.00,0.2960
2294.00,0.2958
2293.00,0.2956
2292.00,0.2954
2291.00,0.2951
2290.00,0.2947
2289.00,0.2943
2288.00,0.2940
2287.00,0.2936
2286.00,0.2933
2285.00,0.2930
2284.00,0.2926
2283.00,0.2923
2282.00,0.2920
2281.00,0.2916
2280.00,0.2912
2279.00,0.2907
2278.00,0.2903
2277.00,0.2899
2276.00,0.2895
2275.00,0.2892
2274.00,0.2889
2273.00,0.2886
2272.00,0.2884
2271.00,0.2882
2270.00,0.2881
2269.00,0.2879
2268.00,0.2879
2267.00,0.2877
2266.00,0.2876
2265.00,0.2875
2264.00,0.2873
2263.00,0.2872
2262.00,0.2870
2261.00,0.2868
2260.00,0.2866
2259.00,0.2863
2258.00,0.2860
2257.00,0.2857
2256.00,0.2854
2255.00,0.2851
2254.00,0.2848
2253.00,0.2845
2252.00,0.2842
2251.00,0.2839
2250.00,0.2836
2249.00,0.2834
2248.00,0.2832
2247.00,0.2830
2246.00,0.2827
2245.00,0.2824
2244.00,0.2822
2243.00,0.2820
2242.00,0.2817
2241.00,0.2816
2240.00,0.2814
2239.00,0.2812
2238.00,0.2810
2237.00,0.2809
2236.00,0.2808
2235.00,0.2806
2234.00,0.2805
2233.00,0.2804
2232.00,0.2803
2231.00,0.2802
2230.00,0.2802
2229.00,0.2801
2228.00,0.2800
2227.00,0.2799
2226.00,0.2798
2225.00,0.2796
2224.00,0.2795
2223.00,0.2793
2222.00,0.2792
2221.00,0.2791
2220.00,0.2791
2219.00,0.2790
2218.00,0.2789
2217.00,0.2788
2216.00,0.2787
2215.00,0.2786
2214.00,0.2785
2213.00,0.2784
2212.00,0.2783
2211.00,0.2783
2210.00,0.2782
2209.00,0.2782
2208.00,0.2781
2207.00,0.2782
2206.00,0.2782
2205.00,0.2783
2204.00,0.2783
2203.00,0.2784
2202.00,0.2784
2201.00,0.2785
2200.00,0.2785
2199.00,0.2786
2198.00,0.2787
2197.00,0.2788
2196.00,0.2789
2195.00,0.2790
2194.00,0.2790
2193.00,0.2791
2192.00,0.2792
2191.00,0.2792
2190.00,0.2793
2189.00,0.2794
2188.00,0.2795
2187.00,0.2795
2186.00,0.2795
2185.00,0.2794
2184.00,0.2794
2183.00,0.2792
2182.00,0.2791
2181.00,0.2790
2180.00,0.2790
2179.00,0.2789
2178.00,0.2788
2177.00,0.2787
2176.00,0.2786
2175.00,0.2786
2174.00,0.2785
2173.00,0.2784
2172.00,0.2783
2171.00,0.2782
2170.00,0.2782
2169.00,0.2782
2168.00,0.2783
2167.00,0.2783
2166.00,0.2783
2165.00,0.2782
2164.00,0.2782
2163.00,0.2781
2162.00,0.2781
2161.00,0.2780
2160.00,0.2779
2159.00,0.2778
2158.00,0.2777
2157.00,0.2775
2156.00,0.2774
2155.00,0.2772
2154.00,0.2770
2153.00,0.2769
2152.00,0.2767
2151.00,0.2765
2150.00,0.2763
2149.00,0.2760
2148.00,0.2756
2147.00,0.2752
2146.00,0.2747
2145.00,0.2741
2144.00,0.2736
2143.00,0.2730
2142.00,0.2725
2141.00,0.2719
2140.00,0.2714
2139.00,0.2710
2138.00,0.2705
2137.00,0.2702
2136.00,0.2698
2135.00,0.2695
2134.00,0.2693
2133.00,0.2691
2132.00,0.2689
2131.00,0.2688
2130.00,0.2686
2129.00,0.2684
2128.00,0.2683
2127.00,0.2682
2126.00,0.2681
2125.00,0.2680
2124.00,0.2679
2123.00,0.2678
2122.00,0.2677
2121.00,0.2676
2120.00,0.2675
2119.00,0.2673
2118.00,0.2672
2117.00,0.2671
2116.00,0.2670
2115.00,0.2669
2114.00,0.2668
2113.00,0.2666
2112.00,0.2664
2111.00,0.2662
2110.00,0.2660
2109.00,0.2658
2108.00,0.2656
2107.00,0.2655
2106.00,0.2653
2105.00,0.2652
2104.00,0.2652
2103.00,0.2651
2102.00,0.2651
2101.00,0.2651
2100.00,0.2651
2099.00,0.2650
2098.00,0.2649
2097.00,0.2649
2096.00,0.2649
2095.00,0.2649
2094.00,0.2650
2093.00,0.2650
2092.00,0.2650
2091.00,0.2650
2090.00,0.2650
2089.00,0.2650
2088.00,0.2651
2087.00,0.2651
2086.00,0.2651
2085.00,0.2651
2084.00,0.2651
2083.00,0.2651
2082.00,0.2650
2081.00,0.2650
2080.00,0.2650
2079.00,0.2649
2078.00,0.2649
2077.00,0.2648
2076.00,0.2648
2075.00,0.2647
2074.00,0.2646
2073.00,0.2646
2072.00,0.2646
2071.00,0.2647
2070.00,0.2647
2069.00,0.2648
2068.00,0.2650
2067.00,0.2651
2066.00,0.2653
2065.00,0.2655
2064.00,0.2658
2063.00,0.2660
2062.00,0.2663
2061.00,0.2665
2060.00,0.2667
2059.00,0.2668
2058.00,0.2670
2057.00,0.2672
2056.00,0.2675
2055.00,0.2677
2054.00,0.2679
2053.00,0.2681
2052.00,0.2683
2051.00,0.2685
2050.00,0.2687
2049.00,0.2690
2048.00,0.2692
2047.00,0.2695
2046.00,0.2697
2045.00,0.2699
2044.00,0.2701
2043.00,0.2702
2042.00,0.2703
2041.00,0.2705
2040.00,0.2706
2039.00,0.2707
2038.00,0.2707
2037.00,0.2708
2036.00,0.2710
2035.00,0.2710
2034.00,0.2711
2033.00,0.2711
2032.00,0.2712
2031.00,0.2712
2030.00,0.2713
2029.00,0.2714
2028.00,0.2715
2027.00,0.2716
2026.00,0.2716
2025.00,0.2716
2024.00,0.2715
2023.00,0.2714
2022.00,0.2711
2021.00,0.2708
2020.00,0.2704
2019.00,0.2699
2018.00,0.2692
2017.00,0.2686
2016.00,0.2679
2015.00,0.2671
2014.00,0.2664
2013.00,0.2656
2012.00,0.2648
2011.00,0.2641
2010.00,0.2634
2009.00,0.2628
2008.00,0.2623
2007.00,0.2618
2006.00,0.2613
2005.00,0.2609
2004.00,0.2606
2003.00,0.2602
2002.00,0.2599
2001.00,0.2596
2000.00,0.2594
1999.00,0.2592
1998.00,0.2590
1997.00,0.2589
1996.00,0.2588
1995.00,0.2587
1994.00,0.2586
1993.00,0.2585
1992.00,0.2584
1991.00,0.2584
1990.00,0.2584
1989.00,0.2585
1988.00,0.2585
1987.00,0.2584
1986.00,0.2583
1985.00,0.2583
1984.00,0.2583
1983.00,0.2583
1982.00,0.2583
1981.00,0.2583
1980.00,0.2583
1979.00,0.2583
1978.00,0.2582
1977.00,0.2582
1976.00,0.2581
1975.00,0.2581
1974.00,0.2580
1973.00,0.2580
1972.00,0.2580
1971.00,0.2580
1970.00,0.2579
1969.00,0.2578
1968.00,0.2578
1967.00,0.2578
1966.00,0.2578
1965.00,0.2579
1964.00,0.2579
1963.00,0.2579
1962.00,0.2579
1961.00,0.2580
1960.00,0.2581
1959.00,0.2582
1958.00,0.2583
1957.00,0.2584
1956.00,0.2586
1955.00,0.2588
1954.00,0.2589
1953.00,0.2591
1952.00,0.2593
1951.00,0.2595
1950.00,0.2596
1949.00,0.2598
1948.00,0.2600
1947.00,0.2602
1946.00,0.2603
1945.00,0.2606
1944.00,0.2608
1943.00,0.2612
1942.00,0.2617
1941.00,0.2622
1940.00,0.2626
1939.00,0.2629
1938.00,0.2630
1937.00,0.2631
1936.00,0.2631
1935.00,0.2631
1934.00,0.2630
1933.00,0.2630
1932.00,0.2630
1931.00,0.2630
1930.00,0.2630
1929.00,0.2630
1928.00,0.2629
1927.00,0.2629
1926.00,0.2629
1925.00,0.2629
1924.00,0.2629
1923.00,0.2631
1922.00,0.2633
1921.00,0.2637
1920.00,0.2640
1919.00,0.2642
1918.00,0.2644
1917.00,0.2648
1916.00,0.2652
1915.00,0.2654
1914.00,0.2655
1913.00,0.2656
1912.00,0.2657
1911.00,0.2658
1910.00,0.2659
1909.00,0.2661
1908.00,0.2663
1907.00,0.2664
1906.00,0.2665
1905.00,0.2665
1904.00,0.2665
1903.00,0.2665
1902.00,0.2665
1901.00,0.2665
1900.00,0.2665
1899.00,0.2664
1898.00,0.2664
1897.00,0.2664
1896.00,0.2664
1895.00,0.2664
1894.00,0.2665
1893.00,0.2665
1892.00,0.2666
1891.00,0.2665
1890.00,0.2665
1889.00,0.2666
1888.00,0.2669
1887.00,0.2671
1886.00,0.2672
1885.00,0.2673
1884.00,0.2674
1883.00,0.2674
1882.00,0.2675
1881.00,0.2676
1880.00,0.2676
1879.00,0.2676
1878.00,0.2676
1877.00,0.2675
1876.00,0.2675
1875.00,0.2674
1874.00,0.2673
1873.00,0.2671
1872.00,0.2669
1871.00,0.2665
1870.00,0.2661
1869.00,0.2657
1868.00,0.2655
1867.00,0.2654
1866.00,0.2653
1865.00,0.2651
1864.00,0.2649
1863.00,0.2645
1862.00,0.2642
1861.00,0.2639
1860.00,0.2636
1859.00,0.2632
1858.00,0.2629
1857.00,0.2625
1856.00,0.2622
1855.00,0.2619
1854.00,0.2617
1853.00,0.2615
1852.00,0.2614
1851.00,0.2612
1850.00,0.2610
1849.00,0.2609
1848.00,0.2608
1847.00,0.2607
1846.00,0.2606
1845.00,0.2605
1844.00,0.2606
1843.00,0.2609
1842.00,0.2610
1841.00,0.2610
1840.00,0.2606
1839.00,0.2603
1838.00,0.2604
1837.00,0.2603
1836.00,0.2604
1835.00,0.2604
1834.00,0.2605
1833.00,0.2605
1832.00,0.2604
1831.00,0.2603
1830.00,0.2602
1829.00,0.2602
1828.00,0.2602
1827.00,0.2601
1826.00,0.2599
1825.00,0.2599
1824.00,0.2600
1823.00,0.2601
1822.00,0.2602
1821.00,0.2602
1820.00,0.2602
1819.00,0.2602
1818.00,0.2602
1817.00,0.2603
1816.00,0.2605
1815.00,0.2607
1814.00,0.2608
1813.00,0.2609
1812.00,0.2610
1811.00,0.2612
1810.00,0.2616
1809.00,0.2621
1808.00,0.2627
1807.00,0.2633
1806.00,0.2639
1805.00,0.2646
1804.00,0.2654
1803.00,0.2662
1802.00,0.2669
1801.00,0.2675
1800.00,0.2680
1799.00,0.2685
1798.00,0.2690
1797.00,0.2696
1796.00,0.2701
1795.00,0.2704
1794.00,0.2706
1793.00,0.2709
1792.00,0.2715
1791.00,0.2722
1790.00,0.2728
1789.00,0.2733
1788.00,0.2736
1787.00,0.2738
1786.00,0.2741
1785.00,0.2744
1784.00,0.2748
1783.00,0.2751
1782.00,0.2752
1781.00,0.2754
1780.00,0.2758
1779.00,0.2762
1778.00,0.2767
1777.00,0.2771
1776.00,0.2774
1775.00,0.2778
1774.00,0.2782
1773.00,0.2787
1772.00,0.2793
1771.00,0.2800
1770.00,0.2808
1769.00,0.2816
1768.00,0.2824
1767.00,0.2831
1766.00,0.2836
1765.00,0.2839
1764.00,0.2843
1763.00,0.2848
1762.00,0.2855
1761.00,0.2866
1760.00,0.2877
1759.00,0.2886
1758.00,0.2894
1757.00,0.2904
1756.00,0.2918
1755.00,0.2933
1754.00,0.2951
1753.00,0.2974
1752.00,0.3005
1751.00,0.3043
1750.00,0.3085
1749.00,0.3134
1748.00,0.3192
1747.00,0.3259
1746.00,0.3332
1745.00,0.3408
1744.00,0.3481
1743.00,0.3543
1742.00,0.3589
1741.00,0.3616
1740.00,0.3622
1739.00,0.3608
1738.00,0.3580
1737.00,0.3544
1736.00,0.3500
1735.00,0.3443
1734.00,0.3382
1733.00,0.3330
1732.00,0.3288
1731.00,0.3246
1730.00,0.3210
1729.00,0.3185
1728.00,0.3170
1727.00,0.3161
1726.00,0.3156
1725.00,0.3156
1724.00,0.3158
1723.00,0.3162
1722.00,0.3167
1721.00,0.3173
1720.00,0.3179
1719.00,0.3189
1718.00,0.3204
1717.00,0.3223
1716.00,0.3242
1715.00,0.3254
1714.00,0.3263
1713.00,0.3275
1712.00,0.3290
1711.00,0.3305
1710.00,0.3321
1709.00,0.3336
1708.00,0.3348
1707.00,0.3355
1706.00,0.3357
1705.00,0.3358
1704.00,0.3357
1703.00,0.3350
1702.00,0.3337
1701.00,0.3316
1700.00,0.3292
1699.00,0.3278
1698.00,0.3269
1697.00,0.3259
1696.00,0.3249
1695.00,0.3240
1694.00,0.3232
1693.00,0.3220
1692.00,0.3208
1691.00,0.3199
1690.00,0.3196
1689.00,0.3196
1688.00,0.3200
1687.00,0.3204
1686.00,0.3209
1685.00,0.3208
1684.00,0.3204
1683.00,0.3201
1682.00,0.3200
1681.00,0.3198
1680.00,0.3197
1679.00,0.3199
1678.00,0.3201
1677.00,0.3205
1676.00,0.3211
1675.00,0.3219
1674.00,0.3230
1673.00,0.3241
1672.00,0.3248
1671.00,0.3253
1670.00,0.3262
1669.00,0.3278
1668.00,0.3298
1667.00,0.3316
1666.00,0.3330
1665.00,0.3343
1664.00,0.3358
1663.00,0.3376
1662.00,0.3398
1661.00,0.3425
1660.00,0.3451
1659.00,0.3476
1658.00,0.3500
1657.00,0.3524
1656.00,0.3552
1655.00,0.3585
1654.00,0.3625
1653.00,0.3676
1652.00,0.3732
1651.00,0.3767
1650.00,0.3776
1649.00,0.3781
1648.00,0.3803
1647.00,0.3841
1646.00,0.3891
1645.00,0.3943
1644.00,0.3988
1643.00,0.4022
1642.00,0.4054
1641.00,0.4089
1640.00,0.4126
1639.00,0.4159
1638.00,0.4193
1637.00,0.4231
1636.00,0.4278
1635.00,0.4327
1634.00,0.4375
1633.00,0.4417
1632.00,0.4452
1631.00,0.4485
1630.00,0.4522
1629.00,0.4565
1628.00,0.4614
1627.00,0.4665
1626.00,0.4718
1625.00,0.4777
1624.00,0.4844
1623.00,0.4920
1622.00,0.5004
1621.00,0.5093
1620.00,0.5185
1619.00,0.5285
1618.00,0.5405
1617.00,0.5555
1616.00,0.5727
1615.00,0.5898
1614.00,0.6065
1613.00,0.6248
1612.00,0.6460
1611.00,0.6695
1610.00,0.6938
1609.00,0.7178
1608.00,0.7401
1607.00,0.7592
1606.00,0.7752
1605.00,0.7903
1604.00,0.8068
1603.00,0.8257
1602.00,0.8480
1601.00,0.8758
1600.00,0.9102
1599.00,0.9511
1598.00,0.9994
1597.00,1.0590
1596.00,1.1334
1595.00,1.2241
1594.00,1.3329
1593.00,1.4660
1592.00,1.6309
1591.00,1.8289
1590.00,2.0554
1589.00,2.3241
1588.00,2.6778
1587.00,3.1442
1586.00,3.4873
1585.00,3.7861
1584.00,4.0216
1583.00,3.8119
1582.00,4.1992
1581.00,3.9814
1580.00,3.9914
1579.00,3.4056
1578.00,2.7910
1577.00,2.4036
1576.00,2.1185
1575.00,1.8992
1574.00,1.7369
1573.00,1.6231
1572.00,1.5444
1571.00,1.4930
1570.00,1.4719
1569.00,1.4893
1568.00,1.5470
1567.00,1.6403
1566.00,1.7697
1565.00,1.9467
1564.00,2.1799
1563.00,2.4394
1562.00,2.6347
1561.00,2.6954
1560.00,2.5337
1559.00,2.1795
1558.00,1.8704
1557.00,1.6538
1556.00,1.4831
1555.00,1.3295
1554.00,1.1971
1553.00,1.0951
1552.00,1.0214
1551.00,0.9676
1550.00,0.9291
1549.00,0.9057
1548.00,0.8964
1547.00,0.8981
1546.00,0.9075
1545.00,0.9227
1544.00,0.9403
1543.00,0.9553
1542.00,0.9633
1541.00,0.9617
1540.00,0.9491
1539.00,0.9279
1538.00,0.9040
1537.00,0.8810
1536.00,0.8582
1535.00,0.8337
1534.00,0.8073
1533.00,0.7825
1532.00,0.7623
1531.00,0.7458
1530.00,0.7317
1529.00,0.7196
1528.00,0.7093
1527.00,0.7000
1526.00,0.6919
1525.00,0.6859
1524.00,0.6828
1523.00,0.6828
1522.00,0.6868
1521.00,0.6954
1520.00,0.7068
1519.00,0.7179
1518.00,0.7279
1517.00,0.7367
1516.00,0.7418
1515.00,0.7396
1514.00,0.7294
1513.00,0.7126
1512.00,0.6919
1511.00,0.6706
1510.00,0.6513
1509.00,0.6357
1508.00,0.6237
1507.00,0.6151
1506.00,0.6107
1505.00,0.6108
1504.00,0.6131
1503.00,0.6157
1502.00,0.6190
1501.00,0.6238
1500.00,0.6300
1499.00,0.6374
1498.00,0.6462
1497.00,0.6577
1496.00,0.6713
1495.00,0.6850
1494.00,0.6980
1493.00,0.7116
1492.00,0.7271
1491.00,0.7443
1490.00,0.7620
1489.00,0.7797
1488.00,0.7974
1487.00,0.8157
1486.00,0.8364
1485.00,0.8609
1484.00,0.8896
1483.00,0.9224
1482.00,0.9609
1481.00,1.0068
1480.00,1.0597
1479.00,1.1192
1478.00,1.1886
1477.00,1.2732
1476.00,1.3752
1475.00,1.4954
1474.00,1.6416
1473.00,1.8326
1472.00,2.0835
1471.00,2.3894
1470.00,2.7367
1469.00,3.1425
1468.00,3.6333
1467.00,3.9742
1466.00,4.0606
1465.00,4.3211
1464.00,4.9549
1463.00,4.4997
1462.00,4.2133
1461.00,4.1962
1460.00,3.9229
1459.00,3.8272
1458.00,4.0068
1457.00,4.0929
1456.00,3.9986
1455.00,4.2401
1454.00,4.2457
1453.00,4.1747
1452.00,4.3931
1451.00,4.2133
1450.00,3.9168
1449.00,4.0212
1448.00,4.4579
1447.00,4.2317
1446.00,3.9649
1445.00,4.0663
1444.00,4.2429
1443.00,3.8913
1442.00,3.5991
1441.00,3.4081
1440.00,3.1759
1439.00,2.9113
1438.00,2.6772
1437.00,2.4718
1436.00,2.2790
1435.00,2.1039
1434.00,1.9516
1433.00,1.8149
1432.00,1.6866
1431.00,1.5675
1430.00,1.4622
1429.00,1.3730
1428.00,1.2994
1427.00,1.2396
1426.00,1.1909
1425.00,1.1509
1424.00,1.1189
1423.00,1.0949
1422.00,1.0778
1421.00,1.0654
1420.00,1.0568
1419.00,1.0523
1418.00,1.0530
1417.00,1.0592
1416.00,1.0707
1415.00,1.0872
1414.00,1.1072
1413.00,1.1280
1412.00,1.1460
1411.00,1.1574
1410.00,1.1595
1409.00,1.1520
1408.00,1.1354
1407.00,1.1103
1406.00,1.0777
1405.00,1.0395
1404.00,0.9990
1403.00,0.9598
1402.00,0.9238
1401.00,0.8913
1400.00,0.8625
1399.00,0.8388
1398.00,0.8210
1397.00,0.8084
1396.00,0.7996
1395.00,0.7935
1394.00,0.7897
1393.00,0.7890
1392.00,0.7929
1391.00,0.8036
1390.00,0.8234
1389.00,0.8556
1388.00,0.9040
1387.00,0.9700
1386.00,1.0506
1385.00,1.1409
1384.00,1.2402
1383.00,1.3518
1382.00,1.4799
1381.00,1.6278
1380.00,1.7950
1379.00,1.9656
1378.00,2.0942
1377.00,2.1286
1376.00,2.0630
1375.00,1.9340
1374.00,1.7853
1373.00,1.6496
1372.00,1.5398
1371.00,1.4561
1370.00,1.3956
1369.00,1.3564
1368.00,1.3342
1367.00,1.3192
1366.00,1.2974
1365.00,1.2580
1364.00,1.2001
1363.00,1.1329
1362.00,1.0684
1361.00,1.0146
1360.00,0.9731
1359.00,0.9420
1358.00,0.9194
1357.00,0.9039
1356.00,0.8947
1355.00,0.8906
1354.00,0.8903
1353.00,0.8926
1352.00,0.8965
1351.00,0.9017
1350.00,0.9091
1349.00,0.9201
1348.00,0.9363
1347.00,0.9577
1346.00,0.9808
1345.00,0.9989
1344.00,1.0042
1343.00,0.9929
1342.00,0.9676
1341.00,0.9348
1340.00,0.9004
1339.00,0.8677
1338.00,0.8377
1337.00,0.8106
1336.00,0.7863
1335.00,0.7647
1334.00,0.7461
1333.00,0.7305
1332.00,0.7180
1331.00,0.7088
1330.00,0.7027
1329.00,0.6997
1328.00,0.6993
1327.00,0.7008
1326.00,0.7034
1325.00,0.7062
1324.00,0.7087
1323.00,0.7111
1322.00,0.7137
1321.00,0.7168
1320.00,0.7206
1319.00,0.7249
1318.00,0.7297
1317.00,0.7348
1316.00,0.7402
1315.00,0.7461
1314.00,0.7527
1313.00,0.7597
1312.00,0.7671
1311.00,0.7745
1310.00,0.7813
1309.00,0.7874
1308.00,0.7920
1307.00,0.7945
1306.00,0.7941
1305.00,0.7913
1304.00,0.7868
1303.00,0.7821
1302.00,0.7778
1301.00,0.7742
1300.00,0.7712
1299.00,0.7681
1298.00,0.7641
1297.00,0.7591
1296.00,0.7536
1295.00,0.7479
1294.00,0.7425
1293.00,0.7368
1292.00,0.7300
1291.00,0.7215
1290.00,0.7113
1289.00,0.7003
1288.00,0.6895
1287.00,0.6800
1286.00,0.6719
1285.00,0.6653
1284.00,0.6608
1283.00,0.6588
1282.00,0.6601
1281.00,0.6650
1280.00,0.6723
1279.00,0.6794
1278.00,0.6824
1277.00,0.6789
1276.00,0.6688
1275.00,0.6552
1274.00,0.6414
1273.00,0.6295
1272.00,0.6204
1271.00,0.6140
1270.00,0.6095
1269.00,0.6061
1268.00,0.6030
1267.00,0.5996
1266.00,0.5957
1265.00,0.5916
1264.00,0.5878
1263.00,0.5846
1262.00,0.5823
1261.00,0.5808
1260.00,0.5803
1259.00,0.5808
1258.00,0.5820
1257.00,0.5839
1256.00,0.5861
1255.00,0.5887
1254.00,0.5917
1253.00,0.5945
1252.00,0.5965
1251.00,0.5970
1250.00,0.5958
1249.00,0.5933
1248.00,0.5901
1247.00,0.5867
1246.00,0.5831
1245.00,0.5792
1244.00,0.5755
1243.00,0.5722
1242.00,0.5692
1241.00,0.5663
1240.00,0.5632
1239.00,0.5605
1238.00,0.5589
1237.00,0.5592
1236.00,0.5617
1235.00,0.5664
1234.00,0.5724
1233.00,0.5790
1232.00,0.5850
1231.00,0.5897
1230.00,0.5918
1229.00,0.5903
1228.00,0.5848
1227.00,0.5756
1226.00,0.5639
1225.00,0.5514
1224.00,0.5397
1223.00,0.5296
1222.00,0.5213
1221.00,0.5147
1220.00,0.5096
1219.00,0.5059
1218.00,0.5036
1217.00,0.5026
1216.00,0.5028
1215.00,0.5039
1214.00,0.5052
1213.00,0.5063
1212.00,0.5069
1211.00,0.5066
1210.00,0.5053
1209.00,0.5030
1208.00,0.4997
1207.00,0.4961
1206.00,0.4931
1205.00,0.4913
1204.00,0.4914
1203.00,0.4941
1202.00,0.4991
1201.00,0.5056
1200.00,0.5117
1199.00,0.5156
1198.00,0.5163
1197.00,0.5149
1196.00,0.5132
1195.00,0.5132
1194.00,0.5156
1193.00,0.5201
1192.00,0.5255
1191.00,0.5304
1190.00,0.5333
1189.00,0.5333
1188.00,0.5306
1187.00,0.5261
1186.00,0.5209
1185.00,0.5155
1184.00,0.5106
1183.00,0.5063
1182.00,0.5026
1181.00,0.4994
1180.00,0.4969
1179.00,0.4952
1178.00,0.4946
1177.00,0.4949
1176.00,0.4961
1175.00,0.4982
1174.00,0.5013
1173.00,0.5052
1172.00,0.5095
1171.00,0.5139
1170.00,0.5176
1169.00,0.5204
1168.00,0.5221
1167.00,0.5233
1166.00,0.5242
1165.00,0.5254
1164.00,0.5269
1163.00,0.5290
1162.00,0.5312
1161.00,0.5331
1160.00,0.5343
1159.00,0.5347
1158.00,0.5342
1157.00,0.5334
1156.00,0.5324
1155.00,0.5315
1154.00,0.5306
1153.00,0.5295
1152.00,0.5284
1151.00,0.5270
1150.00,0.5253
1149.00,0.5233
1148.00,0.5213
1147.00,0.5194
1146.00,0.5175
1145.00,0.5158
1144.00,0.5146
1143.00,0.5142
1142.00,0.5149
1141.00,0.5168
1140.00,0.5200
1139.00,0.5244
1138.00,0.5300
1137.00,0.5368
1136.00,0.5447
1135.00,0.5528
1134.00,0.5593
1133.00,0.5621
1132.00,0.5599
1131.00,0.5535
1130.00,0.5451
1129.00,0.5376
1128.00,0.5329
1127.00,0.5317
1126.00,0.5327
1125.00,0.5337
1124.00,0.5328
1123.00,0.5296
1122.00,0.5249
1121.00,0.5203
1120.00,0.5172
1119.00,0.5161
1118.00,0.5172
1117.00,0.5199
1116.00,0.5230
1115.00,0.5250
1114.00,0.5242
1113.00,0.5197
1112.00,0.5118
1111.00,0.5021
1110.00,0.4925
1109.00,0.4844
1108.00,0.4785
1107.00,0.4750
1106.00,0.4741
1105.00,0.4756
1104.00,0.4792
1103.00,0.4845
1102.00,0.4909
1101.00,0.4975
1100.00,0.5028
1099.00,0.5055
1098.00,0.5047
1097.00,0.5009
1096.00,0.4956
1095.00,0.4904
1094.00,0.4862
1093.00,0.4830
1092.00,0.4805
1091.00,0.4784
1090.00,0.4767
1089.00,0.4754
1088.00,0.4750
1087.00,0.4756
1086.00,0.4776
1085.00,0.4808
1084.00,0.4854
1083.00,0.4915
1082.00,0.4988
1081.00,0.5065
1080.00,0.5139
1079.00,0.5200
1078.00,0.5239
1077.00,0.5248
1076.00,0.5224
1075.00,0.5171
1074.00,0.5098
1073.00,0.5016
1072.00,0.4934
1071.00,0.4861
1070.00,0.4800
1069.00,0.4748
1068.00,0.4705
1067.00,0.4668
1066.00,0.4637
1065.00,0.4611
1064.00,0.4591
1063.00,0.4575
1062.00,0.4562
1061.00,0.4550
1060.00,0.4536
1059.00,0.4516
1058.00,0.4492
1057.00,0.4465
1056.00,0.4437
1055.00,0.4411
1054.00,0.4387
1053.00,0.4362
1052.00,0.4339
1051.00,0.4320
1050.00,0.4306
1049.00,0.4298
1048.00,0.4296
1047.00,0.4296
1046.00,0.4298
1045.00,0.4298
1044.00,0.4296
1043.00,0.4293
1042.00,0.4292
1041.00,0.4295
1040.00,0.4301
1039.00,0.4311
1038.00,0.4323
1037.00,0.4336
1036.00,0.4352
1035.00,0.4373
1034.00,0.4403
1033.00,0.4439
1032.00,0.4483
1031.00,0.4532
1030.00,0.4581
1029.00,0.4622
1028.00,0.4648
1027.00,0.4652
1026.00,0.4630
1025.00,0.4582
1024.00,0.4517
1023.00,0.4446
1022.00,0.4379
1021.00,0.4322
1020.00,0.4278
1019.00,0.4247
1018.00,0.4228
1017.00,0.4217
1016.00,0.4210
1015.00,0.4207
1014.00,0.4205
1013.00,0.4201
1012.00,0.4193
1011.00,0.4184
1010.00,0.4181
1009.00,0.4185
1008.00,0.4195
1007.00,0.4208
1006.00,0.4221
1005.00,0.4230
1004.00,0.4238
1003.00,0.4246
1002.00,0.4255
1001.00,0.4264
1000.00,0.4272
999.00,0.4276
998.00,0.4276
997.00,0.4270
996.00,0.4259
995.00,0.4246
994.00,0.4233
993.00,0.4219
992.00,0.4207
991.00,0.4196
990.00,0.4188
989.00,0.4179
988.00,0.4167
987.00,0.4154
986.00,0.4142
985.00,0.4135
984.00,0.4140
983.00,0.4159
982.00,0.4193
981.00,0.4239
980.00,0.4299
979.00,0.4378
978.00,0.4483
977.00,0.4626
976.00,0.4819
975.00,0.5076
974.00,0.5410
973.00,0.5832
972.00,0.6348
971.00,0.6944
970.00,0.7570
969.00,0.8124
968.00,0.8462
967.00,0.8468
966.00,0.8135
965.00,0.7576
964.00,0.6942
963.00,0.6345
962.00,0.5852
961.00,0.5491
960.00,0.5266
959.00,0.5164
958.00,0.5155
957.00,0.5194
956.00,0.5230
955.00,0.5224
954.00,0.5157
953.00,0.5037
952.00,0.4887
951.00,0.4734
950.00,0.4602
949.00,0.4499
948.00,0.4431
947.00,0.4397
946.00,0.4390
945.00,0.4406
944.00,0.4438
943.00,0.4480
942.00,0.4525
941.00,0.4564
940.00,0.4592
939.00,0.4608
938.00,0.4613
937.00,0.4606
936.00,0.4590
935.00,0.4565
934.00,0.4535
933.00,0.4497
932.00,0.4453
931.00,0.4406
930.00,0.4358
929.00,0.4316
928.00,0.4283
927.00,0.4265
926.00,0.4263
925.00,0.4281
924.00,0.4317
923.00,0.4369
922.00,0.4421
921.00,0.4454
920.00,0.4451
919.00,0.4408
918.00,0.4334
917.00,0.4243
916.00,0.4154
915.00,0.4075
914.00,0.4011
913.00,0.3962
912.00,0.3928
911.00,0.3906
910.00,0.3895
909.00,0.3894
908.00,0.3905
907.00,0.3935
906.00,0.3982
905.00,0.4040
904.00,0.4090
903.00,0.4114
902.00,0.4105
901.00,0.4074
900.00,0.4040
899.00,0.4021
898.00,0.4019
897.00,0.4031
896.00,0.4054
895.00,0.4085
894.00,0.4125
893.00,0.4170
892.00,0.4217
891.00,0.4262
890.00,0.4298
889.00,0.4317
888.00,0.4316
887.00,0.4295
886.00,0.4258
885.00,0.4216
884.00,0.4178
883.00,0.4148
882.00,0.4127
881.00,0.4115
880.00,0.4108
879.00,0.4106
878.00,0.4106
877.00,0.4107
876.00,0.4109
875.00,0.4113
874.00,0.4119
873.00,0.4124
872.00,0.4128
871.00,0.4129
870.00,0.4131
869.00,0.4136
868.00,0.4147
867.00,0.4170
866.00,0.4206
865.00,0.4252
864.00,0.4302
863.00,0.4344
862.00,0.4363
861.00,0.4347
860.00,0.4296
859.00,0.4224
858.00,0.4146
857.00,0.4075
856.00,0.4018
855.00,0.3978
854.00,0.3950
853.00,0.3932
852.00,0.3920
851.00,0.3913
850.00,0.3908
849.00,0.3904
848.00,0.3898
847.00,0.3891
846.00,0.3885
845.00,0.3879
844.00,0.3877
843.00,0.3884
842.00,0.3905
841.00,0.3946
840.00,0.4012
839.00,0.4101
838.00,0.4202
837.00,0.4293
836.00,0.4346
835.00,0.4345
834.00,0.4299
833.00,0.4234
832.00,0.4177
831.00,0.4147
830.00,0.4150
829.00,0.4181
828.00,0.4233
827.00,0.4296
826.00,0.4365
825.00,0.4441
824.00,0.4524
823.00,0.4608
822.00,0.4679
821.00,0.4723
820.00,0.4731
819.00,0.4707
818.00,0.4664
817.00,0.4612
816.00,0.4560
815.00,0.4514
814.00,0.4472
813.00,0.4431
812.00,0.4388
811.00,0.4344
810.00,0.4302
809.00,0.4260
808.00,0.4219
807.00,0.4178
806.00,0.4137
805.00,0.4096
804.00,0.4056
803.00,0.4017
802.00,0.3983
801.00,0.3954
800.00,0.3931
799.00,0.3913
798.00,0.3900
797.00,0.3889
796.00,0.3880
795.00,0.3874
794.00,0.3873
793.00,0.3877
792.00,0.3886
791.00,0.3900
790.00,0.3917
789.00,0.3933
788.00,0.3949
787.00,0.3969
786.00,0.3998
785.00,0.4042
784.00,0.4101
783.00,0.4176
782.00,0.4267
781.00,0.4372
780.00,0.4488
779.00,0.4599
778.00,0.4680
777.00,0.4709
776.00,0.4680
775.00,0.4615
774.00,0.4543
773.00,0.4490
772.00,0.4464
771.00,0.4462
770.00,0.4475
769.00,0.4494
768.00,0.4515
767.00,0.4536
766.00,0.4555
765.00,0.4572
764.00,0.4588
763.00,0.4607
762.00,0.4634
761.00,0.4671
760.00,0.4712
759.00,0.4750
758.00,0.4779
757.00,0.4801
756.00,0.4822
755.00,0.4847
754.00,0.4882
753.00,0.4924
752.00,0.4971
751.00,0.5022
750.00,0.5077
749.00,0.5134
748.00,0.5192
747.00,0.5252
746.00,0.5318
745.00,0.5392
744.00,0.5473
743.00,0.5562
742.00,0.5660
741.00,0.5763
740.00,0.5869
739.00,0.5978
738.00,0.6092
737.00,0.6215
736.00,0.6345
735.00,0.6483
734.00,0.6623
733.00,0.6766
732.00,0.6916
731.00,0.7087
730.00,0.7290
729.00,0.7538
728.00,0.7842
727.00,0.8220
726.00,0.8689
725.00,0.9245
724.00,0.9844
723.00,1.0378
722.00,1.0688
721.00,1.0637
720.00,1.0227
719.00,0.9607
718.00,0.8949
717.00,0.8357
716.00,0.7868
715.00,0.7485
714.00,0.7192
713.00,0.6962
712.00,0.6771
711.00,0.6600
710.00,0.6438
709.00,0.6274
708.00,0.6104
707.00,0.5931
706.00,0.5761
705.00,0.5597
704.00,0.5445
703.00,0.5309
702.00,0.5190
701.00,0.5081
700.00,0.4976
699.00,0.4868
698.00,0.4751
697.00,0.4626
696.00,0.4498
695.00,0.4380
694.00,0.4280
693.00,0.4198
692.00,0.4133
691.00,0.4084
690.00,0.4048
689.00,0.4019
688.00,0.3990
687.00,0.3957
686.00,0.3921
685.00,0.3885
684.00,0.3851
683.00,0.3824
682.00,0.3805
681.00,0.3792
680.00,0.3783
679.00,0.3776
678.00,0.3771
677.00,0.3769
676.00,0.3768
675.00,0.3768
674.00,0.3768
673.00,0.3769
672.00,0.3768
671.00,0.3766
670.00,0.3765
669.00,0.3769
668.00,0.3776
667.00,0.3784
666.00,0.3796
665.00,0.3808
664.00,0.3818
663.00,0.3828
662.00,0.3840
661.00,0.3854
660.00,0.3868
659.00,0.3881
658.00,0.3891
657.00,0.3898
656.00,0.3904
655.00,0.3908
654.00,0.3915
653.00,0.3923
652.00,0.3934
651.00,0.3946
650.00,0.3956
649.00,0.3967
648.00,0.3980
647.00,0.3995
646.00,0.4011
645.00,0.4028
644.00,0.4045
643.00,0.4062
642.00,0.4079
641.00,0.4098
640.00,0.4117
639.00,0.4136
638.00,0.4153
637.00,0.4168
636.00,0.4182
635.00,0.4197
634.00,0.4213
633.00,0.4232
632.00,0.4251
631.00,0.4273
630.00,0.4297
629.00,0.4324
628.00,0.4356
627.00,0.4389
626.00,0.4421
625.00,0.4451
624.00,0.4477
623.00,0.4500
622.00,0.4518
621.00,0.4532
620.00,0.4543
619.00,0.4551
618.00,0.4557
617.00,0.4561
616.00,0.4563
615.00,0.4563
614.00,0.4558
613.00,0.4549
612.00,0.4536
611.00,0.4525
610.00,0.4516
609.00,0.4510
608.00,0.4506
607.00,0.4504
606.00,0.4505
605.00,0.4505
604.00,0.4503
603.00,0.4499
602.00,0.4493
601.00,0.4486
600.00,0.4478
599.00,0.4470
598.00,0.4463
597.00,0.4459
596.00,0.4460
595.00,0.4467
594.00,0.4475
593.00,0.4482
592.00,0.4487
591.00,0.4493
590.00,0.4503
589.00,0.4520
588.00,0.4543
587.00,0.4572
586.00,0.4608
585.00,0.4650
584.00,0.4693
583.00,0.4732
582.00,0.4763
581.00,0.4787
580.00,0.4808
579.00,0.4827
578.00,0.4843
577.00,0.4855
576.00,0.4866
575.00,0.4881
574.00,0.4899
573.00,0.4920
572.00,0.4944
571.00,0.4970
570.00,0.4999
569.00,0.5029
568.00,0.5059
567.00,0.5088
566.00,0.5118
565.00,0.5149
564.00,0.5182
563.00,0.5214
562.00,0.5242
561.00,0.5266
560.00,0.5290
559.00,0.5320
558.00,0.5360
557.00,0.5406
556.00,0.5453
555.00,0.5494
554.00,0.5531
553.00,0.5569
552.00,0.5611
551.00,0.5656
550.00,0.5699
