Created as New Dataset,
cm-1,A
4000.00,0.3618
3999.00,0.3615
3998.00,0.3613
3997.00,0.3611
3996.00,0.3609
3995.00,0.3606
3994.00,0.3603
3993.00,0.3600
3992.00,0.3596
3991.00,0.3592
3990.00,0.3588
3989.00,0.3584
3988.00,0.3579
3987.00,0.3575
3986.00,0.3571
3985.00,0.3566
3984.00,0.3562
3983.00,0.3557
3982.00,0.3553
3981.00,0.3549
3980.00,0.3545
3979.00,0.3541
3978.00,0.3538
3977.00,0.3534
3976.00,0.3530
3975.00,0.3527
3974.00,0.3524
3973.00,0.3521
3972.00,0.3518
3971.00,0.3516
3970.00,0.3513
3969.00,0.3510
3968.00,0.3507
3967.00,0.3504
3966.00,0.3502
3965.00,0.3500
3964.00,0.3497
3963.00,0.3495
3962.00,0.3492
3961.00,0.3489
3960.00,0.3486
3959.00,0.3484
3958.00,0.3482
3957.00,0.3480
3956.00,0.3478
3955.00,0.3476
3954.00,0.3474
3953.00,0.3472
3952.00,0.3470
3951.00,0.3468
3950.00,0.3465
3949.00,0.3462
3948.00,0.3460
3947.00,0.3458
3946.00,0.3457
3945.00,0.3455
3944.00,0.3453
3943.00,0.3451
3942.00,0.3450
3941.00,0.3449
3940.00,0.3447
3939.00,0.3446
3938.00,0.3445
3937.00,0.3444
3936.00,0.3444
3935.00,0.3444
3934.00,0.3445
3933.00,0.3445
3932.00,0.3445
3931.00,0.3444
3930.00,0.3444
3929.00,0.3443
3928.00,0.3444
3927.00,0.3444
3926.00,0.3445
3925.00,0.3445
3924.00,0.3444
3923.00,0.3444
3922.00,0.3443
3921.00,0.3442
3920.00,0.3441
3919.00,0.3441
3918.00,0.3440
3917.00,0.3439
3916.00,0.3438
3915.00,0.3437
3914.00,0.3436
3913.00,0.3436
3912.00,0.3435
3911.00,0.3435
3910.00,0.3434
3909.00,0.3432
3908.00,0.3431
3907.00,0.3430
3906.00,0.3429
3905.00,0.3428
3904.00,0.3427
3903.00,0.3427
3902.00,0.3427
3901.00,0.3427
3900.00,0.3427
3899.00,0.3427
3898.00,0.3426
3897.00,0.3425
3896.00,0.3424
3895.00,0.3423
3894.00,0.3422
3893.00,0.3421
3892.00,0.3420
3891.00,0.3419
3890.00,0.3417
3889.00,0.3416
3888.00,0.3415
3887.00,0.3413
3886.00,0.3411
3885.00,0.3411
3884.00,0.3411
3883.00,0.3411
3882.00,0.3410
3881.00,0.3408
3880.00,0.3407
3879.00,0.3406
3878.00,0.3406
3877.00,0.3406
3876.00,0.3406
3875.00,0.3405
3874.00,0.3404
3873.00,0.3403
3872.00,0.3402
3871.00,0.3400
3870.00,0.3398
3869.00,0.3396
3868.00,0.3396
3867.00,0.3395
3866.00,0.3394
3865.00,0.3392
3864.00,0.3391
3863.00,0.3390
3862.00,0.3388
3861.00,0.3386
3860.00,0.3385
3859.00,0.3383
3858.00,0.3382
3857.00,0.3381
3856.00,0.3380
3855.00,0.3379
3854.00,0.3378
3853.00,0.3377
3852.00,0.3377
3851.00,0.3377
3850.00,0.3375
3849.00,0.3373
3848.00,0.3372
3847.00,0.3372
3846.00,0.3372
3845.00,0.3372
3844.00,0.3372
3843.00,0.3371
3842.00,0.3371
3841.00,0.3370
3840.00,0.3370
3839.00,0.3368
3838.00,0.3367
3837.00,0.3366
3836.00,0.3366
3835.00,0.3365
3834.00,0.3364
3833.00,0.3362
3832.00,0.3361
3831.00,0.3359
3830.00,0.3357
3829.00,0.3356
3828.00,0.3356
3827.00,0.3354
3826.00,0.3353
3825.00,0.3353
3824.00,0.3352
3823.00,0.3351
3822.00,0.3350
3821.00,0.3348
3820.00,0.3348
3819.00,0.3348
3818.00,0.3347
3817.00,0.3344
3816.00,0.3342
3815.00,0.3340
3814.00,0.3338
3813.00,0.3336
3812.00,0.3333
3811.00,0.3331
3810.00,0.3330
3809.00,0.3330
3808.00,0.3328
3807.00,0.3325
3806.00,0.3323
3805.00,0.3321
3804.00,0.3319
3803.00,0.3317
3802.00,0.3315
3801.00,0.3313
3800.00,0.3313
3799.00,0.3312
3798.00,0.3310
3797.00,0.3308
3796.00,0.3306
3795.00,0.3305
3794.00,0.3303
3793.00,0.3301
3792.00,0.3299
3791.00,0.3297
3790.00,0.3295
3789.00,0.3293
3788.00,0.3291
3787.00,0.3290
3786.00,0.3289
3785.00,0.3288
3784.00,0.3287
3783.00,0.3285
3782.00,0.3284
3781.00,0.3281
3780.00,0.3279
3779.00,0.3278
3778.00,0.3276
3777.00,0.3275
3776.00,0.3274
3775.00,0.3271
3774.00,0.3269
3773.00,0.3268
3772.00,0.3267
3771.00,0.3265
3770.00,0.3264
3769.00,0.3262
3768.00,0.3261
3767.00,0.3260
3766.00,0.3257
3765.00,0.3256
3764.00,0.3255
3763.00,0.3254
3762.00,0.3253
3761.00,0.3252
3760.00,0.3250
3759.00,0.3249
3758.00,0.3247
3757.00,0.3246
3756.00,0.3245
3755.00,0.3243
3754.00,0.3242
3753.00,0.3239
3752.00,0.3237
3751.00,0.3235
3750.00,0.3232
3749.00,0.3231
3748.00,0.3230
3747.00,0.3229
3746.00,0.3228
3745.00,0.3227
3744.00,0.3225
3743.00,0.3226
3742.00,0.3226
3741.00,0.3225
3740.00,0.3223
3739.00,0.3223
3738.00,0.3222
3737.00,0.3222
3736.00,0.3221
3735.00,0.3220
3734.00,0.3219
3733.00,0.3218
3732.00,0.3217
3731.00,0.3215
3730.00,0.3214
3729.00,0.3212
3728.00,0.3210
3727.00,0.3207
3726.00,0.3205
3725.00,0.3204
3724.00,0.3203
3723.00,0.3202
3722.00,0.3200
3721.00,0.3199
3720.00,0.3197
3719.00,0.3195
3718.00,0.3193
3717.00,0.3191
3716.00,0.3191
3715.00,0.3190
3714.00,0.3190
3713.00,0.3190
3712.00,0.3190
3711.00,0.3191
3710.00,0.3191
3709.00,0.3190
3708.00,0.3190
3707.00,0.3189
3706.00,0.3190
3705.00,0.3190
3704.00,0.3191
3703.00,0.3192
3702.00,0.3193
3701.00,0.3193
3700.00,0.3193
3699.00,0.3193
3698.00,0.3193
3697.00,0.3193
3696.00,0.3193
3695.00,0.3194
3694.00,0.3195
3693.00,0.3195
3692.00,0.3194
3691.00,0.3195
3690.00,0.3195
3689.00,0.3196
3688.00,0.3195
3687.00,0.3195
3686.00,0.3195
3685.00,0.3195
3684.00,0.3195
3683.00,0.3195
3682.00,0.3194
3681.00,0.3194
3680.00,0.3193
3679.00,0.3192
3678.00,0.3192
3677.00,0.3193
3676.00,0.3193
3675.00,0.3193
3674.00,0.3194
3673.00,0.3195
3672.00,0.3195
3671.00,0.3197
3670.00,0.3198
3669.00,0.3201
3668.00,0.3203
3667.00,0.3205
3666.00,0.3208
3665.00,0.3212
3664.00,0.3218
3663.00,0.3224
3662.00,0.3232
3661.00,0.3241
3660.00,0.3252
3659.00,0.3267
3658.00,0.3285
3657.00,0.3307
3656.00,0.3331
3655.00,0.3357
3654.00,0.3383
3653.00,0.3406
3652.00,0.3427
3651.00,0.3445
3650.00,0.3458
3649.00,0.3462
3648.00,0.3459
3647.00,0.3448
3646.00,0.3433
3645.00,0.3417
3644.00,0.3399
3643.00,0.3381
3642.00,0.3364
3641.00,0.3348
3640.00,0.3334
3639.00,0.3322
3638.00,0.3312
3637.00,0.3304
3636.00,0.3298
3635.00,0.3292
3634.00,0.3287
3633.00,0.3283
3632.00,0.3279
3631.00,0.3276
3630.00,0.3274
3629.00,0.3272
3628.00,0.3272
3627.00,0.3273
3626.00,0.3274
3625.00,0.3275
3624.00,0.3276
3623.00,0.3276
3622.00,0.3275
3621.00,0.3272
3620.00,0.3268
3619.00,0.3263
3618.00,0.3259
3617.00,0.3255
3616.00,0.3251
3615.00,0.3248
3614.00,0.3244
3613.00,0.3242
3612.00,0.3241
3611.00,0.3241
3610.00,0.3240
3609.00,0.3240
3608.00,0.3240
3607.00,0.3240
3606.00,0.3239
3605.00,0.3236
3604.00,0.3232
3603.00,0.3227
3602.00,0.3221
3601.00,0.3214
3600.00,0.3206
3599.00,0.3198
3598.00,0.3189
3597.00,0.3179
3596.00,0.3170
3595.00,0.3162
3594.00,0.3153
3593.00,0.3145
3592.00,0.3138
3591.00,0.3132
3590.00,0.3126
3589.00,0.3121
3588.00,0.3117
3587.00,0.3114
3586.00,0.3110
3585.00,0.3107
3584.00,0.3105
3583.00,0.3103
3582.00,0.3101
3581.00,0.3100
3580.00,0.3098
3579.00,0.3097
3578.00,0.3095
3577.00,0.3094
3576.00,0.3093
3575.00,0.3092
3574.00,0.3091
3573.00,0.3090
3572.00,0.3089
3571.00,0.3088
3570.00,0.3087
3569.00,0.3087
3568.00,0.3088
3567.00,0.3088
3566.00,0.3089
3565.00,0.3090
3564.00,0.3091
3563.00,0.3091
3562.00,0.3092
3561.00,0.3093
3560.00,0.3094
3559.00,0.3094
3558.00,0.3095
3557.00,0.3096
3556.00,0.3098
3555.00,0.3099
3554.00,0.3101
3553.00,0.3103
3552.00,0.3105
3551.00,0.3107
3550.00,0.3110
3549.00,0.3112
3548.00,0.3115
3547.00,0.3118
3546.00,0.3121
3545.00,0.3124
3544.00,0.3126
3543.00,0.3129
3542.00,0.3131
3541.00,0.3134
3540.00,0.3137
3539.00,0.3139
3538.00,0.3141
3537.00,0.3143
3536.00,0.3146
3535.00,0.3149
3534.00,0.3152
3533.00,0.3155
3532.00,0.3158
3531.00,0.3160
3530.00,0.3162
3529.00,0.3165
3528.00,0.3168
3527.00,0.3172
3526.00,0.3176
3525.00,0.3179
3524.00,0.3182
3523.00,0.3186
3522.00,0.3190
3521.00,0.3194
3520.00,0.3197
3519.00,0.3200
3518.00,0.3203
3517.00,0.3207
3516.00,0.3211
3515.00,0.3215
3514.00,0.3219
3513.00,0.3223
3512.00,0.3228
3511.00,0.3233
3510.00,0.3238
3509.00,0.3242
3508.00,0.3247
3507.00,0.3251
3506.00,0.3256
3505.00,0.3261
3504.00,0.3266
3503.00,0.3272
3502.00,0.3277
3501.00,0.3282
3500.00,0.3288
3499.00,0.3293
3498.00,0.3299
3497.00,0.3304
3496.00,0.3310
3495.00,0.3315
3494.00,0.3321
3493.00,0.3328
3492.00,0.3336
3491.00,0.3343
3490.00,0.3351
3489.00,0.3358
3488.00,0.3366
3487.00,0.3373
3486.00,0.3380
3485.00,0.3386
3484.00,0.3392
3483.00,0.3398
3482.00,0.3404
3481.00,0.3410
3480.00,0.3416
3479.00,0.3422
3478.00,0.3427
3477.00,0.3432
3476.00,0.3438
3475.00,0.3444
3474.00,0.3449
3473.00,0.3455
3472.00,0.3462
3471.00,0.3468
3470.00,0.3475
3469.00,0.3482
3468.00,0.3489
3467.00,0.3496
3466.00,0.3503
3465.00,0.3510
3464.00,0.3517
3463.00,0.3524
3462.00,0.3532
3461.00,0.3540
3460.00,0.3548
3459.00,0.3556
3458.00,0.3564
3457.00,0.3572
3456.00,0.3580
3455.00,0.3589
3454.00,0.3598
3453.00,0.3608
3452.00,0.3618
3451.00,0.3627
3450.00,0.3638
3449.00,0.3649
3448.00,0.3662
3447.00,0.3675
3446.00,0.3689
3445.00,0.3704
3444.00,0.3719
3443.00,0.3735
3442.00,0.3750
3441.00,0.3765
3440.00,0.3779
3439.00,0.3793
3438.00,0.3805
3437.00,0.3816
3436.00,0.3825
3435.00,0.3834
3434.00,0.3843
3433.00,0.3852
3432.00,0.3861
3431.00,0.3869
3430.00,0.3877
3429.00,0.3885
3428.00,0.3892
3427.00,0.3900
3426.00,0.3909
3425.00,0.3917
3424.00,0.3926
3423.00,0.3934
3422.00,0.3943
3421.00,0.3953
3420.00,0.3963
3419.00,0.3973
3418.00,0.3984
3417.00,0.3996
3416.00,0.4007
3415.00,0.4018
3414.00,0.4029
3413.00,0.4040
3412.00,0.4052
3411.00,0.4064
3410.00,0.4077
3409.00,0.4090
3408.00,0.4104
3407.00,0.4118
3406.00,0.4133
3405.00,0.4147
3404.00,0.4160
3403.00,0.4174
3402.00,0.4187
3401.00,0.4201
3400.00,0.4216
3399.00,0.4230
3398.00,0.4245
3397.00,0.4260
3396.00,0.4275
3395.00,0.4289
3394.00,0.4303
3393.00,0.4318
3392.00,0.4332
3391.00,0.4347
3390.00,0.4362
3389.00,0.4377
3388.00,0.4392
3387.00,0.4407
3386.00,0.4423
3385.00,0.4439
3384.00,0.4455
3383.00,0.4470
3382.00,0.4487
3381.00,0.4503
3380.00,0.4521
3379.00,0.4538
3378.00,0.4556
3377.00,0.4575
3376.00,0.4594
3375.00,0.4612
3374.00,0.4631
3373.00,0.4650
3372.00,0.4670
3371.00,0.4690
3370.00,0.4710
3369.00,0.4730
3368.00,0.4751
3367.00,0.4772
3366.00,0.4793
3365.00,0.4815
3364.00,0.4837
3363.00,0.4859
3362.00,0.4881
3361.00,0.4904
3360.00,0.4926
3359.00,0.4948
3358.00,0.4971
3357.00,0.4993
3356.00,0.5015
3355.00,0.5036
3354.00,0.5057
3353.00,0.5079
3352.00,0.5101
3351.00,0.5122
3350.00,0.5143
3349.00,0.5163
3348.00,0.5182
3347.00,0.5200
3346.00,0.5219
3345.00,0.5236
3344.00,0.5252
3343.00,0.5267
3342.00,0.5281
3341.00,0.5295
3340.00,0.5308
3339.00,0.5320
3338.00,0.5330
3337.00,0.5339
3336.00,0.5346
3335.00,0.5353
3334.00,0.5359
3333.00,0.5364
3332.00,0.5368
3331.00,0.5369
3330.00,0.5370
3329.00,0.5369
3328.00,0.5368
3327.00,0.5366
3326.00,0.5363
3325.00,0.5358
3324.00,0.5353
3323.00,0.5347
3322.00,0.5341
3321.00,0.5334
3320.00,0.5327
3319.00,0.5318
3318.00,0.5309
3317.00,0.5300
3316.00,0.5291
3315.00,0.5280
3314.00,0.5270
3313.00,0.5259
3312.00,0.5248
3311.00,0.5237
3310.00,0.5227
3309.00,0.5217
3308.00,0.5207
3307.00,0.5196
3306.00,0.5185
3305.00,0.5174
3304.00,0.5164
3303.00,0.5154
3302.00,0.5145
3301.00,0.5136
3300.00,0.5128
3299.00,0.5120
3298.00,0.5113
3297.00,0.5106
3296.00,0.5099
3295.00,0.5093
3294.00,0.5087
3293.00,0.5082
3292.00,0.5077
3291.00,0.5073
3290.00,0.5070
3289.00,0.5068
3288.00,0.5066
3287.00,0.5065
3286.00,0.5064
3285.00,0.5064
3284.00,0.5063
3283.00,0.5063
3282.00,0.5064
3281.00,0.5065
3280.00,0.5067
3279.00,0.5069
3278.00,0.5072
3277.00,0.5075
3276.00,0.5078
3275.00,0.5081
3274.00,0.5084
3273.00,0.5087
3272.00,0.5090
3271.00,0.5094
3270.00,0.5098
3269.00,0.5103
3268.00,0.5108
3267.00,0.5112
3266.00,0.5117
3265.00,0.5122
3264.00,0.5127
3263.00,0.5131
3262.00,0.5136
3261.00,0.5140
3260.00,0.5144
3259.00,0.5149
3258.00,0.5153
3257.00,0.5157
3256.00,0.5160
3255.00,0.5163
3254.00,0.5166
3253.00,0.5169
3252.00,0.5172
3251.00,0.5174
3250.00,0.5176
3249.00,0.5178
3248.00,0.5180
3247.00,0.5181
3246.00,0.5181
3245.00,0.5182
3244.00,0.5182
3243.00,0.5182
3242.00,0.5181
3241.00,0.5180
3240.00,0.5178
3239.00,0.5175
3238.00,0.5172
3237.00,0.5169
3236.00,0.5166
3235.00,0.5162
3234.00,0.5158
3233.00,0.5154
3232.00,0.5149
3231.00,0.5144
3230.00,0.5139
3229.00,0.5133
3228.00,0.5127
3227.00,0.5121
3226.00,0.5116
3225.00,0.5110
3224.00,0.5103
3223.00,0.5096
3222.00,0.5089
3221.00,0.5082
3220.00,0.5076
3219.00,0.5070
3218.00,0.5064
3217.00,0.5058
3216.00,0.5051
3215.00,0.5044
3214.00,0.5036
3213.00,0.5029
3212.00,0.5022
3211.00,0.5016
3210.00,0.5009
3209.00,0.5003
3208.00,0.4996
3207.00,0.4989
3206.00,0.4982
3205.00,0.4976
3204.00,0.4969
3203.00,0.4963
3202.00,0.4956
3201.00,0.4949
3200.00,0.4942
3199.00,0.4935
3198.00,0.4928
3197.00,0.4921
3196.00,0.4913
3195.00,0.4906
3194.00,0.4899
3193.00,0.4891
3192.00,0.4884
3191.00,0.4876
3190.00,0.4869
3189.00,0.4861
3188.00,0.4854
3187.00,0.4845
3186.00,0.4837
3185.00,0.4828
3184.00,0.4819
3183.00,0.4811
3182.00,0.4803
3181.00,0.4794
3180.00,0.4785
3179.00,0.4777
3178.00,0.4768
3177.00,0.4758
3176.00,0.4748
3175.00,0.4738
3174.00,0.4728
3173.00,0.4718
3172.00,0.4708
3171.00,0.4698
3170.00,0.4689
3169.00,0.4679
3168.00,0.4670
3167.00,0.4660
3166.00,0.4650
3165.00,0.4640
3164.00,0.4630
3163.00,0.4620
3162.00,0.4611
3161.00,0.4602
3160.00,0.4593
3159.00,0.4585
3158.00,0.4576
3157.00,0.4568
3156.00,0.4560
3155.00,0.4552
3154.00,0.4543
3153.00,0.4535
3152.00,0.4527
3151.00,0.4519
3150.00,0.4512
3149.00,0.4505
3148.00,0.4498
3147.00,0.4491
3146.00,0.4484
3145.00,0.4477
3144.00,0.4469
3143.00,0.4462
3142.00,0.4455
3141.00,0.4450
3140.00,0.4445
3139.00,0.4440
3138.00,0.4435
3137.00,0.4431
3136.00,0.4427
3135.00,0.4423
3134.00,0.4420
3133.00,0.4417
3132.00,0.4413
3131.00,0.4409
3130.00,0.4406
3129.00,0.4403
3128.00,0.4401
3127.00,0.4400
3126.00,0.4399
3125.00,0.4398
3124.00,0.4398
3123.00,0.4398
3122.00,0.4398
3121.00,0.4399
3120.00,0.4400
3119.00,0.4401
3118.00,0.4403
3117.00,0.4405
3116.00,0.4408
3115.00,0.4410
3114.00,0.4413
3113.00,0.4417
3112.00,0.4422
3111.00,0.4428
3110.00,0.4435
3109.00,0.4443
3108.00,0.4452
3107.00,0.4460
3106.00,0.4469
3105.00,0.4478
3104.00,0.4489
3103.00,0.4499
3102.00,0.4510
3101.00,0.4520
3100.00,0.4530
3099.00,0.4541
3098.00,0.4552
3097.00,0.4564
3096.00,0.4576
3095.00,0.4589
3094.00,0.4601
3093.00,0.4614
3092.00,0.4628
3091.00,0.4644
3090.00,0.4661
3089.00,0.4680
3088.00,0.4701
3087.00,0.4722
3086.00,0.4745
3085.00,0.4768
3084.00,0.4793
3083.00,0.4818
3082.00,0.4846
3081.00,0.4875
3080.00,0.4906
3079.00,0.4939
3078.00,0.4974
3077.00,0.5009
3076.00,0.5046
3075.00,0.5084
3074.00,0.5123
3073.00,0.5162
3072.00,0.5202
3071.00,0.5241
3070.00,0.5281
3069.00,0.5321
3068.00,0.5361
3067.00,0.5400
3066.00,0.5440
3065.00,0.5479
3064.00,0.5517
3063.00,0.5554
3062.00,0.5590
3061.00,0.5624
3060.00,0.5657
3059.00,0.5689
3058.00,0.5720
3057.00,0.5752
3056.00,0.5784
3055.00,0.5817
3054.00,0.5850
3053.00,0.5884
3052.00,0.5919
3051.00,0.5955
3050.00,0.5994
3049.00,0.6034
3048.00,0.6075
3047.00,0.6116
3046.00,0.6157
3045.00,0.6200
3044.00,0.6244
3043.00,0.6289
3042.00,0.6334
3041.00,0.6380
3040.00,0.6426
3039.00,0.6475
3038.00,0.6526
3037.00,0.6581
3036.00,0.6639
3035.00,0.6700
3034.00,0.6764
3033.00,0.6831
3032.00,0.6902
3031.00,0.6976
3030.00,0.7052
3029.00,0.7130
3028.00,0.7210
3027.00,0.7293
3026.00,0.7377
3025.00,0.7463
3024.00,0.7552
3023.00,0.7645
3022.00,0.7743
3021.00,0.7844
3020.00,0.7947
3019.00,0.8052
3018.00,0.8159
3017.00,0.8268
3016.00,0.8380
3015.00,0.8497
3014.00,0.8618
3013.00,0.8745
3012.00,0.8878
3011.00,0.9018
3010.00,0.9166
3009.00,0.9323
3008.00,0.9489
3007.00,0.9663
3006.00,0.9844
3005.00,1.0032
3004.00,1.0227
3003.00,1.0430
3002.00,1.0642
3001.00,1.0866
3000.00,1.1100
2999.00,1.1348
2998.00,1.1610
2997.00,1.1892
2996.00,1.2197
2995.00,1.2529
2994.00,1.2892
2993.00,1.3291
2992.00,1.3727
2991.00,1.4207
2990.00,1.4736
2989.00,1.5320
2988.00,1.5967
2987.00,1.6681
2986.00,1.7471
2985.00,1.8342
2984.00,1.9302
2983.00,2.0361
2982.00,2.1528
2981.00,2.2815
2980.00,2.4234
2979.00,2.5807
2978.00,2.7562
2977.00,2.9549
2976.00,3.1894
2975.00,3.4778
2974.00,3.7601
2973.00,3.8402
2972.00,3.7774
2971.00,3.7364
2970.00,3.7596
2969.00,3.7926
2968.00,3.8612
2967.00,3.9353
2966.00,3.9287
2965.00,3.8632
2964.00,3.8297
2963.00,3.8939
2962.00,4.0336
2961.00,4.1128
2960.00,4.0405
2959.00,3.9268
2958.00,3.8556
2957.00,3.8278
2956.00,3.8707
2955.00,4.0379
2954.00,4.3444
2953.00,4.5210
2952.00,4.5977
2951.00,4.7131
2950.00,4.4975
2949.00,4.1923
2948.00,4.0110
2947.00,4.0472
2946.00,4.1991
2945.00,4.4698
2944.00,4.5444
2943.00,4.3217
2942.00,4.1811
2941.00,4.1706
2940.00,4.2156
2939.00,4.3937
2938.00,4.4193
2937.00,4.1490
2936.00,3.9358
2935.00,3.8972
2934.00,4.0026
2933.00,4.1191
2932.00,4.4076
2931.00,4.3364
2930.00,4.0249
2929.00,3.8315
2928.00,3.8267
2927.00,3.8807
2926.00,3.8451
2925.00,3.8049
2924.00,3.8342
2923.00,3.9797
2922.00,4.2635
2921.00,4.1991
2920.00,3.9989
2919.00,3.8693
2918.00,3.8782
2917.00,3.9394
2916.00,4.0458
2915.00,4.1491
2914.00,4.1658
2913.00,4.1855
2912.00,4.2462
2911.00,4.2699
2910.00,4.1584
2909.00,4.0621
2908.00,4.0675
2907.00,4.2435
2906.00,4.2648
2905.00,4.1031
2904.00,3.9964
2903.00,4.0318
2902.00,4.0392
2901.00,3.9520
2900.00,3.8754
2899.00,3.8099
2898.00,3.7547
2897.00,3.7469
2896.00,3.8126
2895.00,3.9591
2894.00,4.1532
2893.00,4.2977
2892.00,4.3496
2891.00,4.4083
2890.00,4.5070
2889.00,4.3657
2888.00,4.1464
2887.00,4.0163
2886.00,3.9900
2885.00,3.9982
2884.00,4.0374
2883.00,4.2166
2882.00,4.5626
2881.00,4.3393
2880.00,4.1499
2879.00,4.0942
2878.00,4.2886
2877.00,4.2644
2876.00,4.1596
2875.00,4.1954
2874.00,4.4782
2873.00,4.1969
2872.00,3.9872
2871.00,3.8836
2870.00,3.9613
2869.00,3.9956
2868.00,3.9951
2867.00,3.9434
2866.00,3.8991
2865.00,3.9168
2864.00,3.9192
2863.00,3.8911
2862.00,3.8601
2861.00,3.8860
2860.00,3.9577
2859.00,4.0803
2858.00,4.2209
2857.00,4.2361
2856.00,4.2079
2855.00,4.2524
2854.00,4.2174
2853.00,4.0936
2852.00,4.0087
2851.00,4.0522
2850.00,4.2781
2849.00,4.2654
2848.00,4.1213
2847.00,4.0875
2846.00,4.3040
2845.00,4.4276
2844.00,4.2867
2843.00,4.1864
2842.00,4.1835
2841.00,4.1194
2840.00,3.9144
2839.00,3.6801
2838.00,3.4598
2837.00,3.2559
2836.00,3.0559
2835.00,2.8662
2834.00,2.6875
2833.00,2.5192
2832.00,2.3647
2831.00,2.2263
2830.00,2.1034
2829.00,1.9937
2828.00,1.8954
2827.00,1.8074
2826.00,1.7284
2825.00,1.6575
2824.00,1.5934
2823.00,1.5353
2822.00,1.4821
2821.00,1.4327
2820.00,1.3867
2819.00,1.3440
2818.00,1.3044
2817.00,1.2676
2816.00,1.2335
2815.00,1.2019
2814.00,1.1724
2813.00,1.1444
2812.00,1.1177
2811.00,1.0923
2810.00,1.0682
2809.00,1.0451
2808.00,1.0230
2807.00,1.0019
2806.00,0.9817
2805.00,0.9623
2804.00,0.9437
2803.00,0.9260
2802.00,0.9091
2801.00,0.8929
2800.00,0.8774
2799.00,0.8625
2798.00,0.8482
2797.00,0.8345
2796.00,0.8213
2795.00,0.8085
2794.00,0.7963
2793.00,0.7845
2792.00,0.7730
2791.00,0.7619
2790.00,0.7511
2789.00,0.7404
2788.00,0.7299
2787.00,0.7197
2786.00,0.7097
2785.00,0.6999
2784.00,0.6903
2783.00,0.6811
2782.00,0.6721
2781.00,0.6634
2780.00,0.6551
2779.00,0.6471
2778.00,0.6395
2777.00,0.6323
2776.00,0.6254
2775.00,0.6189
2774.00,0.6129
2773.00,0.6072
2772.00,0.6020
2771.00,0.5972
2770.00,0.5928
2769.00,0.5888
2768.00,0.5852
2767.00,0.5820
2766.00,0.5792
2765.00,0.5767
2764.00,0.5746
2763.00,0.5728
2762.00,0.5712
2761.00,0.5698
2760.00,0.5684
2759.00,0.5670
2758.00,0.5658
2757.00,0.5646
2756.00,0.5635
2755.00,0.5626
2754.00,0.5619
2753.00,0.5613
2752.00,0.5610
2751.00,0.5609
2750.00,0.5609
2749.00,0.5612
2748.00,0.5616
2747.00,0.5622
2746.00,0.5630
2745.00,0.5642
2744.00,0.5656
2743.00,0.5673
2742.00,0.5693
2741.00,0.5716
2740.00,0.5743
2739.00,0.5775
2738.00,0.5811
2737.00,0.5853
2736.00,0.5899
2735.00,0.5947
2734.00,0.5997
2733.00,0.6046
2732.00,0.6089
2731.00,0.6124
2730.00,0.6148
2729.00,0.6160
2728.00,0.6158
2727.00,0.6145
2726.00,0.6126
2725.00,0.6102
2724.00,0.6075
2723.00,0.6046
2722.00,0.6016
2721.00,0.5985
2720.00,0.5952
2719.00,0.5916
2718.00,0.5879
2717.00,0.5841
2716.00,0.5800
2715.00,0.5758
2714.00,0.5717
2713.00,0.5676
2712.00,0.5636
2711.00,0.5600
2710.00,0.5567
2709.00,0.5538
2708.00,0.5512
2707.00,0.5490
2706.00,0.5472
2705.00,0.5457
2704.00,0.5445
2703.00,0.5435
2702.00,0.5429
2701.00,0.5424
2700.00,0.5422
2699.00,0.5423
2698.00,0.5427
2697.00,0.5433
2696.00,0.5442
2695.00,0.5453
2694.00,0.5465
2693.00,0.5478
2692.00,0.5492
2691.00,0.5505
2690.00,0.5519
2689.00,0.5532
2688.00,0.5544
2687.00,0.5554
2686.00,0.5563
2685.00,0.5571
2684.00,0.5578
2683.00,0.5584
2682.00,0.5588
2681.00,0.5590
2680.00,0.5591
2679.00,0.5592
2678.00,0.5594
2677.00,0.5596
2676.00,0.5598
2675.00,0.5600
2674.00,0.5601
2673.00,0.5602
2672.00,0.5600
2671.00,0.5596
2670.00,0.5588
2669.00,0.5577
2668.00,0.5562
2667.00,0.5544
2666.00,0.5523
2665.00,0.5501
2664.00,0.5476
2663.00,0.5451
2662.00,0.5426
2661.00,0.5401
2660.00,0.5376
2659.00,0.5352
2658.00,0.5329
2657.00,0.5306
2656.00,0.5284
2655.00,0.5262
2654.00,0.5241
2653.00,0.5221
2652.00,0.5203
2651.00,0.5185
2650.00,0.5168
2649.00,0.5151
2648.00,0.5134
2647.00,0.5118
2646.00,0.5102
2645.00,0.5086
2644.00,0.5070
2643.00,0.5056
2642.00,0.5043
2641.00,0.5030
2640.00,0.5018
2639.00,0.5007
2638.00,0.4995
2637.00,0.4983
2636.00,0.4973
2635.00,0.4963
2634.00,0.4953
2633.00,0.4944
2632.00,0.4934
2631.00,0.4924
2630.00,0.4914
2629.00,0.4904
2628.00,0.4895
2627.00,0.4885
2626.00,0.4875
2625.00,0.4865
2624.00,0.4854
2623.00,0.4842
2622.00,0.4830
2621.00,0.4818
2620.00,0.4807
2619.00,0.4796
2618.00,0.4785
2617.00,0.4775
2616.00,0.4764
2615.00,0.4754
2614.00,0.4744
2613.00,0.4734
2612.00,0.4724
2611.00,0.4713
2610.00,0.4703
2609.00,0.4692
2608.00,0.4681
2607.00,0.4671
2606.00,0.4660
2605.00,0.4650
2604.00,0.4639
2603.00,0.4628
2602.00,0.4617
2601.00,0.4605
2600.00,0.4592
2599.00,0.4578
2598.00,0.4563
2597.00,0.4548
2596.00,0.4532
2595.00,0.4516
2594.00,0.4500
2593.00,0.4483
2592.00,0.4466
2591.00,0.4449
2590.00,0.4433
2589.00,0.4416
2588.00,0.4399
2587.00,0.4381
2586.00,0.4364
2585.00,0.4347
2584.00,0.4330
2583.00,0.4312
2582.00,0.4295
2581.00,0.4277
2580.00,0.4258
2579.00,0.4240
2578.00,0.4222
2577.00,0.4205
2576.00,0.4188
2575.00,0.4172
2574.00,0.4157
2573.00,0.4142
2572.00,0.4127
2571.00,0.4113
2570.00,0.4099
2569.00,0.4086
2568.00,0.4072
2567.00,0.4059
2566.00,0.4046
2565.00,0.4032
2564.00,0.4018
2563.00,0.4004
2562.00,0.3989
2561.00,0.3975
2560.00,0.3961
2559.00,0.3947
2558.00,0.3933
2557.00,0.3919
2556.00,0.3906
2555.00,0.3894
2554.00,0.3882
2553.00,0.3871
2552.00,0.3859
2551.00,0.3848
2550.00,0.3838
2549.00,0.3828
2548.00,0.3818
2547.00,0.3808
2546.00,0.3799
2545.00,0.3790
2544.00,0.3781
2543.00,0.3772
2542.00,0.3764
2541.00,0.3756
2540.00,0.3748
2539.00,0.3741
2538.00,0.3734
2537.00,0.3728
2536.00,0.3722
2535.00,0.3716
2534.00,0.3709
2533.00,0.3702
2532.00,0.3694
2531.00,0.3686
2530.00,0.3677
2529.00,0.3668
2528.00,0.3658
2527.00,0.3647
2526.00,0.3635
2525.00,0.3623
2524.00,0.3611
2523.00,0.3599
2522.00,0.3587
2521.00,0.3576
2520.00,0.3565
2519.00,0.3555
2518.00,0.3545
2517.00,0.3535
2516.00,0.3526
2515.00,0.3517
2514.00,0.3508
2513.00,0.3499
2512.00,0.3491
2511.00,0.3483
2510.00,0.3475
2509.00,0.3467
2508.00,0.3460
2507.00,0.3453
2506.00,0.3448
2505.00,0.3443
2504.00,0.3439
2503.00,0.3435
2502.00,0.3432
2501.00,0.3428
2500.00,0.3426
2499.00,0.3423
2498.00,0.3422
2497.00,0.3420
2496.00,0.3418
2495.00,0.3416
2494.00,0.3412
2493.00,0.3408
2492.00,0.3404
2491.00,0.3399
2490.00,0.3394
2489.00,0.3389
2488.00,0.3383
2487.00,0.3377
2486.00,0.3371
2485.00,0.3365
2484.00,0.3359
2483.00,0.3353
2482.00,0.3347
2481.00,0.3341
2480.00,0.3335
2479.00,0.3328
2478.00,0.3322
2477.00,0.3317
2476.00,0.3312
2475.00,0.3307
2474.00,0.3302
2473.00,0.3298
2472.00,0.3295
2471.00,0.3291
2470.00,0.3287
2469.00,0.3284
2468.00,0.3281
2467.00,0.3279
2466.00,0.3276
2465.00,0.3274
2464.00,0.3271
2463.00,0.3269
2462.00,0.3266
2461.00,0.3264
2460.00,0.3262
2459.00,0.3260
2458.00,0.3258
2457.00,0.3256
2456.00,0.3255
2455.00,0.3254
2454.00,0.3253
2453.00,0.3252
2452.00,0.3251
2451.00,0.3250
2450.00,0.3249
2449.00,0.3248
2448.00,0.3247
2447.00,0.3246
2446.00,0.3246
2445.00,0.3245
2444.00,0.3245
2443.00,0.3245
2442.00,0.3245
2441.00,0.3245
2440.00,0.3245
2439.00,0.3246
2438.00,0.3246
2437.00,0.3247
2436.00,0.3247
2435.00,0.3248
2434.00,0.3249
2433.00,0.3250
2432.00,0.3251
2431.00,0.3253
2430.00,0.3254
2429.00,0.3256
2428.00,0.3258
2427.00,0.3259
2426.00,0.3261
2425.00,0.3262
2424.00,0.3264
2423.00,0.3266
2422.00,0.3267
2421.00,0.3268
2420.00,0.3270
2419.00,0.3271
2418.00,0.3272
2417.00,0.3272
2416.00,0.3273
2415.00,0.3273
2414.00,0.3273
2413.00,0.3274
2412.00,0.3274
2411.00,0.3275
2410.00,0.3275
2409.00,0.3275
2408.00,0.3276
2407.00,0.3276
2406.00,0.3276
2405.00,0.3276
2404.00,0.3276
2403.00,0.3276
2402.00,0.3276
2401.00,0.3276
2400.00,0.3276
2399.00,0.3276
2398.00,0.3277
2397.00,0.3277
2396.00,0.3278
2395.00,0.3278
2394.00,0.3279
2393.00,0.3279
2392.00,0.3280
2391.00,0.3281
2390.00,0.3281
2389.00,0.3283
2388.00,0.3284
2387.00,0.3286
2386.00,0.3288
2385.00,0.3290
2384.00,0.3292
2383.00,0.3294
2382.00,0.3297
2381.00,0.3300
2380.00,0.3303
2379.00,0.3306
2378.00,0.3309
2377.00,0.3312
2376.00,0.3314
2375.00,0.3314
2374.00,0.3313
2373.00,0.3311
2372.00,0.3309
2371.00,0.3307
2370.00,0.3305
2369.00,0.3304
2368.00,0.3303
2367.00,0.3304
2366.00,0.3304
2365.00,0.3305
2364.00,0.3305
2363.00,0.3304
2362.00,0.3304
2361.00,0.3304
2360.00,0.3304
2359.00,0.3303
2358.00,0.3302
2357.00,0.3301
2356.00,0.3299
2355.00,0.3297
2354.00,0.3296
2353.00,0.3296
2352.00,0.3296
2351.00,0.3294
2350.00,0.3293
2349.00,0.3291
2348.00,0.3290
2347.00,0.3291
2346.00,0.3293
2345.00,0.3294
2344.00,0.3293
2343.00,0.3290
2342.00,0.3285
2341.00,0.3280
2340.00,0.3277
2339.00,0.3274
2338.00,0.3272
2337.00,0.3270
2336.00,0.3268
2335.00,0.3266
2334.00,0.3263
2333.00,0.3261
2332.00,0.3259
2331.00,0.3257
2330.00,0.3254
2329.00,0.3251
2328.00,0.3247
2327.00,0.3244
2326.00,0.3240
2325.00,0.3238
2324.00,0.3235
2323.00,0.3233
2322.00,0.3230
2321.00,0.3227
2320.00,0.3223
2319.00,0.3219
2318.00,0.3214
2317.00,0.3210
2316.00,0.3207
2315.00,0.3205
2314.00,0.3203
2313.00,0.3200
2312.00,0.3198
2311.00,0.3194
2310.00,0.3189
2309.00,0.3184
2308.00,0.3179
2307.00,0.3174
2306.00,0.3170
2305.00,0.3165
2304.00,0.3161
2303.00,0.3157
2302.00,0.3154
2301.00,0.3151
2300.00,0.3149
2299.00,0.3146
2298.00,0.3144
2297.00,0.3142
2296.00,0.3139
2295.00,0.3137
2294.00,0.3134
2293.00,0.3131
2292.00,0.3127
2291.00,0.3122
2290.00,0.3117
2289.00,0.3113
2288.00,0.3109
2287.00,0.3106
2286.00,0.3101
2285.00,0.3097
2284.00,0.3093
2283.00,0.3088
2282.00,0.3084
2281.00,0.3080
2280.00,0.3076
2279.00,0.3071
2278.00,0.3067
2277.00,0.3063
2276.00,0.3059
2275.00,0.3055
2274.00,0.3052
2273.00,0.3050
2272.00,0.3048
2271.00,0.3047
2270.00,0.3045
2269.00,0.3044
2268.00,0.3043
2267.00,0.3042
2266.00,0.3040
2265.00,0.3040
2264.00,0.3039
2263.00,0.3038
2262.00,0.3036
2261.00,0.3034
2260.00,0.3032
2259.00,0.3029
2258.00,0.3026
2257.00,0.3023
2256.00,0.3020
2255.00,0.3016
2254.00,0.3012
2253.00,0.3008
2252.00,0.3004
2251.00,0.3001
2250.00,0.2998
2249.00,0.2996
2248.00,0.2993
2247.00,0.2990
2246.00,0.2987
2245.00,0.2984
2244.00,0.2981
2243.00,0.2978
2242.00,0.2976
2241.00,0.2973
2240.00,0.2971
2239.00,0.2969
2238.00,0.2968
2237.00,0.2966
2236.00,0.2965
2235.00,0.2964
2234.00,0.2963
2233.00,0.2961
2232.00,0.2960
2231.00,0.2959
2230.00,0.2958
2229.00,0.2958
2228.00,0.2957
2227.00,0.2956
2226.00,0.2955
2225.00,0.2953
2224.00,0.2952
2223.00,0.2952
2222.00,0.2951
2221.00,0.2950
2220.00,0.2948
2219.00,0.2947
2218.00,0.2946
2217.00,0.2945
2216.00,0.2944
2215.00,0.2942
2214.00,0.2940
2213.00,0.2939
2212.00,0.2937
2211.00,0.2936
2210.00,0.2936
2209.00,0.2935
2208.00,0.2936
2207.00,0.2936
2206.00,0.2936
2205.00,0.2936
2204.00,0.2936
2203.00,0.2937
2202.00,0.2938
2201.00,0.2939
2200.00,0.2940
2199.00,0.2941
2198.00,0.2941
2197.00,0.2942
2196.00,0.2943
2195.00,0.2945
2194.00,0.2946
2193.00,0.2947
2192.00,0.2948
2191.00,0.2949
2190.00,0.2950
2189.00,0.2951
2188.00,0.2952
2187.00,0.2953
2186.00,0.2953
2185.00,0.2954
2184.00,0.2953
2183.00,0.2951
2182.00,0.2949
2181.00,0.2948
2180.00,0.2947
2179.00,0.2946
2178.00,0.2945
2177.00,0.2944
2176.00,0.2942
2175.00,0.2941
2174.00,0.2940
2173.00,0.2939
2172.00,0.2939
2171.00,0.2938
2170.00,0.2938
2169.00,0.2938
2168.00,0.2938
2167.00,0.2938
2166.00,0.2938
2165.00,0.2938
2164.00,0.2939
2163.00,0.2939
2162.00,0.2939
2161.00,0.2938
2160.00,0.2937
2159.00,0.2936
2158.00,0.2934
2157.00,0.2933
2156.00,0.2932
2155.00,0.2930
2154.00,0.2929
2153.00,0.2928
2152.00,0.2926
2151.00,0.2924
2150.00,0.2921
2149.00,0.2918
2148.00,0.2914
2147.00,0.2910
2146.00,0.2904
2145.00,0.2898
2144.00,0.2893
2143.00,0.2887
2142.00,0.2881
2141.00,0.2875
2140.00,0.2870
2139.00,0.2864
2138.00,0.2859
2137.00,0.2855
2136.00,0.2851
2135.00,0.2848
2134.00,0.2845
2133.00,0.2843
2132.00,0.2841
2131.00,0.2839
2130.00,0.2836
2129.00,0.2835
2128.00,0.2833
2127.00,0.2832
2126.00,0.2830
2125.00,0.2829
2124.00,0.2828
2123.00,0.2828
2122.00,0.2827
2121.00,0.2827
2120.00,0.2826
2119.00,0.2825
2118.00,0.2824
2117.00,0.2823
2116.00,0.2822
2115.00,0.2821
2114.00,0.2819
2113.00,0.2818
2112.00,0.2816
2111.00,0.2815
2110.00,0.2813
2109.00,0.2811
2108.00,0.2810
2107.00,0.2808
2106.00,0.2807
2105.00,0.2806
2104.00,0.2805
2103.00,0.2804
2102.00,0.2803
2101.00,0.2802
2100.00,0.2802
2099.00,0.2801
2098.00,0.2800
2097.00,0.2800
2096.00,0.2800
2095.00,0.2799
2094.00,0.2799
2093.00,0.2798
2092.00,0.2798
2091.00,0.2798
2090.00,0.2798
2089.00,0.2799
2088.00,0.2799
2087.00,0.2800
2086.00,0.2800
2085.00,0.2800
2084.00,0.2800
2083.00,0.2800
2082.00,0.2800
2081.00,0.2800
2080.00,0.2800
2079.00,0.2799
2078.00,0.2799
2077.00,0.2799
2076.00,0.2799
2075.00,0.2800
2074.00,0.2800
2073.00,0.2800
2072.00,0.2801
2071.00,0.2801
2070.00,0.2801
2069.00,0.2802
2068.00,0.2804
2067.00,0.2805
2066.00,0.2807
2065.00,0.2809
2064.00,0.2812
2063.00,0.2814
2062.00,0.2816
2061.00,0.2818
2060.00,0.2820
2059.00,0.2822
2058.00,0.2824
2057.00,0.2826
2056.00,0.2828
2055.00,0.2830
2054.00,0.2832
2053.00,0.2834
2052.00,0.2836
2051.00,0.2839
2050.00,0.2842
2049.00,0.2844
2048.00,0.2847
2047.00,0.2850
2046.00,0.2852
2045.00,0.2855
2044.00,0.2858
2043.00,0.2860
2042.00,0.2862
2041.00,0.2864
2040.00,0.2867
2039.00,0.2868
2038.00,0.2869
2037.00,0.2870
2036.00,0.2870
2035.00,0.2871
2034.00,0.2871
2033.00,0.2872
2032.00,0.2873
2031.00,0.2874
2030.00,0.2875
2029.00,0.2876
2028.00,0.2876
2027.00,0.2877
2026.00,0.2877
2025.00,0.2877
2024.00,0.2876
2023.00,0.2874
2022.00,0.2871
2021.00,0.2867
2020.00,0.2862
2019.00,0.2856
2018.00,0.2848
2017.00,0.2840
2016.00,0.2833
2015.00,0.2825
2014.00,0.2817
2013.00,0.2809
2012.00,0.2801
2011.00,0.2793
2010.00,0.2786
2009.00,0.2780
2008.00,0.2774
2007.00,0.2769
2006.00,0.2765
2005.00,0.2761
2004.00,0.2758
2003.00,0.2755
2002.00,0.2753
2001.00,0.2750
2000.00,0.2747
1999.00,0.2745
1998.00,0.2743
1997.00,0.2743
1996.00,0.2743
1995.00,0.2742
1994.00,0.2742
1993.00,0.2741
1992.00,0.2740
1991.00,0.2740
1990.00,0.2740
1989.00,0.2739
1988.00,0.2738
1987.00,0.2737
1986.00,0.2737
1985.00,0.2736
1984.00,0.2735
1983.00,0.2733
1982.00,0.2732
1981.00,0.2732
1980.00,0.2732
1979.00,0.2731
1978.00,0.2730
1977.00,0.2730
1976.00,0.2729
1975.00,0.2729
1974.00,0.2729
1973.00,0.2730
1972.00,0.2730
1971.00,0.2730
1970.00,0.2730
1969.00,0.2730
1968.00,0.2729
1967.00,0.2729
1966.00,0.2730
1965.00,0.2732
1964.00,0.2734
1963.00,0.2734
1962.00,0.2735
1961.00,0.2736
1960.00,0.2737
1959.00,0.2739
1958.00,0.2740
1957.00,0.2742
1956.00,0.2744
1955.00,0.2746
1954.00,0.2748
1953.00,0.2750
1952.00,0.2751
1951.00,0.2752
1950.00,0.2753
1949.00,0.2754
1948.00,0.2755
1947.00,0.2756
1946.00,0.2757
1945.00,0.2760
1944.00,0.2763
1943.00,0.2767
1942.00,0.2772
1941.00,0.2778
1940.00,0.2784
1939.00,0.2787
1938.00,0.2787
1937.00,0.2788
1936.00,0.2788
1935.00,0.2788
1934.00,0.2789
1933.00,0.2789
1932.00,0.2790
1931.00,0.2791
1930.00,0.2791
1929.00,0.2791
1928.00,0.2791
1927.00,0.2790
1926.00,0.2789
1925.00,0.2789
1924.00,0.2789
1923.00,0.2790
1922.00,0.2794
1921.00,0.2799
1920.00,0.2804
1919.00,0.2808
1918.00,0.2811
1917.00,0.2808
1916.00,0.2811
1915.00,0.2813
1914.00,0.2815
1913.00,0.2817
1912.00,0.2817
1911.00,0.2816
1910.00,0.2816
1909.00,0.2816
1908.00,0.2818
1907.00,0.2820
1906.00,0.2820
1905.00,0.2820
1904.00,0.2819
1903.00,0.2818
1902.00,0.2818
1901.00,0.2817
1900.00,0.2816
1899.00,0.2816
1898.00,0.2815
1897.00,0.2815
1896.00,0.2815
1895.00,0.2816
1894.00,0.2818
1893.00,0.2820
1892.00,0.2822
1891.00,0.2823
1890.00,0.2825
1889.00,0.2827
1888.00,0.2829
1887.00,0.2831
1886.00,0.2835
1885.00,0.2835
1884.00,0.2835
1883.00,0.2836
1882.00,0.2837
1881.00,0.2838
1880.00,0.2837
1879.00,0.2836
1878.00,0.2835
1877.00,0.2834
1876.00,0.2833
1875.00,0.2831
1874.00,0.2829
1873.00,0.2827
1872.00,0.2826
1871.00,0.2823
1870.00,0.2819
1869.00,0.2814
1868.00,0.2811
1867.00,0.2810
1866.00,0.2809
1865.00,0.2806
1864.00,0.2803
1863.00,0.2800
1862.00,0.2796
1861.00,0.2794
1860.00,0.2792
1859.00,0.2790
1858.00,0.2788
1857.00,0.2786
1856.00,0.2783
1855.00,0.2781
1854.00,0.2778
1853.00,0.2776
1852.00,0.2775
1851.00,0.2774
1850.00,0.2773
1849.00,0.2771
1848.00,0.2770
1847.00,0.2767
1846.00,0.2765
1845.00,0.2763
1844.00,0.2761
1843.00,0.2760
1842.00,0.2759
1841.00,0.2759
1840.00,0.2759
1839.00,0.2758
1838.00,0.2757
1837.00,0.2757
1836.00,0.2757
1835.00,0.2756
1834.00,0.2755
1833.00,0.2755
1832.00,0.2755
1831.00,0.2755
1830.00,0.2754
1829.00,0.2753
1828.00,0.2754
1827.00,0.2755
1826.00,0.2756
1825.00,0.2757
1824.00,0.2758
1823.00,0.2759
1822.00,0.2760
1821.00,0.2765
1820.00,0.2764
1819.00,0.2765
1818.00,0.2765
1817.00,0.2767
1816.00,0.2769
1815.00,0.2770
1814.00,0.2771
1813.00,0.2771
1812.00,0.2772
1811.00,0.2773
1810.00,0.2776
1809.00,0.2781
1808.00,0.2787
1807.00,0.2793
1806.00,0.2799
1805.00,0.2806
1804.00,0.2815
1803.00,0.2824
1802.00,0.2832
1801.00,0.2839
1800.00,0.2845
1799.00,0.2850
1798.00,0.2855
1797.00,0.2861
1796.00,0.2866
1795.00,0.2872
1794.00,0.2878
1793.00,0.2885
1792.00,0.2881
1791.00,0.2886
1790.00,0.2892
1789.00,0.2899
1788.00,0.2905
1787.00,0.2910
1786.00,0.2915
1785.00,0.2919
1784.00,0.2924
1783.00,0.2928
1782.00,0.2933
1781.00,0.2937
1780.00,0.2942
1779.00,0.2946
1778.00,0.2951
1777.00,0.2957
1776.00,0.2962
1775.00,0.2967
1774.00,0.2973
1773.00,0.2977
1772.00,0.2983
1771.00,0.2994
1770.00,0.3006
1769.00,0.3015
1768.00,0.3021
1767.00,0.3026
1766.00,0.3030
1765.00,0.3032
1764.00,0.3036
1763.00,0.3043
1762.00,0.3052
1761.00,0.3064
1760.00,0.3076
1759.00,0.3086
1758.00,0.3094
1757.00,0.3106
1756.00,0.3122
1755.00,0.3142
1754.00,0.3163
1753.00,0.3189
1752.00,0.3222
1751.00,0.3262
1750.00,0.3306
1749.00,0.3355
1748.00,0.3413
1747.00,0.3480
1746.00,0.3553
1745.00,0.3628
1744.00,0.3702
1743.00,0.3767
1742.00,0.3819
1741.00,0.3851
1740.00,0.3862
1739.00,0.3852
1738.00,0.3830
1737.00,0.3802
1736.00,0.3766
1735.00,0.3717
1734.00,0.3661
1733.00,0.3612
1732.00,0.3569
1731.00,0.3526
1730.00,0.3488
1729.00,0.3462
1728.00,0.3446
1727.00,0.3436
1726.00,0.3429
1725.00,0.3427
1724.00,0.3429
1723.00,0.3434
1722.00,0.3443
1721.00,0.3455
1720.00,0.3469
1719.00,0.3482
1718.00,0.3496
1717.00,0.3515
1716.00,0.3538
1715.00,0.3556
1714.00,0.3572
1713.00,0.3588
1712.00,0.3606
1711.00,0.3625
1710.00,0.3645
1709.00,0.3666
1708.00,0.3684
1707.00,0.3695
1706.00,0.3700
1705.00,0.3702
1704.00,0.3703
1703.00,0.3702
1702.00,0.3695
1701.00,0.3673
1700.00,0.3641
1699.00,0.3612
1698.00,0.3583
1697.00,0.3554
1696.00,0.3530
1695.00,0.3517
1694.00,0.3507
1693.00,0.3492
1692.00,0.3476
1691.00,0.3464
1690.00,0.3459
1689.00,0.3459
1688.00,0.3465
1687.00,0.3471
1686.00,0.3475
1685.00,0.3471
1684.00,0.3464
1683.00,0.3467
1682.00,0.3467
1681.00,0.3457
1680.00,0.3448
1679.00,0.3447
1678.00,0.3453
1677.00,0.3465
1676.00,0.3478
1675.00,0.3490
1674.00,0.3501
1673.00,0.3509
1672.00,0.3513
1671.00,0.3518
1670.00,0.3527
1669.00,0.3545
1668.00,0.3567
1667.00,0.3584
1666.00,0.3596
1665.00,0.3610
1664.00,0.3627
1663.00,0.3648
1662.00,0.3674
1661.00,0.3703
1660.00,0.3724
1659.00,0.3753
1658.00,0.3781
1657.00,0.3809
1656.00,0.3838
1655.00,0.3868
1654.00,0.3903
1653.00,0.3943
1652.00,0.3983
1651.00,0.4015
1650.00,0.4045
1649.00,0.4079
1648.00,0.4117
1647.00,0.4159
1646.00,0.4202
1645.00,0.4246
1644.00,0.4290
1643.00,0.4331
1642.00,0.4372
1641.00,0.4414
1640.00,0.4456
1639.00,0.4491
1638.00,0.4530
1637.00,0.4572
1636.00,0.4621
1635.00,0.4677
1634.00,0.4729
1633.00,0.4768
1632.00,0.4800
1631.00,0.4833
1630.00,0.4872
1629.00,0.4918
1628.00,0.4971
1627.00,0.5028
1626.00,0.5088
1625.00,0.5153
1624.00,0.5225
1623.00,0.5305
1622.00,0.5393
1621.00,0.5487
1620.00,0.5583
1619.00,0.5688
1618.00,0.5813
1617.00,0.5970
1616.00,0.6154
1615.00,0.6342
1614.00,0.6525
1613.00,0.6724
1612.00,0.6954
1611.00,0.7209
1610.00,0.7475
1609.00,0.7740
1608.00,0.7993
1607.00,0.8217
1606.00,0.8413
1605.00,0.8607
1604.00,0.8823
1603.00,0.9070
1602.00,0.9361
1601.00,0.9718
1600.00,1.0154
1599.00,1.0664
1598.00,1.1256
1597.00,1.1974
1596.00,1.2867
1595.00,1.3952
1594.00,1.5248
1593.00,1.6832
1592.00,1.8817
1591.00,2.1212
1590.00,2.3895
1589.00,2.7024
1588.00,3.1504
1587.00,3.8096
1586.00,3.8713
1585.00,4.0273
1584.00,3.9224
1583.00,3.6447
1582.00,4.1505
1581.00,4.2715
1580.00,3.8193
1579.00,3.7741
1578.00,3.3628
1577.00,2.7702
1576.00,2.4415
1575.00,2.1870
1574.00,2.0002
1573.00,1.8720
1572.00,1.7860
1571.00,1.7305
1570.00,1.7090
1569.00,1.7333
1568.00,1.8064
1567.00,1.9202
1566.00,2.0721
1565.00,2.2787
1564.00,2.5643
1563.00,2.8989
1562.00,3.1134
1561.00,3.1531
1560.00,2.9728
1559.00,2.5264
1558.00,2.1536
1557.00,1.9021
1556.00,1.7026
1555.00,1.5225
1554.00,1.3685
1553.00,1.2513
1552.00,1.1671
1551.00,1.1053
1550.00,1.0608
1549.00,1.0338
1548.00,1.0234
1547.00,1.0253
1546.00,1.0359
1545.00,1.0528
1544.00,1.0723
1543.00,1.0882
1542.00,1.0944
1541.00,1.0872
1540.00,1.0658
1539.00,1.0354
1538.00,1.0039
1537.00,0.9751
1536.00,0.9481
1535.00,0.9195
1534.00,0.8887
1533.00,0.8598
1532.00,0.8361
1531.00,0.8166
1530.00,0.7995
1529.00,0.7848
1528.00,0.7720
1527.00,0.7602
1526.00,0.7493
1525.00,0.7407
1524.00,0.7352
1523.00,0.7328
1522.00,0.7343
1521.00,0.7408
1520.00,0.7508
1519.00,0.7606
1518.00,0.7693
1517.00,0.7769
1516.00,0.7812
1515.00,0.7786
1514.00,0.7680
1513.00,0.7509
1512.00,0.7302
1511.00,0.7090
1510.00,0.6902
1509.00,0.6751
1508.00,0.6632
1507.00,0.6546
1506.00,0.6512
1505.00,0.6520
1504.00,0.6536
1503.00,0.6556
1502.00,0.6588
1501.00,0.6641
1500.00,0.6713
1499.00,0.6794
1498.00,0.6889
1497.00,0.7009
1496.00,0.7156
1495.00,0.7311
1494.00,0.7467
1493.00,0.7640
1492.00,0.7843
1491.00,0.8064
1490.00,0.8277
1489.00,0.8465
1488.00,0.8630
1487.00,0.8791
1486.00,0.8980
1485.00,0.9222
1484.00,0.9518
1483.00,0.9866
1482.00,1.0280
1481.00,1.0775
1480.00,1.1347
1479.00,1.1992
1478.00,1.2745
1477.00,1.3661
1476.00,1.4768
1475.00,1.6068
1474.00,1.7641
1473.00,1.9684
1472.00,2.2366
1471.00,2.5633
1470.00,2.9394
1469.00,3.4364
1468.00,4.3217
1467.00,4.2017
1466.00,4.3279
1465.00,4.2551
1464.00,4.2012
1463.00,4.3531
1462.00,3.9228
1461.00,3.8597
1460.00,3.9204
1459.00,3.7636
1458.00,3.6179
1457.00,3.6382
1456.00,3.6951
1455.00,3.7436
1454.00,3.8465
1453.00,4.1818
1452.00,4.0577
1451.00,4.0073
1450.00,3.9897
1449.00,3.8267
1448.00,3.6988
1447.00,3.6629
1446.00,3.7171
1445.00,3.8868
1444.00,4.0422
1443.00,3.7824
1442.00,3.5324
1441.00,3.4413
1440.00,3.3444
1439.00,3.1536
1438.00,2.9363
1437.00,2.7154
1436.00,2.4896
1435.00,2.2849
1434.00,2.1140
1433.00,1.9659
1432.00,1.8281
1431.00,1.6993
1430.00,1.5853
1429.00,1.4893
1428.00,1.4106
1427.00,1.3470
1426.00,1.2952
1425.00,1.2530
1424.00,1.2196
1423.00,1.1951
1422.00,1.1783
1421.00,1.1673
1420.00,1.1609
1419.00,1.1594
1418.00,1.1638
1417.00,1.1748
1416.00,1.1924
1415.00,1.2163
1414.00,1.2447
1413.00,1.2743
1412.00,1.2999
1411.00,1.3160
1410.00,1.3191
1409.00,1.3093
1408.00,1.2877
1407.00,1.2555
1406.00,1.2143
1405.00,1.1669
1404.00,1.1175
1403.00,1.0701
1402.00,1.0268
1401.00,0.9878
1400.00,0.9530
1399.00,0.9237
1398.00,0.9009
1397.00,0.8842
1396.00,0.8721
1395.00,0.8632
1394.00,0.8571
1393.00,0.8544
1392.00,0.8570
1391.00,0.8672
1390.00,0.8874
1389.00,0.9207
1388.00,0.9709
1387.00,1.0394
1386.00,1.1231
1385.00,1.2174
1384.00,1.3214
1383.00,1.4386
1382.00,1.5730
1381.00,1.7278
1380.00,1.9028
1379.00,2.0812
1378.00,2.2148
1377.00,2.2488
1376.00,2.1777
1375.00,2.0395
1374.00,1.8811
1373.00,1.7376
1372.00,1.6220
1371.00,1.5338
1370.00,1.4699
1369.00,1.4284
1368.00,1.4044
1367.00,1.3872
1366.00,1.3625
1365.00,1.3202
1364.00,1.2598
1363.00,1.1904
1362.00,1.1243
1361.00,1.0694
1360.00,1.0271
1359.00,0.9955
1358.00,0.9724
1357.00,0.9566
1356.00,0.9475
1355.00,0.9443
1354.00,0.9456
1353.00,0.9500
1352.00,0.9564
1351.00,0.9644
1350.00,0.9749
1349.00,0.9898
1348.00,1.0110
1347.00,1.0384
1346.00,1.0678
1345.00,1.0908
1344.00,1.0978
1343.00,1.0841
1342.00,1.0531
1341.00,1.0133
1340.00,0.9719
1339.00,0.9331
1338.00,0.8983
1337.00,0.8670
1336.00,0.8391
1335.00,0.8145
1334.00,0.7933
1333.00,0.7757
1332.00,0.7617
1331.00,0.7512
1330.00,0.7442
1329.00,0.7405
1328.00,0.7398
1327.00,0.7413
1326.00,0.7440
1325.00,0.7471
1324.00,0.7500
1323.00,0.7527
1322.00,0.7555
1321.00,0.7586
1320.00,0.7624
1319.00,0.7668
1318.00,0.7717
1317.00,0.7768
1316.00,0.7822
1315.00,0.7883
1314.00,0.7951
1313.00,0.8029
1312.00,0.8112
1311.00,0.8197
1310.00,0.8279
1309.00,0.8353
1308.00,0.8410
1307.00,0.8443
1306.00,0.8444
1305.00,0.8418
1304.00,0.8374
1303.00,0.8324
1302.00,0.8277
1301.00,0.8238
1300.00,0.8206
1299.00,0.8174
1298.00,0.8134
1297.00,0.8086
1296.00,0.8033
1295.00,0.7982
1294.00,0.7933
1293.00,0.7882
1292.00,0.7818
1291.00,0.7734
1290.00,0.7629
1289.00,0.7513
1288.00,0.7398
1287.00,0.7295
1286.00,0.7206
1285.00,0.7135
1284.00,0.7087
1283.00,0.7071
1282.00,0.7095
1281.00,0.7163
1280.00,0.7262
1279.00,0.7360
1278.00,0.7408
1277.00,0.7369
1276.00,0.7247
1275.00,0.7077
1274.00,0.6904
1273.00,0.6758
1272.00,0.6648
1271.00,0.6573
1270.00,0.6523
1269.00,0.6488
1268.00,0.6456
1267.00,0.6419
1266.00,0.6375
1265.00,0.6327
1264.00,0.6282
1263.00,0.6244
1262.00,0.6215
1261.00,0.6196
1260.00,0.6188
1259.00,0.6190
1258.00,0.6202
1257.00,0.6220
1256.00,0.6241
1255.00,0.6268
1254.00,0.6300
1253.00,0.6332
1252.00,0.6356
1251.00,0.6365
1250.00,0.6356
1249.00,0.6333
1248.00,0.6300
1247.00,0.6262
1246.00,0.6221
1245.00,0.6180
1244.00,0.6142
1243.00,0.6111
1242.00,0.6086
1241.00,0.6061
1240.00,0.6031
1239.00,0.6001
1238.00,0.5981
1237.00,0.5982
1236.00,0.6010
1235.00,0.6063
1234.00,0.6134
1233.00,0.6211
1232.00,0.6284
1231.00,0.6340
1230.00,0.6364
1229.00,0.6345
1228.00,0.6279
1227.00,0.6170
1226.00,0.6034
1225.00,0.5889
1224.00,0.5754
1223.00,0.5639
1222.00,0.5546
1221.00,0.5475
1220.00,0.5422
1219.00,0.5385
1218.00,0.5365
1217.00,0.5360
1216.00,0.5369
1215.00,0.5389
1214.00,0.5413
1213.00,0.5432
1212.00,0.5444
1211.00,0.5446
1210.00,0.5439
1209.00,0.5420
1208.00,0.5391
1207.00,0.5358
1206.00,0.5330
1205.00,0.5316
1204.00,0.5326
1203.00,0.5366
1202.00,0.5437
1201.00,0.5526
1200.00,0.5613
1199.00,0.5673
1198.00,0.5696
1197.00,0.5691
1196.00,0.5684
1195.00,0.5697
1194.00,0.5736
1193.00,0.5795
1192.00,0.5863
1191.00,0.5925
1190.00,0.5963
1189.00,0.5965
1188.00,0.5934
1187.00,0.5877
1186.00,0.5807
1185.00,0.5732
1184.00,0.5657
1183.00,0.5587
1182.00,0.5524
1181.00,0.5471
1180.00,0.5430
1179.00,0.5400
1178.00,0.5383
1177.00,0.5377
1176.00,0.5383
1175.00,0.5402
1174.00,0.5431
1173.00,0.5469
1172.00,0.5513
1171.00,0.5557
1170.00,0.5597
1169.00,0.5627
1168.00,0.5649
1167.00,0.5667
1166.00,0.5685
1165.00,0.5707
1164.00,0.5735
1163.00,0.5770
1162.00,0.5807
1161.00,0.5839
1160.00,0.5857
1159.00,0.5860
1158.00,0.5850
1157.00,0.5834
1156.00,0.5819
1155.00,0.5807
1154.00,0.5796
1153.00,0.5784
1152.00,0.5768
1151.00,0.5747
1150.00,0.5723
1149.00,0.5697
1148.00,0.5673
1147.00,0.5651
1146.00,0.5633
1145.00,0.5619
1144.00,0.5613
1143.00,0.5618
1142.00,0.5638
1141.00,0.5671
1140.00,0.5718
1139.00,0.5779
1138.00,0.5854
1137.00,0.5943
1136.00,0.6044
1135.00,0.6146
1134.00,0.6230
1133.00,0.6270
1132.00,0.6252
1131.00,0.6183
1130.00,0.6089
1129.00,0.6006
1128.00,0.5956
1127.00,0.5947
1126.00,0.5963
1125.00,0.5976
1124.00,0.5961
1123.00,0.5913
1122.00,0.5846
1121.00,0.5782
1120.00,0.5740
1119.00,0.5729
1118.00,0.5747
1117.00,0.5783
1116.00,0.5819
1115.00,0.5836
1114.00,0.5815
1113.00,0.5750
1112.00,0.5649
1111.00,0.5531
1110.00,0.5416
1109.00,0.5322
1108.00,0.5255
1107.00,0.5219
1106.00,0.5214
1105.00,0.5236
1104.00,0.5282
1103.00,0.5345
1102.00,0.5420
1101.00,0.5495
1100.00,0.5558
1099.00,0.5590
1098.00,0.5583
1097.00,0.5539
1096.00,0.5477
1095.00,0.5414
1094.00,0.5363
1093.00,0.5325
1092.00,0.5294
1091.00,0.5269
1090.00,0.5247
1089.00,0.5231
1088.00,0.5225
1087.00,0.5230
1086.00,0.5251
1085.00,0.5287
1084.00,0.5342
1083.00,0.5413
1082.00,0.5498
1081.00,0.5590
1080.00,0.5678
1079.00,0.5753
1078.00,0.5800
1077.00,0.5810
1076.00,0.5780
1075.00,0.5717
1074.00,0.5632
1073.00,0.5538
1072.00,0.5447
1071.00,0.5365
1070.00,0.5293
1069.00,0.5228
1068.00,0.5168
1067.00,0.5115
1066.00,0.5071
1065.00,0.5035
1064.00,0.5008
1063.00,0.4988
1062.00,0.4973
1061.00,0.4958
1060.00,0.4938
1059.00,0.4912
1058.00,0.4881
1057.00,0.4848
1056.00,0.4815
1055.00,0.4784
1054.00,0.4753
1053.00,0.4724
1052.00,0.4698
1051.00,0.4678
1050.00,0.4663
1049.00,0.4655
1048.00,0.4652
1047.00,0.4652
1046.00,0.4653
1045.00,0.4652
1044.00,0.4649
1043.00,0.4646
1042.00,0.4645
1041.00,0.4648
1040.00,0.4654
1039.00,0.4663
1038.00,0.4671
1037.00,0.4680
1036.00,0.4692
1035.00,0.4714
1034.00,0.4749
1033.00,0.4797
1032.00,0.4855
1031.00,0.4920
1030.00,0.4986
1029.00,0.5044
1028.00,0.5084
1027.00,0.5096
1026.00,0.5074
1025.00,0.5020
1024.00,0.4943
1023.00,0.4856
1022.00,0.4771
1021.00,0.4697
1020.00,0.4639
1019.00,0.4595
1018.00,0.4564
1017.00,0.4542
1016.00,0.4528
1015.00,0.4521
1014.00,0.4517
1013.00,0.4513
1012.00,0.4508
1011.00,0.4507
1010.00,0.4514
1009.00,0.4529
1008.00,0.4546
1007.00,0.4559
1006.00,0.4567
1005.00,0.4572
1004.00,0.4576
1003.00,0.4583
1002.00,0.4594
1001.00,0.4606
1000.00,0.4617
999.00,0.4624
998.00,0.4624
997.00,0.4616
996.00,0.4602
995.00,0.4584
994.00,0.4568
993.00,0.4553
992.00,0.4541
991.00,0.4531
990.00,0.4522
989.00,0.4512
988.00,0.4497
987.00,0.4478
986.00,0.4458
985.00,0.4445
984.00,0.4447
983.00,0.4465
982.00,0.4500
981.00,0.4550
980.00,0.4618
979.00,0.4710
978.00,0.4839
977.00,0.5021
976.00,0.5277
975.00,0.5624
974.00,0.6075
973.00,0.6636
972.00,0.7297
971.00,0.8012
970.00,0.8681
969.00,0.9160
968.00,0.9308
967.00,0.9079
966.00,0.8558
965.00,0.7896
964.00,0.7226
963.00,0.6633
962.00,0.6161
961.00,0.5830
960.00,0.5642
959.00,0.5581
958.00,0.5614
957.00,0.5693
956.00,0.5767
955.00,0.5789
954.00,0.5734
953.00,0.5608
952.00,0.5439
951.00,0.5265
950.00,0.5113
949.00,0.4999
948.00,0.4927
947.00,0.4896
946.00,0.4899
945.00,0.4929
944.00,0.4977
943.00,0.5036
942.00,0.5097
941.00,0.5151
940.00,0.5189
939.00,0.5210
938.00,0.5213
937.00,0.5200
936.00,0.5177
935.00,0.5145
934.00,0.5105
933.00,0.5055
932.00,0.4995
931.00,0.4929
930.00,0.4861
929.00,0.4797
928.00,0.4744
927.00,0.4708
926.00,0.4694
925.00,0.4703
924.00,0.4735
923.00,0.4783
922.00,0.4833
921.00,0.4864
920.00,0.4856
919.00,0.4802
918.00,0.4712
917.00,0.4603
916.00,0.4496
915.00,0.4403
914.00,0.4328
913.00,0.4272
912.00,0.4231
911.00,0.4205
910.00,0.4191
909.00,0.4190
908.00,0.4206
907.00,0.4243
906.00,0.4304
905.00,0.4378
904.00,0.4444
903.00,0.4478
902.00,0.4471
901.00,0.4434
900.00,0.4391
899.00,0.4362
898.00,0.4352
897.00,0.4357
896.00,0.4375
895.00,0.4403
894.00,0.4440
893.00,0.4483
892.00,0.4530
891.00,0.4576
890.00,0.4612
889.00,0.4629
888.00,0.4622
887.00,0.4592
886.00,0.4546
885.00,0.4496
884.00,0.4449
883.00,0.4412
882.00,0.4386
881.00,0.4370
880.00,0.4362
879.00,0.4357
878.00,0.4354
877.00,0.4351
876.00,0.4351
875.00,0.4354
874.00,0.4359
873.00,0.4364
872.00,0.4367
871.00,0.4370
870.00,0.4375
869.00,0.4383
868.00,0.4399
867.00,0.4427
866.00,0.4471
865.00,0.4527
864.00,0.4588
863.00,0.4642
862.00,0.4671
861.00,0.4660
860.00,0.4605
859.00,0.4520
858.00,0.4426
857.00,0.4340
856.00,0.4271
855.00,0.4220
854.00,0.4183
853.00,0.4157
852.00,0.4140
851.00,0.4130
850.00,0.4123
849.00,0.4118
848.00,0.4111
847.00,0.4105
846.00,0.4099
845.00,0.4098
844.00,0.4104
843.00,0.4120
842.00,0.4155
841.00,0.4216
840.00,0.4308
839.00,0.4428
838.00,0.4558
837.00,0.4666
836.00,0.4719
835.00,0.4704
834.00,0.4638
833.00,0.4554
832.00,0.4484
831.00,0.4449
830.00,0.4453
829.00,0.4489
828.00,0.4544
827.00,0.4605
826.00,0.4667
825.00,0.4733
824.00,0.4805
823.00,0.4881
822.00,0.4947
821.00,0.4987
820.00,0.4992
819.00,0.4967
818.00,0.4924
817.00,0.4876
816.00,0.4832
815.00,0.4794
814.00,0.4761
813.00,0.4726
812.00,0.4689
811.00,0.4650
810.00,0.4612
809.00,0.4577
808.00,0.4545
807.00,0.4516
806.00,0.4486
805.00,0.4454
804.00,0.4420
803.00,0.4387
802.00,0.4355
801.00,0.4328
800.00,0.4306
799.00,0.4289
798.00,0.4272
797.00,0.4254
796.00,0.4236
795.00,0.4222
794.00,0.4215
793.00,0.4216
792.00,0.4224
791.00,0.4237
790.00,0.4251
789.00,0.4264
788.00,0.4277
787.00,0.4294
786.00,0.4320
785.00,0.4363
784.00,0.4426
783.00,0.4509
782.00,0.4612
781.00,0.4736
780.00,0.4878
779.00,0.5021
778.00,0.5136
777.00,0.5187
776.00,0.5164
775.00,0.5087
774.00,0.4994
773.00,0.4916
772.00,0.4870
771.00,0.4855
770.00,0.4862
769.00,0.4881
768.00,0.4904
767.00,0.4926
766.00,0.4946
765.00,0.4962
764.00,0.4980
763.00,0.5007
762.00,0.5044
761.00,0.5090
760.00,0.5136
759.00,0.5176
758.00,0.5206
757.00,0.5230
756.00,0.5253
755.00,0.5283
754.00,0.5325
753.00,0.5377
752.00,0.5433
751.00,0.5491
750.00,0.5550
749.00,0.5610
748.00,0.5673
747.00,0.5741
746.00,0.5813
745.00,0.5890
744.00,0.5974
743.00,0.6067
742.00,0.6170
741.00,0.6281
740.00,0.6398
739.00,0.6520
738.00,0.6649
737.00,0.6784
736.00,0.6925
735.00,0.7073
734.00,0.7227
733.00,0.7385
732.00,0.7551
731.00,0.7734
730.00,0.7948
729.00,0.8213
728.00,0.8546
727.00,0.8967
726.00,0.9493
725.00,1.0122
724.00,1.0809
723.00,1.1439
722.00,1.1816
721.00,1.1763
720.00,1.1289
719.00,1.0593
718.00,0.9874
717.00,0.9238
716.00,0.8718
715.00,0.8314
714.00,0.8007
713.00,0.7766
712.00,0.7566
711.00,0.7388
710.00,0.7215
709.00,0.7035
708.00,0.6843
707.00,0.6646
706.00,0.6453
705.00,0.6269
704.00,0.6094
703.00,0.5934
702.00,0.5792
701.00,0.5664
700.00,0.5543
699.00,0.5421
698.00,0.5291
697.00,0.5151
696.00,0.5010
695.00,0.4883
694.00,0.4779
693.00,0.4701
692.00,0.4645
691.00,0.4606
690.00,0.4578
689.00,0.4552
688.00,0.4520
687.00,0.4479
686.00,0.4429
685.00,0.4374
684.00,0.4321
683.00,0.4278
682.00,0.4246
681.00,0.4223
680.00,0.4206
679.00,0.4194
678.00,0.4184
677.00,0.4175
676.00,0.4169
675.00,0.4167
674.00,0.4167
673.00,0.4169
672.00,0.4174
671.00,0.4179
670.00,0.4184
669.00,0.4188
668.00,0.4192
667.00,0.4192
666.00,0.4202
665.00,0.4222
664.00,0.4240
663.00,0.4252
662.00,0.4264
661.00,0.4277
660.00,0.4291
659.00,0.4305
658.00,0.4317
657.00,0.4326
656.00,0.4332
655.00,0.4338
654.00,0.4345
653.00,0.4355
652.00,0.4365
651.00,0.4375
650.00,0.4383
649.00,0.4389
648.00,0.4396
647.00,0.4408
646.00,0.4422
645.00,0.4435
644.00,0.4446
643.00,0.4457
642.00,0.4470
641.00,0.4485
640.00,0.4502
639.00,0.4521
638.00,0.4539
637.00,0.4554
636.00,0.4565
635.00,0.4575
634.00,0.4589
633.00,0.4606
632.00,0.4625
631.00,0.4644
630.00,0.4664
629.00,0.4688
628.00,0.4718
627.00,0.4752
626.00,0.4788
625.00,0.4821
624.00,0.4853
623.00,0.4882
622.00,0.4907
621.00,0.4925
620.00,0.4936
619.00,0.4943
618.00,0.4949
617.00,0.4956
616.00,0.4960
615.00,0.4958
614.00,0.4950
613.00,0.4941
612.00,0.4931
611.00,0.4924
610.00,0.4918
609.00,0.4915
608.00,0.4912
607.00,0.4909
606.00,0.4903
605.00,0.4896
604.00,0.4887
603.00,0.4877
602.00,0.4867
601.00,0.4856
600.00,0.4843
599.00,0.4828
598.00,0.4815
597.00,0.4806
596.00,0.4805
595.00,0.4809
594.00,0.4815
593.00,0.4820
592.00,0.4823
591.00,0.4830
590.00,0.4845
589.00,0.4868
588.00,0.4898
587.00,0.4933
586.00,0.4970
585.00,0.5007
584.00,0.5044
583.00,0.5082
582.00,0.5119
581.00,0.5153
580.00,0.5183
579.00,0.5206
578.00,0.5225
577.00,0.5240
576.00,0.5254
575.00,0.5269
574.00,0.5289
573.00,0.5316
572.00,0.5351
571.00,0.5391
570.00,0.5432
569.00,0.5474
568.00,0.5514
567.00,0.5549
566.00,0.5578
565.00,0.5605
564.00,0.5635
563.00,0.5668
562.00,0.5703
561.00,0.5738
560.00,0.5773
559.00,0.5812
558.00,0.5859
557.00,0.5917
556.00,0.5984
555.00,0.6052
554.00,0.6116
553.00,0.6174
552.00,0.6229
551.00,0.6280
550.00,0.6328
