Created as New Dataset,
cm-1,A
4000.00,0.3473
3999.00,0.3470
3998.00,0.3467
3997.00,0.3465
3996.00,0.3463
3995.00,0.3460
3994.00,0.3457
3993.00,0.3454
3992.00,0.3450
3991.00,0.3447
3990.00,0.3444
3989.00,0.3440
3988.00,0.3437
3987.00,0.3433
3986.00,0.3429
3985.00,0.3424
3984.00,0.3420
3983.00,0.3417
3982.00,0.3414
3981.00,0.3410
3980.00,0.3407
3979.00,0.3404
3978.00,0.3401
3977.00,0.3397
3976.00,0.3394
3975.00,0.3391
3974.00,0.3387
3973.00,0.3384
3972.00,0.3379
3971.00,0.3375
3970.00,0.3371
3969.00,0.3367
3968.00,0.3364
3967.00,0.3361
3966.00,0.3358
3965.00,0.3354
3964.00,0.3349
3963.00,0.3345
3962.00,0.3341
3961.00,0.3337
3960.00,0.3335
3959.00,0.3333
3958.00,0.3330
3957.00,0.3328
3956.00,0.3326
3955.00,0.3324
3954.00,0.3322
3953.00,0.3321
3952.00,0.3319
3951.00,0.3317
3950.00,0.3316
3949.00,0.3314
3948.00,0.3312
3947.00,0.3311
3946.00,0.3309
3945.00,0.3308
3944.00,0.3307
3943.00,0.3306
3942.00,0.3304
3941.00,0.3303
3940.00,0.3302
3939.00,0.3301
3938.00,0.3300
3937.00,0.3300
3936.00,0.3300
3935.00,0.3300
3934.00,0.3300
3933.00,0.3299
3932.00,0.3298
3931.00,0.3298
3930.00,0.3297
3929.00,0.3295
3928.00,0.3294
3927.00,0.3293
3926.00,0.3293
3925.00,0.3293
3924.00,0.3292
3923.00,0.3292
3922.00,0.3292
3921.00,0.3291
3920.00,0.3291
3919.00,0.3290
3918.00,0.3290
3917.00,0.3289
3916.00,0.3289
3915.00,0.3288
3914.00,0.3287
3913.00,0.3286
3912.00,0.3285
3911.00,0.3285
3910.00,0.3284
3909.00,0.3283
3908.00,0.3281
3907.00,0.3280
3906.00,0.3279
3905.00,0.3277
3904.00,0.3276
3903.00,0.3275
3902.00,0.3273
3901.00,0.3271
3900.00,0.3270
3899.00,0.3269
3898.00,0.3267
3897.00,0.3265
3896.00,0.3263
3895.00,0.3261
3894.00,0.3259
3893.00,0.3257
3892.00,0.3255
3891.00,0.3254
3890.00,0.3252
3889.00,0.3251
3888.00,0.3251
3887.00,0.3250
3886.00,0.3250
3885.00,0.3250
3884.00,0.3250
3883.00,0.3248
3882.00,0.3247
3881.00,0.3246
3880.00,0.3245
3879.00,0.3244
3878.00,0.3244
3877.00,0.3243
3876.00,0.3243
3875.00,0.3243
3874.00,0.3242
3873.00,0.3241
3872.00,0.3239
3871.00,0.3238
3870.00,0.3237
3869.00,0.3236
3868.00,0.3235
3867.00,0.3233
3866.00,0.3232
3865.00,0.3230
3864.00,0.3229
3863.00,0.3227
3862.00,0.3224
3861.00,0.3222
3860.00,0.3221
3859.00,0.3221
3858.00,0.3220
3857.00,0.3220
3856.00,0.3220
3855.00,0.3220
3854.00,0.3220
3853.00,0.3220
3852.00,0.3220
3851.00,0.3220
3850.00,0.3219
3849.00,0.3219
3848.00,0.3218
3847.00,0.3218
3846.00,0.3217
3845.00,0.3217
3844.00,0.3216
3843.00,0.3216
3842.00,0.3216
3841.00,0.3215
3840.00,0.3215
3839.00,0.3215
3838.00,0.3215
3837.00,0.3215
3836.00,0.3214
3835.00,0.3212
3834.00,0.3210
3833.00,0.3208
3832.00,0.3206
3831.00,0.3204
3830.00,0.3202
3829.00,0.3201
3828.00,0.3199
3827.00,0.3198
3826.00,0.3198
3825.00,0.3197
3824.00,0.3196
3823.00,0.3195
3822.00,0.3194
3821.00,0.3193
3820.00,0.3192
3819.00,0.3191
3818.00,0.3191
3817.00,0.3191
3816.00,0.3191
3815.00,0.3190
3814.00,0.3187
3813.00,0.3185
3812.00,0.3183
3811.00,0.3183
3810.00,0.3182
3809.00,0.3181
3808.00,0.3180
3807.00,0.3178
3806.00,0.3177
3805.00,0.3176
3804.00,0.3175
3803.00,0.3174
3802.00,0.3173
3801.00,0.3172
3800.00,0.3171
3799.00,0.3169
3798.00,0.3166
3797.00,0.3163
3796.00,0.3160
3795.00,0.3158
3794.00,0.3155
3793.00,0.3152
3792.00,0.3149
3791.00,0.3146
3790.00,0.3144
3789.00,0.3142
3788.00,0.3140
3787.00,0.3139
3786.00,0.3139
3785.00,0.3138
3784.00,0.3138
3783.00,0.3138
3782.00,0.3138
3781.00,0.3138
3780.00,0.3137
3779.00,0.3136
3778.00,0.3135
3777.00,0.3135
3776.00,0.3135
3775.00,0.3135
3774.00,0.3136
3773.00,0.3137
3772.00,0.3137
3771.00,0.3136
3770.00,0.3136
3769.00,0.3135
3768.00,0.3135
3767.00,0.3134
3766.00,0.3134
3765.00,0.3133
3764.00,0.3132
3763.00,0.3130
3762.00,0.3128
3761.00,0.3126
3760.00,0.3124
3759.00,0.3123
3758.00,0.3122
3757.00,0.3121
3756.00,0.3121
3755.00,0.3121
3754.00,0.3121
3753.00,0.3121
3752.00,0.3121
3751.00,0.3121
3750.00,0.3121
3749.00,0.3122
3748.00,0.3122
3747.00,0.3122
3746.00,0.3122
3745.00,0.3123
3744.00,0.3125
3743.00,0.3126
3742.00,0.3126
3741.00,0.3126
3740.00,0.3127
3739.00,0.3128
3738.00,0.3128
3737.00,0.3128
3736.00,0.3127
3735.00,0.3126
3734.00,0.3125
3733.00,0.3124
3732.00,0.3124
3731.00,0.3124
3730.00,0.3123
3729.00,0.3121
3728.00,0.3119
3727.00,0.3117
3726.00,0.3115
3725.00,0.3114
3724.00,0.3114
3723.00,0.3113
3722.00,0.3112
3721.00,0.3111
3720.00,0.3110
3719.00,0.3110
3718.00,0.3112
3717.00,0.3113
3716.00,0.3115
3715.00,0.3117
3714.00,0.3120
3713.00,0.3123
3712.00,0.3127
3711.00,0.3130
3710.00,0.3134
3709.00,0.3137
3708.00,0.3140
3707.00,0.3143
3706.00,0.3146
3705.00,0.3150
3704.00,0.3154
3703.00,0.3157
3702.00,0.3161
3701.00,0.3165
3700.00,0.3170
3699.00,0.3175
3698.00,0.3180
3697.00,0.3185
3696.00,0.3191
3695.00,0.3196
3694.00,0.3202
3693.00,0.3208
3692.00,0.3215
3691.00,0.3223
3690.00,0.3231
3689.00,0.3241
3688.00,0.3251
3687.00,0.3261
3686.00,0.3269
3685.00,0.3278
3684.00,0.3286
3683.00,0.3294
3682.00,0.3302
3681.00,0.3310
3680.00,0.3319
3679.00,0.3327
3678.00,0.3335
3677.00,0.3343
3676.00,0.3353
3675.00,0.3362
3674.00,0.3372
3673.00,0.3380
3672.00,0.3389
3671.00,0.3398
3670.00,0.3408
3669.00,0.3417
3668.00,0.3425
3667.00,0.3433
3666.00,0.3441
3665.00,0.3450
3664.00,0.3458
3663.00,0.3467
3662.00,0.3476
3661.00,0.3485
3660.00,0.3494
3659.00,0.3503
3658.00,0.3514
3657.00,0.3525
3656.00,0.3538
3655.00,0.3550
3654.00,0.3562
3653.00,0.3576
3652.00,0.3593
3651.00,0.3617
3650.00,0.3647
3649.00,0.3682
3648.00,0.3716
3647.00,0.3743
3646.00,0.3759
3645.00,0.3763
3644.00,0.3759
3643.00,0.3751
3642.00,0.3745
3641.00,0.3741
3640.00,0.3742
3639.00,0.3746
3638.00,0.3754
3637.00,0.3764
3636.00,0.3776
3635.00,0.3790
3634.00,0.3805
3633.00,0.3820
3632.00,0.3836
3631.00,0.3855
3630.00,0.3878
3629.00,0.3905
3628.00,0.3934
3627.00,0.3962
3626.00,0.3990
3625.00,0.4017
3624.00,0.4043
3623.00,0.4069
3622.00,0.4093
3621.00,0.4116
3620.00,0.4139
3619.00,0.4161
3618.00,0.4183
3617.00,0.4204
3616.00,0.4226
3615.00,0.4248
3614.00,0.4271
3613.00,0.4294
3612.00,0.4316
3611.00,0.4338
3610.00,0.4360
3609.00,0.4381
3608.00,0.4400
3607.00,0.4418
3606.00,0.4433
3605.00,0.4446
3604.00,0.4457
3603.00,0.4466
3602.00,0.4472
3601.00,0.4475
3600.00,0.4477
3599.00,0.4478
3598.00,0.4478
3597.00,0.4477
3596.00,0.4475
3595.00,0.4473
3594.00,0.4471
3593.00,0.4470
3592.00,0.4470
3591.00,0.4472
3590.00,0.4474
3589.00,0.4476
3588.00,0.4478
3587.00,0.4479
3586.00,0.4482
3585.00,0.4485
3584.00,0.4489
3583.00,0.4493
3582.00,0.4496
3581.00,0.4499
3580.00,0.4503
3579.00,0.4508
3578.00,0.4513
3577.00,0.4518
3576.00,0.4524
3575.00,0.4529
3574.00,0.4534
3573.00,0.4540
3572.00,0.4546
3571.00,0.4553
3570.00,0.4559
3569.00,0.4566
3568.00,0.4572
3567.00,0.4578
3566.00,0.4585
3565.00,0.4592
3564.00,0.4599
3563.00,0.4605
3562.00,0.4611
3561.00,0.4617
3560.00,0.4622
3559.00,0.4628
3558.00,0.4634
3557.00,0.4640
3556.00,0.4647
3555.00,0.4653
3554.00,0.4659
3553.00,0.4666
3552.00,0.4672
3551.00,0.4678
3550.00,0.4685
3549.00,0.4692
3548.00,0.4699
3547.00,0.4706
3546.00,0.4713
3545.00,0.4720
3544.00,0.4728
3543.00,0.4737
3542.00,0.4746
3541.00,0.4755
3540.00,0.4763
3539.00,0.4772
3538.00,0.4781
3537.00,0.4791
3536.00,0.4801
3535.00,0.4810
3534.00,0.4820
3533.00,0.4830
3532.00,0.4841
3531.00,0.4853
3530.00,0.4864
3529.00,0.4875
3528.00,0.4886
3527.00,0.4898
3526.00,0.4911
3525.00,0.4923
3524.00,0.4936
3523.00,0.4947
3522.00,0.4959
3521.00,0.4969
3520.00,0.4980
3519.00,0.4992
3518.00,0.5003
3517.00,0.5016
3516.00,0.5028
3515.00,0.5041
3514.00,0.5053
3513.00,0.5065
3512.00,0.5078
3511.00,0.5090
3510.00,0.5103
3509.00,0.5115
3508.00,0.5126
3507.00,0.5138
3506.00,0.5150
3505.00,0.5162
3504.00,0.5175
3503.00,0.5187
3502.00,0.5199
3501.00,0.5211
3500.00,0.5224
3499.00,0.5236
3498.00,0.5247
3497.00,0.5258
3496.00,0.5269
3495.00,0.5279
3494.00,0.5290
3493.00,0.5301
3492.00,0.5313
3491.00,0.5324
3490.00,0.5334
3489.00,0.5345
3488.00,0.5355
3487.00,0.5366
3486.00,0.5375
3485.00,0.5384
3484.00,0.5393
3483.00,0.5402
3482.00,0.5411
3481.00,0.5419
3480.00,0.5427
3479.00,0.5435
3478.00,0.5443
3477.00,0.5452
3476.00,0.5460
3475.00,0.5468
3474.00,0.5475
3473.00,0.5483
3472.00,0.5492
3471.00,0.5501
3470.00,0.5509
3469.00,0.5518
3468.00,0.5527
3467.00,0.5535
3466.00,0.5544
3465.00,0.5553
3464.00,0.5561
3463.00,0.5569
3462.00,0.5577
3461.00,0.5584
3460.00,0.5593
3459.00,0.5601
3458.00,0.5611
3457.00,0.5620
3456.00,0.5630
3455.00,0.5640
3454.00,0.5650
3453.00,0.5661
3452.00,0.5673
3451.00,0.5684
3450.00,0.5697
3449.00,0.5710
3448.00,0.5723
3447.00,0.5737
3446.00,0.5752
3445.00,0.5769
3444.00,0.5786
3443.00,0.5805
3442.00,0.5824
3441.00,0.5842
3440.00,0.5860
3439.00,0.5877
3438.00,0.5894
3437.00,0.5910
3436.00,0.5926
3435.00,0.5941
3434.00,0.5956
3433.00,0.5970
3432.00,0.5985
3431.00,0.6001
3430.00,0.6017
3429.00,0.6035
3428.00,0.6052
3427.00,0.6070
3426.00,0.6087
3425.00,0.6106
3424.00,0.6125
3423.00,0.6145
3422.00,0.6166
3421.00,0.6186
3420.00,0.6207
3419.00,0.6228
3418.00,0.6249
3417.00,0.6271
3416.00,0.6294
3415.00,0.6317
3414.00,0.6340
3413.00,0.6362
3412.00,0.6383
3411.00,0.6404
3410.00,0.6426
3409.00,0.6448
3408.00,0.6470
3407.00,0.6491
3406.00,0.6510
3405.00,0.6528
3404.00,0.6545
3403.00,0.6562
3402.00,0.6580
3401.00,0.6596
3400.00,0.6611
3399.00,0.6626
3398.00,0.6640
3397.00,0.6656
3396.00,0.6671
3395.00,0.6687
3394.00,0.6702
3393.00,0.6718
3392.00,0.6735
3391.00,0.6751
3390.00,0.6767
3389.00,0.6783
3388.00,0.6802
3387.00,0.6822
3386.00,0.6844
3385.00,0.6867
3384.00,0.6892
3383.00,0.6918
3382.00,0.6947
3381.00,0.6977
3380.00,0.7009
3379.00,0.7043
3378.00,0.7078
3377.00,0.7116
3376.00,0.7156
3375.00,0.7200
3374.00,0.7246
3373.00,0.7295
3372.00,0.7347
3371.00,0.7403
3370.00,0.7460
3369.00,0.7519
3368.00,0.7580
3367.00,0.7642
3366.00,0.7706
3365.00,0.7772
3364.00,0.7839
3363.00,0.7906
3362.00,0.7974
3361.00,0.8040
3360.00,0.8105
3359.00,0.8168
3358.00,0.8229
3357.00,0.8287
3356.00,0.8338
3355.00,0.8381
3354.00,0.8416
3353.00,0.8442
3352.00,0.8459
3351.00,0.8467
3350.00,0.8467
3349.00,0.8459
3348.00,0.8445
3347.00,0.8426
3346.00,0.8402
3345.00,0.8374
3344.00,0.8340
3343.00,0.8302
3342.00,0.8261
3341.00,0.8217
3340.00,0.8171
3339.00,0.8125
3338.00,0.8078
3337.00,0.8031
3336.00,0.7985
3335.00,0.7939
3334.00,0.7894
3333.00,0.7850
3332.00,0.7807
3331.00,0.7766
3330.00,0.7725
3329.00,0.7685
3328.00,0.7645
3327.00,0.7606
3326.00,0.7568
3325.00,0.7532
3324.00,0.7497
3323.00,0.7463
3322.00,0.7429
3321.00,0.7397
3320.00,0.7366
3319.00,0.7335
3318.00,0.7305
3317.00,0.7277
3316.00,0.7250
3315.00,0.7223
3314.00,0.7197
3313.00,0.7172
3312.00,0.7147
3311.00,0.7122
3310.00,0.7099
3309.00,0.7077
3308.00,0.7056
3307.00,0.7035
3306.00,0.7014
3305.00,0.6992
3304.00,0.6970
3303.00,0.6948
3302.00,0.6927
3301.00,0.6908
3300.00,0.6889
3299.00,0.6869
3298.00,0.6849
3297.00,0.6829
3296.00,0.6810
3295.00,0.6793
3294.00,0.6776
3293.00,0.6761
3292.00,0.6746
3291.00,0.6730
3290.00,0.6713
3289.00,0.6696
3288.00,0.6680
3287.00,0.6664
3286.00,0.6649
3285.00,0.6635
3284.00,0.6621
3283.00,0.6608
3282.00,0.6594
3281.00,0.6581
3280.00,0.6568
3279.00,0.6556
3278.00,0.6544
3277.00,0.6533
3276.00,0.6522
3275.00,0.6512
3274.00,0.6502
3273.00,0.6492
3272.00,0.6481
3271.00,0.6470
3270.00,0.6458
3269.00,0.6447
3268.00,0.6437
3267.00,0.6427
3266.00,0.6417
3265.00,0.6408
3264.00,0.6399
3263.00,0.6391
3262.00,0.6383
3261.00,0.6375
3260.00,0.6366
3259.00,0.6358
3258.00,0.6349
3257.00,0.6341
3256.00,0.6333
3255.00,0.6325
3254.00,0.6316
3253.00,0.6307
3252.00,0.6298
3251.00,0.6289
3250.00,0.6280
3249.00,0.6272
3248.00,0.6264
3247.00,0.6256
3246.00,0.6248
3245.00,0.6239
3244.00,0.6229
3243.00,0.6220
3242.00,0.6211
3241.00,0.6202
3240.00,0.6193
3239.00,0.6184
3238.00,0.6175
3237.00,0.6166
3236.00,0.6156
3235.00,0.6146
3234.00,0.6136
3233.00,0.6127
3232.00,0.6119
3231.00,0.6111
3230.00,0.6103
3229.00,0.6094
3228.00,0.6084
3227.00,0.6074
3226.00,0.6064
3225.00,0.6055
3224.00,0.6047
3223.00,0.6039
3222.00,0.6031
3221.00,0.6022
3220.00,0.6013
3219.00,0.6005
3218.00,0.5996
3217.00,0.5988
3216.00,0.5981
3215.00,0.5973
3214.00,0.5966
3213.00,0.5959
3212.00,0.5951
3211.00,0.5943
3210.00,0.5935
3209.00,0.5926
3208.00,0.5918
3207.00,0.5909
3206.00,0.5901
3205.00,0.5893
3204.00,0.5886
3203.00,0.5878
3202.00,0.5871
3201.00,0.5863
3200.00,0.5855
3199.00,0.5846
3198.00,0.5837
3197.00,0.5829
3196.00,0.5821
3195.00,0.5813
3194.00,0.5804
3193.00,0.5794
3192.00,0.5784
3191.00,0.5773
3190.00,0.5762
3189.00,0.5751
3188.00,0.5740
3187.00,0.5729
3186.00,0.5717
3185.00,0.5706
3184.00,0.5693
3183.00,0.5681
3182.00,0.5669
3181.00,0.5657
3180.00,0.5645
3179.00,0.5632
3178.00,0.5619
3177.00,0.5606
3176.00,0.5593
3175.00,0.5580
3174.00,0.5566
3173.00,0.5551
3172.00,0.5537
3171.00,0.5522
3170.00,0.5507
3169.00,0.5492
3168.00,0.5478
3167.00,0.5464
3166.00,0.5450
3165.00,0.5436
3164.00,0.5421
3163.00,0.5406
3162.00,0.5391
3161.00,0.5377
3160.00,0.5363
3159.00,0.5349
3158.00,0.5335
3157.00,0.5321
3156.00,0.5306
3155.00,0.5291
3154.00,0.5277
3153.00,0.5262
3152.00,0.5248
3151.00,0.5235
3150.00,0.5222
3149.00,0.5209
3148.00,0.5196
3147.00,0.5183
3146.00,0.5170
3145.00,0.5158
3144.00,0.5145
3143.00,0.5133
3142.00,0.5121
3141.00,0.5109
3140.00,0.5097
3139.00,0.5086
3138.00,0.5076
3137.00,0.5066
3136.00,0.5056
3135.00,0.5046
3134.00,0.5036
3133.00,0.5026
3132.00,0.5017
3131.00,0.5008
3130.00,0.5000
3129.00,0.4991
3128.00,0.4984
3127.00,0.4976
3126.00,0.4969
3125.00,0.4963
3124.00,0.4957
3123.00,0.4952
3122.00,0.4946
3121.00,0.4940
3120.00,0.4935
3119.00,0.4931
3118.00,0.4928
3117.00,0.4926
3116.00,0.4924
3115.00,0.4922
3114.00,0.4920
3113.00,0.4919
3112.00,0.4919
3111.00,0.4920
3110.00,0.4923
3109.00,0.4927
3108.00,0.4932
3107.00,0.4936
3106.00,0.4941
3105.00,0.4947
3104.00,0.4953
3103.00,0.4959
3102.00,0.4964
3101.00,0.4970
3100.00,0.4976
3099.00,0.4982
3098.00,0.4988
3097.00,0.4994
3096.00,0.5000
3095.00,0.5006
3094.00,0.5012
3093.00,0.5020
3092.00,0.5029
3091.00,0.5040
3090.00,0.5053
3089.00,0.5068
3088.00,0.5084
3087.00,0.5101
3086.00,0.5118
3085.00,0.5136
3084.00,0.5155
3083.00,0.5174
3082.00,0.5193
3081.00,0.5213
3080.00,0.5235
3079.00,0.5257
3078.00,0.5281
3077.00,0.5306
3076.00,0.5334
3075.00,0.5364
3074.00,0.5397
3073.00,0.5430
3072.00,0.5465
3071.00,0.5502
3070.00,0.5539
3069.00,0.5578
3068.00,0.5617
3067.00,0.5655
3066.00,0.5694
3065.00,0.5733
3064.00,0.5771
3063.00,0.5808
3062.00,0.5841
3061.00,0.5871
3060.00,0.5898
3059.00,0.5921
3058.00,0.5942
3057.00,0.5962
3056.00,0.5980
3055.00,0.5999
3054.00,0.6019
3053.00,0.6040
3052.00,0.6062
3051.00,0.6087
3050.00,0.6114
3049.00,0.6143
3048.00,0.6175
3047.00,0.6208
3046.00,0.6243
3045.00,0.6277
3044.00,0.6310
3043.00,0.6342
3042.00,0.6374
3041.00,0.6407
3040.00,0.6443
3039.00,0.6481
3038.00,0.6522
3037.00,0.6567
3036.00,0.6616
3035.00,0.6670
3034.00,0.6730
3033.00,0.6796
3032.00,0.6865
3031.00,0.6937
3030.00,0.7011
3029.00,0.7084
3028.00,0.7156
3027.00,0.7226
3026.00,0.7291
3025.00,0.7352
3024.00,0.7409
3023.00,0.7464
3022.00,0.7519
3021.00,0.7576
3020.00,0.7637
3019.00,0.7701
3018.00,0.7769
3017.00,0.7842
3016.00,0.7920
3015.00,0.8005
3014.00,0.8096
3013.00,0.8194
3012.00,0.8298
3011.00,0.8409
3010.00,0.8527
3009.00,0.8655
3008.00,0.8791
3007.00,0.8936
3006.00,0.9091
3005.00,0.9254
3004.00,0.9424
3003.00,0.9604
3002.00,0.9795
3001.00,0.9997
3000.00,1.0210
2999.00,1.0437
2998.00,1.0680
2997.00,1.0941
2996.00,1.1223
2995.00,1.1529
2994.00,1.1862
2993.00,1.2222
2992.00,1.2611
2991.00,1.3034
2990.00,1.3495
2989.00,1.3999
2988.00,1.4552
2987.00,1.5164
2986.00,1.5846
2985.00,1.6603
2984.00,1.7435
2983.00,1.8346
2982.00,1.9346
2981.00,2.0450
2980.00,2.1665
2979.00,2.3000
2978.00,2.4470
2977.00,2.6065
2976.00,2.7743
2975.00,2.9427
2974.00,3.1073
2973.00,3.2630
2972.00,3.4171
2971.00,3.5825
2970.00,3.8427
2969.00,4.3376
2968.00,4.5166
2967.00,4.2229
2966.00,3.9689
2965.00,3.8936
2964.00,3.8462
2963.00,3.8903
2962.00,4.1879
2961.00,4.4040
2960.00,4.3127
2959.00,4.1781
2958.00,4.1845
2957.00,4.1265
2956.00,3.9058
2955.00,3.7850
2954.00,3.7555
2953.00,3.8966
2952.00,4.2418
2951.00,4.3670
2950.00,4.1862
2949.00,4.0084
2948.00,3.9940
2947.00,4.0659
2946.00,4.2273
2945.00,4.5058
2944.00,4.3926
2943.00,4.3377
2942.00,4.4741
2941.00,4.2756
2940.00,4.0697
2939.00,4.0204
2938.00,4.0374
2937.00,3.8861
2936.00,3.7273
2935.00,3.6842
2934.00,3.7945
2933.00,4.0144
2932.00,3.9408
2931.00,3.7755
2930.00,3.7032
2929.00,3.8778
2928.00,4.3243
2927.00,4.3344
2926.00,4.0485
2925.00,3.8307
2924.00,3.7864
2923.00,3.8041
2922.00,3.8306
2921.00,3.9721
2920.00,4.0738
2919.00,4.0239
2918.00,3.9520
2917.00,4.0460
2916.00,4.3597
2915.00,4.2043
2914.00,3.9342
2913.00,3.8079
2912.00,3.8429
2911.00,3.9171
2910.00,3.9167
2909.00,3.9266
2908.00,3.9736
2907.00,4.0155
2906.00,3.9964
2905.00,3.9211
2904.00,3.9547
2903.00,4.2570
2902.00,4.4843
2901.00,4.2955
2900.00,4.0606
2899.00,3.9543
2898.00,3.8575
2897.00,3.7980
2896.00,3.8791
2895.00,4.0404
2894.00,4.2616
2893.00,4.2549
2892.00,4.0072
2891.00,3.8771
2890.00,3.9697
2889.00,4.3965
2888.00,5.0056
2887.00,4.7241
2886.00,4.4210
2885.00,4.2871
2884.00,4.2286
2883.00,4.2951
2882.00,4.4711
2881.00,4.3404
2880.00,4.1431
2879.00,4.0677
2878.00,4.1628
2877.00,4.3237
2876.00,4.2704
2875.00,4.1168
2874.00,4.0043
2873.00,4.0271
2872.00,4.1184
2871.00,4.1070
2870.00,4.0011
2869.00,3.9463
2868.00,4.0031
2867.00,4.0147
2866.00,4.0394
2865.00,4.2495
2864.00,4.3391
2863.00,4.1164
2862.00,3.9692
2861.00,4.0210
2860.00,4.0372
2859.00,3.9736
2858.00,3.9606
2857.00,3.9503
2856.00,3.9614
2855.00,4.0649
2854.00,4.2389
2853.00,4.2636
2852.00,4.1322
2851.00,4.1247
2850.00,4.2919
2849.00,4.5825
2848.00,4.7214
2847.00,4.3779
2846.00,4.2012
2845.00,4.1717
2844.00,4.2351
2843.00,4.2728
2842.00,4.1569
2841.00,3.7987
2840.00,3.4212
2839.00,3.1243
2838.00,2.8918
2837.00,2.6902
2836.00,2.5074
2835.00,2.3439
2834.00,2.1981
2833.00,2.0690
2832.00,1.9549
2831.00,1.8541
2830.00,1.7646
2829.00,1.6845
2828.00,1.6128
2827.00,1.5488
2826.00,1.4914
2825.00,1.4389
2824.00,1.3903
2823.00,1.3451
2822.00,1.3030
2821.00,1.2639
2820.00,1.2277
2819.00,1.1940
2818.00,1.1625
2817.00,1.1328
2816.00,1.1047
2815.00,1.0784
2814.00,1.0537
2813.00,1.0305
2812.00,1.0084
2811.00,0.9872
2810.00,0.9667
2809.00,0.9470
2808.00,0.9281
2807.00,0.9101
2806.00,0.8930
2805.00,0.8767
2804.00,0.8611
2803.00,0.8459
2802.00,0.8312
2801.00,0.8168
2800.00,0.8029
2799.00,0.7895
2798.00,0.7768
2797.00,0.7647
2796.00,0.7532
2795.00,0.7421
2794.00,0.7314
2793.00,0.7211
2792.00,0.7112
2791.00,0.7015
2790.00,0.6921
2789.00,0.6828
2788.00,0.6738
2787.00,0.6650
2786.00,0.6565
2785.00,0.6481
2784.00,0.6397
2783.00,0.6315
2782.00,0.6234
2781.00,0.6156
2780.00,0.6082
2779.00,0.6010
2778.00,0.5942
2777.00,0.5876
2776.00,0.5814
2775.00,0.5756
2774.00,0.5701
2773.00,0.5651
2772.00,0.5605
2771.00,0.5562
2770.00,0.5524
2769.00,0.5490
2768.00,0.5459
2767.00,0.5433
2766.00,0.5410
2765.00,0.5390
2764.00,0.5372
2763.00,0.5355
2762.00,0.5341
2761.00,0.5329
2760.00,0.5319
2759.00,0.5309
2758.00,0.5299
2757.00,0.5290
2756.00,0.5281
2755.00,0.5273
2754.00,0.5267
2753.00,0.5264
2752.00,0.5262
2751.00,0.5262
2750.00,0.5263
2749.00,0.5266
2748.00,0.5270
2747.00,0.5276
2746.00,0.5283
2745.00,0.5294
2744.00,0.5307
2743.00,0.5323
2742.00,0.5342
2741.00,0.5364
2740.00,0.5390
2739.00,0.5419
2738.00,0.5451
2737.00,0.5486
2736.00,0.5526
2735.00,0.5568
2734.00,0.5612
2733.00,0.5654
2732.00,0.5689
2731.00,0.5712
2730.00,0.5722
2729.00,0.5718
2728.00,0.5700
2727.00,0.5671
2726.00,0.5635
2725.00,0.5595
2724.00,0.5555
2723.00,0.5517
2722.00,0.5480
2721.00,0.5446
2720.00,0.5414
2719.00,0.5384
2718.00,0.5355
2717.00,0.5326
2716.00,0.5298
2715.00,0.5268
2714.00,0.5237
2713.00,0.5205
2712.00,0.5173
2711.00,0.5143
2710.00,0.5115
2709.00,0.5091
2708.00,0.5071
2707.00,0.5054
2706.00,0.5040
2705.00,0.5029
2704.00,0.5021
2703.00,0.5016
2702.00,0.5014
2701.00,0.5014
2700.00,0.5018
2699.00,0.5025
2698.00,0.5034
2697.00,0.5045
2696.00,0.5059
2695.00,0.5074
2694.00,0.5091
2693.00,0.5109
2692.00,0.5129
2691.00,0.5150
2690.00,0.5170
2689.00,0.5188
2688.00,0.5206
2687.00,0.5221
2686.00,0.5233
2685.00,0.5243
2684.00,0.5250
2683.00,0.5256
2682.00,0.5260
2681.00,0.5264
2680.00,0.5266
2679.00,0.5267
2678.00,0.5267
2677.00,0.5267
2676.00,0.5267
2675.00,0.5266
2674.00,0.5264
2673.00,0.5261
2672.00,0.5255
2671.00,0.5247
2670.00,0.5236
2669.00,0.5222
2668.00,0.5204
2667.00,0.5183
2666.00,0.5161
2665.00,0.5137
2664.00,0.5113
2663.00,0.5088
2662.00,0.5062
2661.00,0.5037
2660.00,0.5012
2659.00,0.4989
2658.00,0.4967
2657.00,0.4947
2656.00,0.4929
2655.00,0.4912
2654.00,0.4895
2653.00,0.4878
2652.00,0.4862
2651.00,0.4846
2650.00,0.4832
2649.00,0.4818
2648.00,0.4804
2647.00,0.4791
2646.00,0.4778
2645.00,0.4765
2644.00,0.4752
2643.00,0.4739
2642.00,0.4727
2641.00,0.4716
2640.00,0.4705
2639.00,0.4695
2638.00,0.4686
2637.00,0.4678
2636.00,0.4670
2635.00,0.4663
2634.00,0.4657
2633.00,0.4651
2632.00,0.4645
2631.00,0.4638
2630.00,0.4631
2629.00,0.4625
2628.00,0.4619
2627.00,0.4614
2626.00,0.4609
2625.00,0.4605
2624.00,0.4601
2623.00,0.4598
2622.00,0.4594
2621.00,0.4591
2620.00,0.4587
2619.00,0.4582
2618.00,0.4579
2617.00,0.4575
2616.00,0.4571
2615.00,0.4567
2614.00,0.4563
2613.00,0.4559
2612.00,0.4555
2611.00,0.4552
2610.00,0.4549
2609.00,0.4546
2608.00,0.4543
2607.00,0.4540
2606.00,0.4536
2605.00,0.4532
2604.00,0.4527
2603.00,0.4521
2602.00,0.4514
2601.00,0.4507
2600.00,0.4499
2599.00,0.4490
2598.00,0.4481
2597.00,0.4470
2596.00,0.4459
2595.00,0.4447
2594.00,0.4435
2593.00,0.4422
2592.00,0.4409
2591.00,0.4396
2590.00,0.4382
2589.00,0.4369
2588.00,0.4355
2587.00,0.4340
2586.00,0.4325
2585.00,0.4311
2584.00,0.4296
2583.00,0.4282
2582.00,0.4267
2581.00,0.4251
2580.00,0.4236
2579.00,0.4220
2578.00,0.4204
2577.00,0.4188
2576.00,0.4173
2575.00,0.4158
2574.00,0.4143
2573.00,0.4130
2572.00,0.4117
2571.00,0.4104
2570.00,0.4092
2569.00,0.4080
2568.00,0.4069
2567.00,0.4059
2566.00,0.4048
2565.00,0.4037
2564.00,0.4027
2563.00,0.4017
2562.00,0.4008
2561.00,0.3999
2560.00,0.3991
2559.00,0.3983
2558.00,0.3975
2557.00,0.3968
2556.00,0.3961
2555.00,0.3955
2554.00,0.3949
2553.00,0.3943
2552.00,0.3939
2551.00,0.3935
2550.00,0.3933
2549.00,0.3931
2548.00,0.3931
2547.00,0.3932
2546.00,0.3934
2545.00,0.3936
2544.00,0.3938
2543.00,0.3941
2542.00,0.3945
2541.00,0.3949
2540.00,0.3953
2539.00,0.3959
2538.00,0.3967
2537.00,0.3977
2536.00,0.3990
2535.00,0.4005
2534.00,0.4022
2533.00,0.4040
2532.00,0.4059
2531.00,0.4079
2530.00,0.4099
2529.00,0.4119
2528.00,0.4138
2527.00,0.4155
2526.00,0.4171
2525.00,0.4186
2524.00,0.4200
2523.00,0.4213
2522.00,0.4224
2521.00,0.4234
2520.00,0.4242
2519.00,0.4248
2518.00,0.4253
2517.00,0.4256
2516.00,0.4259
2515.00,0.4260
2514.00,0.4259
2513.00,0.4256
2512.00,0.4251
2511.00,0.4244
2510.00,0.4233
2509.00,0.4218
2508.00,0.4200
2507.00,0.4179
2506.00,0.4153
2505.00,0.4125
2504.00,0.4093
2503.00,0.4059
2502.00,0.4024
2501.00,0.3988
2500.00,0.3951
2499.00,0.3912
2498.00,0.3873
2497.00,0.3833
2496.00,0.3793
2495.00,0.3753
2494.00,0.3713
2493.00,0.3675
2492.00,0.3639
2491.00,0.3604
2490.00,0.3570
2489.00,0.3539
2488.00,0.3509
2487.00,0.3482
2486.00,0.3457
2485.00,0.3434
2484.00,0.3413
2483.00,0.3393
2482.00,0.3374
2481.00,0.3356
2480.00,0.3340
2479.00,0.3324
2478.00,0.3309
2477.00,0.3296
2476.00,0.3283
2475.00,0.3271
2474.00,0.3259
2473.00,0.3248
2472.00,0.3237
2471.00,0.3228
2470.00,0.3219
2469.00,0.3211
2468.00,0.3203
2467.00,0.3195
2466.00,0.3188
2465.00,0.3181
2464.00,0.3176
2463.00,0.3171
2462.00,0.3167
2461.00,0.3163
2460.00,0.3159
2459.00,0.3155
2458.00,0.3151
2457.00,0.3148
2456.00,0.3146
2455.00,0.3144
2454.00,0.3142
2453.00,0.3140
2452.00,0.3138
2451.00,0.3137
2450.00,0.3135
2449.00,0.3134
2448.00,0.3133
2447.00,0.3132
2446.00,0.3131
2445.00,0.3131
2444.00,0.3131
2443.00,0.3131
2442.00,0.3132
2441.00,0.3132
2440.00,0.3132
2439.00,0.3132
2438.00,0.3132
2437.00,0.3133
2436.00,0.3133
2435.00,0.3133
2434.00,0.3132
2433.00,0.3132
2432.00,0.3133
2431.00,0.3133
2430.00,0.3133
2429.00,0.3134
2428.00,0.3134
2427.00,0.3135
2426.00,0.3136
2425.00,0.3137
2424.00,0.3138
2423.00,0.3139
2422.00,0.3140
2421.00,0.3141
2420.00,0.3142
2419.00,0.3142
2418.00,0.3143
2417.00,0.3144
2416.00,0.3145
2415.00,0.3146
2414.00,0.3146
2413.00,0.3147
2412.00,0.3148
2411.00,0.3148
2410.00,0.3148
2409.00,0.3148
2408.00,0.3149
2407.00,0.3149
2406.00,0.3149
2405.00,0.3149
2404.00,0.3148
2403.00,0.3148
2402.00,0.3148
2401.00,0.3148
2400.00,0.3148
2399.00,0.3147
2398.00,0.3147
2397.00,0.3146
2396.00,0.3144
2395.00,0.3143
2394.00,0.3142
2393.00,0.3142
2392.00,0.3141
2391.00,0.3141
2390.00,0.3141
2389.00,0.3141
2388.00,0.3141
2387.00,0.3142
2386.00,0.3143
2385.00,0.3145
2384.00,0.3147
2383.00,0.3149
2382.00,0.3152
2381.00,0.3154
2380.00,0.3156
2379.00,0.3158
2378.00,0.3159
2377.00,0.3160
2376.00,0.3160
2375.00,0.3160
2374.00,0.3160
2373.00,0.3161
2372.00,0.3162
2371.00,0.3163
2370.00,0.3164
2369.00,0.3164
2368.00,0.3164
2367.00,0.3165
2366.00,0.3166
2365.00,0.3167
2364.00,0.3168
2363.00,0.3169
2362.00,0.3169
2361.00,0.3170
2360.00,0.3171
2359.00,0.3171
2358.00,0.3172
2357.00,0.3172
2356.00,0.3172
2355.00,0.3172
2354.00,0.3171
2353.00,0.3170
2352.00,0.3171
2351.00,0.3172
2350.00,0.3174
2349.00,0.3176
2348.00,0.3177
2347.00,0.3176
2346.00,0.3173
2345.00,0.3171
2344.00,0.3169
2343.00,0.3169
2342.00,0.3169
2341.00,0.3169
2340.00,0.3169
2339.00,0.3169
2338.00,0.3169
2337.00,0.3168
2336.00,0.3168
2335.00,0.3167
2334.00,0.3167
2333.00,0.3165
2332.00,0.3163
2331.00,0.3160
2330.00,0.3157
2329.00,0.3155
2328.00,0.3154
2327.00,0.3152
2326.00,0.3151
2325.00,0.3149
2324.00,0.3146
2323.00,0.3142
2322.00,0.3138
2321.00,0.3135
2320.00,0.3132
2319.00,0.3130
2318.00,0.3129
2317.00,0.3128
2316.00,0.3126
2315.00,0.3124
2314.00,0.3121
2313.00,0.3118
2312.00,0.3115
2311.00,0.3111
2310.00,0.3107
2309.00,0.3102
2308.00,0.3097
2307.00,0.3093
2306.00,0.3088
2305.00,0.3084
2304.00,0.3080
2303.00,0.3077
2302.00,0.3073
2301.00,0.3069
2300.00,0.3065
2299.00,0.3061
2298.00,0.3058
2297.00,0.3054
2296.00,0.3051
2295.00,0.3047
2294.00,0.3043
2293.00,0.3039
2292.00,0.3034
2291.00,0.3030
2290.00,0.3025
2289.00,0.3020
2288.00,0.3016
2287.00,0.3012
2286.00,0.3008
2285.00,0.3004
2284.00,0.3001
2283.00,0.2998
2282.00,0.2995
2281.00,0.2992
2280.00,0.2989
2279.00,0.2986
2278.00,0.2983
2277.00,0.2981
2276.00,0.2978
2275.00,0.2976
2274.00,0.2974
2273.00,0.2972
2272.00,0.2969
2271.00,0.2967
2270.00,0.2965
2269.00,0.2964
2268.00,0.2963
2267.00,0.2961
2266.00,0.2959
2265.00,0.2957
2264.00,0.2955
2263.00,0.2953
2262.00,0.2951
2261.00,0.2948
2260.00,0.2946
2259.00,0.2943
2258.00,0.2940
2257.00,0.2937
2256.00,0.2934
2255.00,0.2931
2254.00,0.2928
2253.00,0.2926
2252.00,0.2923
2251.00,0.2921
2250.00,0.2918
2249.00,0.2917
2248.00,0.2915
2247.00,0.2913
2246.00,0.2912
2245.00,0.2910
2244.00,0.2908
2243.00,0.2906
2242.00,0.2903
2241.00,0.2901
2240.00,0.2899
2239.00,0.2896
2238.00,0.2894
2237.00,0.2892
2236.00,0.2890
2235.00,0.2887
2234.00,0.2885
2233.00,0.2883
2232.00,0.2881
2231.00,0.2879
2230.00,0.2878
2229.00,0.2877
2228.00,0.2876
2227.00,0.2874
2226.00,0.2871
2225.00,0.2870
2224.00,0.2868
2223.00,0.2867
2222.00,0.2866
2221.00,0.2865
2220.00,0.2865
2219.00,0.2864
2218.00,0.2864
2217.00,0.2864
2216.00,0.2863
2215.00,0.2862
2214.00,0.2862
2213.00,0.2862
2212.00,0.2862
2211.00,0.2861
2210.00,0.2861
2209.00,0.2860
2208.00,0.2860
2207.00,0.2859
2206.00,0.2858
2205.00,0.2858
2204.00,0.2858
2203.00,0.2858
2202.00,0.2858
2201.00,0.2858
2200.00,0.2858
2199.00,0.2858
2198.00,0.2859
2197.00,0.2859
2196.00,0.2860
2195.00,0.2860
2194.00,0.2861
2193.00,0.2861
2192.00,0.2862
2191.00,0.2863
2190.00,0.2864
2189.00,0.2865
2188.00,0.2866
2187.00,0.2867
2186.00,0.2867
2185.00,0.2868
2184.00,0.2868
2183.00,0.2869
2182.00,0.2869
2181.00,0.2870
2180.00,0.2870
2179.00,0.2870
2178.00,0.2870
2177.00,0.2870
2176.00,0.2869
2175.00,0.2869
2174.00,0.2868
2173.00,0.2868
2172.00,0.2868
2171.00,0.2868
2170.00,0.2868
2169.00,0.2868
2168.00,0.2868
2167.00,0.2867
2166.00,0.2866
2165.00,0.2866
2164.00,0.2865
2163.00,0.2866
2162.00,0.2866
2161.00,0.2866
2160.00,0.2866
2159.00,0.2866
2158.00,0.2866
2157.00,0.2867
2156.00,0.2868
2155.00,0.2868
2154.00,0.2869
2153.00,0.2870
2152.00,0.2871
2151.00,0.2871
2150.00,0.2871
2149.00,0.2870
2148.00,0.2869
2147.00,0.2866
2146.00,0.2862
2145.00,0.2857
2144.00,0.2852
2143.00,0.2847
2142.00,0.2842
2141.00,0.2837
2140.00,0.2833
2139.00,0.2828
2138.00,0.2824
2137.00,0.2820
2136.00,0.2816
2135.00,0.2812
2134.00,0.2808
2133.00,0.2804
2132.00,0.2801
2131.00,0.2798
2130.00,0.2794
2129.00,0.2791
2128.00,0.2788
2127.00,0.2784
2126.00,0.2780
2125.00,0.2778
2124.00,0.2775
2123.00,0.2774
2122.00,0.2772
2121.00,0.2770
2120.00,0.2769
2119.00,0.2767
2118.00,0.2766
2117.00,0.2765
2116.00,0.2764
2115.00,0.2764
2114.00,0.2763
2113.00,0.2762
2112.00,0.2762
2111.00,0.2761
2110.00,0.2759
2109.00,0.2758
2108.00,0.2757
2107.00,0.2756
2106.00,0.2755
2105.00,0.2754
2104.00,0.2753
2103.00,0.2752
2102.00,0.2749
2101.00,0.2747
2100.00,0.2745
2099.00,0.2743
2098.00,0.2741
2097.00,0.2739
2096.00,0.2737
2095.00,0.2734
2094.00,0.2733
2093.00,0.2731
2092.00,0.2729
2091.00,0.2727
2090.00,0.2726
2089.00,0.2724
2088.00,0.2723
2087.00,0.2722
2086.00,0.2721
2085.00,0.2721
2084.00,0.2722
2083.00,0.2722
2082.00,0.2723
2081.00,0.2723
2080.00,0.2724
2079.00,0.2725
2078.00,0.2726
2077.00,0.2727
2076.00,0.2729
2075.00,0.2730
2074.00,0.2730
2073.00,0.2732
2072.00,0.2733
2071.00,0.2734
2070.00,0.2735
2069.00,0.2736
2068.00,0.2737
2067.00,0.2739
2066.00,0.2740
2065.00,0.2742
2064.00,0.2742
2063.00,0.2742
2062.00,0.2742
2061.00,0.2742
2060.00,0.2743
2059.00,0.2744
2058.00,0.2744
2057.00,0.2745
2056.00,0.2746
2055.00,0.2747
2054.00,0.2749
2053.00,0.2751
2052.00,0.2753
2051.00,0.2755
2050.00,0.2757
2049.00,0.2760
2048.00,0.2763
2047.00,0.2766
2046.00,0.2770
2045.00,0.2774
2044.00,0.2778
2043.00,0.2781
2042.00,0.2784
2041.00,0.2787
2040.00,0.2789
2039.00,0.2792
2038.00,0.2794
2037.00,0.2797
2036.00,0.2800
2035.00,0.2801
2034.00,0.2803
2033.00,0.2804
2032.00,0.2806
2031.00,0.2808
2030.00,0.2809
2029.00,0.2810
2028.00,0.2810
2027.00,0.2810
2026.00,0.2809
2025.00,0.2808
2024.00,0.2806
2023.00,0.2803
2022.00,0.2798
2021.00,0.2793
2020.00,0.2787
2019.00,0.2780
2018.00,0.2772
2017.00,0.2763
2016.00,0.2752
2015.00,0.2742
2014.00,0.2732
2013.00,0.2722
2012.00,0.2714
2011.00,0.2706
2010.00,0.2699
2009.00,0.2693
2008.00,0.2688
2007.00,0.2683
2006.00,0.2679
2005.00,0.2675
2004.00,0.2672
2003.00,0.2670
2002.00,0.2668
2001.00,0.2666
2000.00,0.2664
1999.00,0.2663
1998.00,0.2661
1997.00,0.2659
1996.00,0.2658
1995.00,0.2656
1994.00,0.2654
1993.00,0.2654
1992.00,0.2653
1991.00,0.2652
1990.00,0.2651
1989.00,0.2651
1988.00,0.2650
1987.00,0.2648
1986.00,0.2646
1985.00,0.2644
1984.00,0.2643
1983.00,0.2642
1982.00,0.2640
1981.00,0.2639
1980.00,0.2638
1979.00,0.2637
1978.00,0.2636
1977.00,0.2636
1976.00,0.2637
1975.00,0.2637
1974.00,0.2637
1973.00,0.2638
1972.00,0.2639
1971.00,0.2640
1970.00,0.2642
1969.00,0.2644
1968.00,0.2648
1967.00,0.2651
1966.00,0.2653
1965.00,0.2655
1964.00,0.2657
1963.00,0.2659
1962.00,0.2662
1961.00,0.2664
1960.00,0.2666
1959.00,0.2667
1958.00,0.2668
1957.00,0.2670
1956.00,0.2671
1955.00,0.2671
1954.00,0.2671
1953.00,0.2670
1952.00,0.2670
1951.00,0.2669
1950.00,0.2668
1949.00,0.2668
1948.00,0.2668
1947.00,0.2667
1946.00,0.2667
1945.00,0.2667
1944.00,0.2668
1943.00,0.2670
1942.00,0.2674
1941.00,0.2678
1940.00,0.2683
1939.00,0.2687
1938.00,0.2691
1937.00,0.2696
1936.00,0.2700
1935.00,0.2704
1934.00,0.2707
1933.00,0.2710
1932.00,0.2713
1931.00,0.2715
1930.00,0.2717
1929.00,0.2719
1928.00,0.2721
1927.00,0.2722
1926.00,0.2723
1925.00,0.2725
1924.00,0.2729
1923.00,0.2733
1922.00,0.2735
1921.00,0.2734
1920.00,0.2733
1919.00,0.2732
1918.00,0.2734
1917.00,0.2735
1916.00,0.2737
1915.00,0.2738
1914.00,0.2738
1913.00,0.2737
1912.00,0.2735
1911.00,0.2732
1910.00,0.2730
1909.00,0.2728
1908.00,0.2726
1907.00,0.2722
1906.00,0.2719
1905.00,0.2716
1904.00,0.2714
1903.00,0.2712
1902.00,0.2710
1901.00,0.2709
1900.00,0.2708
1899.00,0.2706
1898.00,0.2705
1897.00,0.2704
1896.00,0.2705
1895.00,0.2705
1894.00,0.2705
1893.00,0.2704
1892.00,0.2702
1891.00,0.2702
1890.00,0.2702
1889.00,0.2704
1888.00,0.2706
1887.00,0.2708
1886.00,0.2711
1885.00,0.2713
1884.00,0.2714
1883.00,0.2714
1882.00,0.2713
1881.00,0.2714
1880.00,0.2714
1879.00,0.2714
1878.00,0.2713
1877.00,0.2713
1876.00,0.2713
1875.00,0.2712
1874.00,0.2710
1873.00,0.2707
1872.00,0.2702
1871.00,0.2696
1870.00,0.2692
1869.00,0.2691
1868.00,0.2693
1867.00,0.2695
1866.00,0.2698
1865.00,0.2701
1864.00,0.2704
1863.00,0.2706
1862.00,0.2706
1861.00,0.2706
1860.00,0.2707
1859.00,0.2706
1858.00,0.2705
1857.00,0.2705
1856.00,0.2704
1855.00,0.2703
1854.00,0.2703
1853.00,0.2703
1852.00,0.2702
1851.00,0.2700
1850.00,0.2698
1849.00,0.2697
1848.00,0.2693
1847.00,0.2685
1846.00,0.2677
1845.00,0.2673
1844.00,0.2674
1843.00,0.2678
1842.00,0.2684
1841.00,0.2690
1840.00,0.2695
1839.00,0.2698
1838.00,0.2700
1837.00,0.2702
1836.00,0.2705
1835.00,0.2707
1834.00,0.2707
1833.00,0.2705
1832.00,0.2702
1831.00,0.2701
1830.00,0.2705
1829.00,0.2710
1828.00,0.2716
1827.00,0.2723
1826.00,0.2731
1825.00,0.2741
1824.00,0.2752
1823.00,0.2763
1822.00,0.2773
1821.00,0.2784
1820.00,0.2794
1819.00,0.2804
1818.00,0.2814
1817.00,0.2827
1816.00,0.2840
1815.00,0.2854
1814.00,0.2868
1813.00,0.2884
1812.00,0.2904
1811.00,0.2926
1810.00,0.2953
1809.00,0.2987
1808.00,0.3028
1807.00,0.3077
1806.00,0.3133
1805.00,0.3199
1804.00,0.3278
1803.00,0.3370
1802.00,0.3476
1801.00,0.3592
1800.00,0.3709
1799.00,0.3818
1798.00,0.3911
1797.00,0.3983
1796.00,0.4029
1795.00,0.4052
1794.00,0.4056
1793.00,0.4040
1792.00,0.4001
1791.00,0.3940
1790.00,0.3861
1789.00,0.3771
1788.00,0.3675
1787.00,0.3579
1786.00,0.3487
1785.00,0.3404
1784.00,0.3333
1783.00,0.3274
1782.00,0.3227
1781.00,0.3189
1780.00,0.3157
1779.00,0.3130
1778.00,0.3108
1777.00,0.3087
1776.00,0.3068
1775.00,0.3048
1774.00,0.3031
1773.00,0.3016
1772.00,0.3004
1771.00,0.2996
1770.00,0.2993
1769.00,0.2998
1768.00,0.3004
1767.00,0.3009
1766.00,0.3010
1765.00,0.3010
1764.00,0.3009
1763.00,0.3009
1762.00,0.3011
1761.00,0.3016
1760.00,0.3022
1759.00,0.3028
1758.00,0.3035
1757.00,0.3042
1756.00,0.3049
1755.00,0.3055
1754.00,0.3062
1753.00,0.3071
1752.00,0.3081
1751.00,0.3089
1750.00,0.3096
1749.00,0.3105
1748.00,0.3116
1747.00,0.3128
1746.00,0.3142
1745.00,0.3157
1744.00,0.3171
1743.00,0.3180
1742.00,0.3186
1741.00,0.3195
1740.00,0.3210
1739.00,0.3227
1738.00,0.3240
1737.00,0.3249
1736.00,0.3256
1735.00,0.3264
1734.00,0.3275
1733.00,0.3286
1732.00,0.3291
1731.00,0.3292
1730.00,0.3295
1729.00,0.3300
1728.00,0.3307
1727.00,0.3315
1726.00,0.3327
1725.00,0.3341
1724.00,0.3358
1723.00,0.3374
1722.00,0.3385
1721.00,0.3392
1720.00,0.3401
1719.00,0.3418
1718.00,0.3446
1717.00,0.3476
1716.00,0.3500
1715.00,0.3517
1714.00,0.3535
1713.00,0.3557
1712.00,0.3580
1711.00,0.3600
1710.00,0.3617
1709.00,0.3628
1708.00,0.3635
1707.00,0.3639
1706.00,0.3645
1705.00,0.3650
1704.00,0.3648
1703.00,0.3635
1702.00,0.3613
1701.00,0.3589
1700.00,0.3576
1699.00,0.3581
1698.00,0.3595
1697.00,0.3612
1696.00,0.3622
1695.00,0.3623
1694.00,0.3619
1693.00,0.3618
1692.00,0.3622
1691.00,0.3630
1690.00,0.3638
1689.00,0.3644
1688.00,0.3650
1687.00,0.3656
1686.00,0.3661
1685.00,0.3666
1684.00,0.3673
1683.00,0.3681
1682.00,0.3697
1681.00,0.3724
1680.00,0.3752
1679.00,0.3770
1678.00,0.3778
1677.00,0.3784
1676.00,0.3795
1675.00,0.3815
1674.00,0.3841
1673.00,0.3866
1672.00,0.3888
1671.00,0.3907
1670.00,0.3931
1669.00,0.3962
1668.00,0.3998
1667.00,0.4031
1666.00,0.4056
1665.00,0.4075
1664.00,0.4093
1663.00,0.4113
1662.00,0.4138
1661.00,0.4168
1660.00,0.4197
1659.00,0.4222
1658.00,0.4239
1657.00,0.4248
1656.00,0.4253
1655.00,0.4259
1654.00,0.4277
1653.00,0.4315
1652.00,0.4358
1651.00,0.4386
1650.00,0.4395
1649.00,0.4404
1648.00,0.4427
1647.00,0.4461
1646.00,0.4500
1645.00,0.4542
1644.00,0.4584
1643.00,0.4621
1642.00,0.4656
1641.00,0.4693
1640.00,0.4727
1639.00,0.4755
1638.00,0.4783
1637.00,0.4824
1636.00,0.4881
1635.00,0.4949
1634.00,0.5021
1633.00,0.5096
1632.00,0.5170
1631.00,0.5241
1630.00,0.5311
1629.00,0.5389
1628.00,0.5477
1627.00,0.5566
1626.00,0.5657
1625.00,0.5756
1624.00,0.5873
1623.00,0.6006
1622.00,0.6146
1621.00,0.6286
1620.00,0.6426
1619.00,0.6573
1618.00,0.6744
1617.00,0.6954
1616.00,0.7186
1615.00,0.7411
1614.00,0.7630
1613.00,0.7870
1612.00,0.8147
1611.00,0.8453
1610.00,0.8780
1609.00,0.9129
1608.00,0.9497
1607.00,0.9868
1606.00,1.0241
1605.00,1.0640
1604.00,1.1081
1603.00,1.1552
1602.00,1.2043
1601.00,1.2566
1600.00,1.3126
1599.00,1.3702
1598.00,1.4294
1597.00,1.4967
1596.00,1.5777
1595.00,1.6707
1594.00,1.7738
1593.00,1.8955
1592.00,2.0461
1591.00,2.2195
1590.00,2.4024
1589.00,2.6163
1588.00,2.9085
1587.00,3.2461
1586.00,3.4198
1585.00,3.6059
1584.00,4.1123
1583.00,4.1918
1582.00,3.9172
1581.00,3.6741
1580.00,3.9346
1579.00,4.0086
1578.00,3.5307
1577.00,3.3026
1576.00,3.2080
1575.00,3.0291
1574.00,2.8218
1573.00,2.6990
1572.00,2.6354
1571.00,2.5709
1570.00,2.5016
1569.00,2.4763
1568.00,2.5064
1567.00,2.5548
1566.00,2.6038
1565.00,2.6948
1564.00,2.8608
1563.00,3.0372
1562.00,3.0916
1561.00,3.0629
1560.00,2.9359
1559.00,2.6274
1558.00,2.3410
1557.00,2.1525
1556.00,2.0086
1555.00,1.8700
1554.00,1.7431
1553.00,1.6433
1552.00,1.5684
1551.00,1.5067
1550.00,1.4532
1549.00,1.4106
1548.00,1.3796
1547.00,1.3559
1546.00,1.3366
1545.00,1.3229
1544.00,1.3148
1543.00,1.3097
1542.00,1.3055
1541.00,1.3029
1540.00,1.2999
1539.00,1.2923
1538.00,1.2817
1537.00,1.2717
1536.00,1.2628
1535.00,1.2538
1534.00,1.2456
1533.00,1.2417
1532.00,1.2437
1531.00,1.2502
1530.00,1.2601
1529.00,1.2739
1528.00,1.2917
1527.00,1.3118
1526.00,1.3331
1525.00,1.3563
1524.00,1.3816
1523.00,1.4095
1522.00,1.4424
1521.00,1.4812
1520.00,1.5213
1519.00,1.5572
1518.00,1.5906
1517.00,1.6256
1516.00,1.6597
1515.00,1.6859
1514.00,1.7039
1513.00,1.7192
1512.00,1.7347
1511.00,1.7485
1510.00,1.7614
1509.00,1.7800
1508.00,1.8098
1507.00,1.8489
1506.00,1.8918
1505.00,1.9385
1504.00,1.9875
1503.00,2.0351
1502.00,2.0843
1501.00,2.1430
1500.00,2.2125
1499.00,2.2824
1498.00,2.3467
1497.00,2.4177
1496.00,2.5023
1495.00,2.5861
1494.00,2.6674
1493.00,2.7756
1492.00,2.9234
1491.00,3.0568
1490.00,3.1147
1489.00,3.1548
1488.00,3.2179
1487.00,3.2284
1486.00,3.1973
1485.00,3.2347
1484.00,3.3765
1483.00,3.5408
1482.00,3.6278
1481.00,3.7291
1480.00,3.8178
1479.00,3.8541
1478.00,3.7915
1477.00,3.7695
1476.00,3.9120
1475.00,3.7876
1474.00,3.6256
1473.00,3.5097
1472.00,3.4356
1471.00,3.5319
1470.00,3.8194
1469.00,3.9560
1468.00,3.7864
1467.00,3.7116
1466.00,3.7094
1465.00,3.7594
1464.00,3.9646
1463.00,4.3315
1462.00,4.7272
1461.00,4.8070
1460.00,4.2562
1459.00,4.0376
1458.00,4.0859
1457.00,3.9690
1456.00,3.8713
1455.00,3.8761
1454.00,3.7837
1453.00,3.7835
1452.00,3.8059
1451.00,3.7182
1450.00,3.6929
1449.00,3.6489
1448.00,3.5955
1447.00,3.6694
1446.00,3.8103
1445.00,3.9551
1444.00,4.4155
1443.00,4.4866
1442.00,4.2889
1441.00,4.2365
1440.00,4.0383
1439.00,4.1513
1438.00,4.2782
1437.00,4.1129
1436.00,4.3801
1435.00,4.3923
1434.00,4.0534
1433.00,4.0322
1432.00,4.4014
1431.00,4.8979
1430.00,4.1665
1429.00,4.1154
1428.00,4.1110
1427.00,3.9223
1426.00,3.8757
1425.00,3.8392
1424.00,3.8052
1423.00,3.9795
1422.00,4.1198
1421.00,3.7355
1420.00,3.6468
1419.00,3.6902
1418.00,3.9051
1417.00,4.3324
1416.00,3.8274
1415.00,3.7368
1414.00,4.0861
1413.00,4.7327
1412.00,4.2133
1411.00,3.9753
1410.00,3.8479
1409.00,3.8983
1408.00,4.0456
1407.00,3.8717
1406.00,3.7627
1405.00,3.7889
1404.00,3.9123
1403.00,4.2037
1402.00,4.3328
1401.00,4.0501
1400.00,3.8475
1399.00,3.6930
1398.00,3.5786
1397.00,3.4836
1396.00,3.4615
1395.00,3.4391
1394.00,3.3160
1393.00,3.1787
1392.00,3.0450
1391.00,2.8958
1390.00,2.7519
1389.00,2.6361
1388.00,2.5475
1387.00,2.4784
1386.00,2.4328
1385.00,2.4192
1384.00,2.4359
1383.00,2.4754
1382.00,2.5388
1381.00,2.6379
1380.00,2.7722
1379.00,2.8936
1378.00,2.9166
1377.00,2.8210
1376.00,2.6521
1375.00,2.4576
1374.00,2.2783
1373.00,2.1335
1372.00,2.0213
1371.00,1.9329
1370.00,1.8633
1369.00,1.8101
1368.00,1.7674
1367.00,1.7265
1366.00,1.6811
1365.00,1.6289
1364.00,1.5708
1363.00,1.5108
1362.00,1.4551
1361.00,1.4085
1360.00,1.3712
1359.00,1.3413
1358.00,1.3175
1357.00,1.2998
1356.00,1.2879
1355.00,1.2804
1354.00,1.2761
1353.00,1.2743
1352.00,1.2743
1351.00,1.2753
1350.00,1.2777
1349.00,1.2829
1348.00,1.2924
1347.00,1.3065
1346.00,1.3238
1345.00,1.3409
1344.00,1.3527
1343.00,1.3551
1342.00,1.3477
1341.00,1.3333
1340.00,1.3150
1339.00,1.2951
1338.00,1.2762
1337.00,1.2605
1336.00,1.2488
1335.00,1.2403
1334.00,1.2341
1333.00,1.2294
1332.00,1.2259
1331.00,1.2235
1330.00,1.2222
1329.00,1.2227
1328.00,1.2252
1327.00,1.2295
1326.00,1.2354
1325.00,1.2433
1324.00,1.2527
1323.00,1.2627
1322.00,1.2719
1321.00,1.2799
1320.00,1.2861
1319.00,1.2903
1318.00,1.2928
1317.00,1.2945
1316.00,1.2962
1315.00,1.2978
1314.00,1.2996
1313.00,1.3021
1312.00,1.3053
1311.00,1.3083
1310.00,1.3107
1309.00,1.3124
1308.00,1.3127
1307.00,1.3107
1306.00,1.3061
1305.00,1.2993
1304.00,1.2905
1303.00,1.2794
1302.00,1.2662
1301.00,1.2518
1300.00,1.2369
1299.00,1.2214
1298.00,1.2049
1297.00,1.1881
1296.00,1.1713
1295.00,1.1550
1294.00,1.1393
1293.00,1.1242
1292.00,1.1091
1291.00,1.0932
1290.00,1.0767
1289.00,1.0602
1288.00,1.0447
1287.00,1.0308
1286.00,1.0189
1285.00,1.0091
1284.00,1.0009
1283.00,0.9942
1282.00,0.9892
1281.00,0.9863
1280.00,0.9850
1279.00,0.9834
1278.00,0.9792
1277.00,0.9708
1276.00,0.9583
1275.00,0.9436
1274.00,0.9290
1273.00,0.9168
1272.00,0.9079
1271.00,0.9021
1270.00,0.8989
1269.00,0.8971
1268.00,0.8957
1267.00,0.8938
1266.00,0.8908
1265.00,0.8870
1264.00,0.8832
1263.00,0.8801
1262.00,0.8781
1261.00,0.8772
1260.00,0.8772
1259.00,0.8782
1258.00,0.8800
1257.00,0.8830
1256.00,0.8872
1255.00,0.8924
1254.00,0.8984
1253.00,0.9051
1252.00,0.9120
1251.00,0.9188
1250.00,0.9253
1249.00,0.9319
1248.00,0.9390
1247.00,0.9468
1246.00,0.9551
1245.00,0.9642
1244.00,0.9742
1243.00,0.9851
1242.00,0.9966
1241.00,1.0086
1240.00,1.0210
1239.00,1.0336
1238.00,1.0470
1237.00,1.0622
1236.00,1.0798
1235.00,1.0994
1234.00,1.1206
1233.00,1.1428
1232.00,1.1658
1231.00,1.1886
1230.00,1.2102
1229.00,1.2298
1228.00,1.2465
1227.00,1.2591
1226.00,1.2676
1225.00,1.2740
1224.00,1.2799
1223.00,1.2856
1222.00,1.2910
1221.00,1.2967
1220.00,1.3032
1219.00,1.3104
1218.00,1.3176
1217.00,1.3249
1216.00,1.3323
1215.00,1.3396
1214.00,1.3473
1213.00,1.3558
1212.00,1.3653
1211.00,1.3751
1210.00,1.3851
1209.00,1.3958
1208.00,1.4076
1207.00,1.4201
1206.00,1.4337
1205.00,1.4492
1204.00,1.4671
1203.00,1.4863
1202.00,1.5063
1201.00,1.5275
1200.00,1.5497
1199.00,1.5711
1198.00,1.5908
1197.00,1.6101
1196.00,1.6299
1195.00,1.6494
1194.00,1.6670
1193.00,1.6826
1192.00,1.6955
1191.00,1.7032
1190.00,1.7041
1189.00,1.6984
1188.00,1.6865
1187.00,1.6688
1186.00,1.6467
1185.00,1.6227
1184.00,1.5975
1183.00,1.5700
1182.00,1.5405
1181.00,1.5109
1180.00,1.4824
1179.00,1.4551
1178.00,1.4293
1177.00,1.4053
1176.00,1.3829
1175.00,1.3611
1174.00,1.3401
1173.00,1.3210
1172.00,1.3043
1171.00,1.2897
1170.00,1.2767
1169.00,1.2651
1168.00,1.2551
1167.00,1.2470
1166.00,1.2414
1165.00,1.2391
1164.00,1.2402
1163.00,1.2443
1162.00,1.2502
1161.00,1.2564
1160.00,1.2607
1159.00,1.2613
1158.00,1.2586
1157.00,1.2546
1156.00,1.2503
1155.00,1.2447
1154.00,1.2364
1153.00,1.2251
1152.00,1.2111
1151.00,1.1947
1150.00,1.1766
1149.00,1.1583
1148.00,1.1411
1147.00,1.1261
1146.00,1.1138
1145.00,1.1048
1144.00,1.0990
1143.00,1.0954
1142.00,1.0932
1141.00,1.0916
1140.00,1.0897
1139.00,1.0867
1138.00,1.0822
1137.00,1.0766
1136.00,1.0701
1135.00,1.0620
1134.00,1.0512
1133.00,1.0364
1132.00,1.0167
1131.00,0.9921
1130.00,0.9645
1129.00,0.9365
1128.00,0.9105
1127.00,0.8875
1126.00,0.8674
1125.00,0.8490
1124.00,0.8314
1123.00,0.8143
1122.00,0.7983
1121.00,0.7849
1120.00,0.7749
1119.00,0.7684
1118.00,0.7652
1117.00,0.7643
1116.00,0.7648
1115.00,0.7651
1114.00,0.7636
1113.00,0.7593
1112.00,0.7521
1111.00,0.7427
1110.00,0.7324
1109.00,0.7224
1108.00,0.7136
1107.00,0.7069
1106.00,0.7024
1105.00,0.7003
1104.00,0.7005
1103.00,0.7027
1102.00,0.7066
1101.00,0.7118
1100.00,0.7172
1099.00,0.7216
1098.00,0.7244
1097.00,0.7258
1096.00,0.7274
1095.00,0.7305
1094.00,0.7357
1093.00,0.7428
1092.00,0.7513
1091.00,0.7605
1090.00,0.7697
1089.00,0.7788
1088.00,0.7873
1087.00,0.7945
1086.00,0.7999
1085.00,0.8034
1084.00,0.8050
1083.00,0.8052
1082.00,0.8042
1081.00,0.8024
1080.00,0.7999
1079.00,0.7966
1078.00,0.7923
1077.00,0.7865
1076.00,0.7792
1075.00,0.7707
1074.00,0.7615
1073.00,0.7525
1072.00,0.7448
1071.00,0.7387
1070.00,0.7346
1069.00,0.7326
1068.00,0.7336
1067.00,0.7384
1066.00,0.7482
1065.00,0.7639
1064.00,0.7860
1063.00,0.8137
1062.00,0.8436
1061.00,0.8706
1060.00,0.8887
1059.00,0.8947
1058.00,0.8901
1057.00,0.8790
1056.00,0.8659
1055.00,0.8529
1054.00,0.8403
1053.00,0.8280
1052.00,0.8155
1051.00,0.8023
1050.00,0.7880
1049.00,0.7730
1048.00,0.7579
1047.00,0.7433
1046.00,0.7293
1045.00,0.7158
1044.00,0.7029
1043.00,0.6909
1042.00,0.6804
1041.00,0.6722
1040.00,0.6667
1039.00,0.6637
1038.00,0.6632
1037.00,0.6648
1036.00,0.6687
1035.00,0.6748
1034.00,0.6826
1033.00,0.6916
1032.00,0.7012
1031.00,0.7110
1030.00,0.7200
1029.00,0.7274
1028.00,0.7324
1027.00,0.7343
1026.00,0.7322
1025.00,0.7258
1024.00,0.7154
1023.00,0.7023
1022.00,0.6885
1021.00,0.6766
1020.00,0.6687
1019.00,0.6665
1018.00,0.6702
1017.00,0.6783
1016.00,0.6873
1015.00,0.6927
1014.00,0.6904
1013.00,0.6792
1012.00,0.6612
1011.00,0.6406
1010.00,0.6208
1009.00,0.6032
1008.00,0.5876
1007.00,0.5733
1006.00,0.5605
1005.00,0.5498
1004.00,0.5417
1003.00,0.5361
1002.00,0.5324
1001.00,0.5297
1000.00,0.5276
999.00,0.5256
998.00,0.5231
997.00,0.5199
996.00,0.5162
995.00,0.5125
994.00,0.5091
993.00,0.5061
992.00,0.5037
991.00,0.5016
990.00,0.4996
989.00,0.4976
988.00,0.4951
987.00,0.4925
986.00,0.4900
985.00,0.4880
984.00,0.4868
983.00,0.4866
982.00,0.4872
981.00,0.4885
980.00,0.4904
979.00,0.4930
978.00,0.4964
977.00,0.5010
976.00,0.5079
975.00,0.5183
974.00,0.5331
973.00,0.5536
972.00,0.5810
971.00,0.6159
970.00,0.6557
969.00,0.6941
968.00,0.7210
967.00,0.7278
966.00,0.7136
965.00,0.6856
964.00,0.6534
963.00,0.6236
962.00,0.5998
961.00,0.5832
960.00,0.5743
959.00,0.5725
958.00,0.5760
957.00,0.5822
956.00,0.5885
955.00,0.5929
954.00,0.5945
953.00,0.5933
952.00,0.5903
951.00,0.5867
950.00,0.5834
949.00,0.5813
948.00,0.5811
947.00,0.5831
946.00,0.5869
945.00,0.5920
944.00,0.5978
943.00,0.6035
942.00,0.6084
941.00,0.6121
940.00,0.6144
939.00,0.6153
938.00,0.6147
937.00,0.6127
936.00,0.6099
935.00,0.6065
934.00,0.6025
933.00,0.5976
932.00,0.5916
931.00,0.5842
930.00,0.5756
929.00,0.5660
928.00,0.5566
927.00,0.5481
926.00,0.5413
925.00,0.5364
924.00,0.5336
923.00,0.5326
922.00,0.5324
921.00,0.5316
920.00,0.5294
919.00,0.5252
918.00,0.5194
917.00,0.5132
916.00,0.5082
915.00,0.5054
914.00,0.5047
913.00,0.5051
912.00,0.5057
911.00,0.5057
910.00,0.5044
909.00,0.5022
908.00,0.5002
907.00,0.4993
906.00,0.4995
905.00,0.5003
904.00,0.5014
903.00,0.5019
902.00,0.5015
901.00,0.5003
900.00,0.4991
899.00,0.4983
898.00,0.4980
897.00,0.4983
896.00,0.4999
895.00,0.5032
894.00,0.5082
893.00,0.5150
892.00,0.5241
891.00,0.5368
890.00,0.5566
889.00,0.5930
888.00,0.6616
887.00,0.7811
886.00,0.9699
885.00,1.2437
884.00,1.6080
883.00,2.0274
882.00,2.3649
881.00,2.4987
880.00,2.4425
879.00,2.2190
878.00,1.9330
877.00,1.6469
876.00,1.3866
875.00,1.1654
874.00,0.9873
873.00,0.8496
872.00,0.7469
871.00,0.6731
870.00,0.6223
869.00,0.5886
868.00,0.5662
867.00,0.5509
866.00,0.5397
865.00,0.5313
864.00,0.5247
863.00,0.5195
862.00,0.5146
861.00,0.5085
860.00,0.5004
859.00,0.4909
858.00,0.4813
857.00,0.4729
856.00,0.4661
855.00,0.4613
854.00,0.4587
853.00,0.4584
852.00,0.4614
851.00,0.4681
850.00,0.4777
849.00,0.4865
848.00,0.4908
847.00,0.4896
846.00,0.4859
845.00,0.4835
844.00,0.4845
843.00,0.4889
842.00,0.4961
841.00,0.5057
840.00,0.5175
839.00,0.5309
838.00,0.5449
837.00,0.5577
836.00,0.5673
835.00,0.5720
834.00,0.5719
833.00,0.5679
832.00,0.5617
831.00,0.5546
830.00,0.5474
829.00,0.5401
828.00,0.5323
827.00,0.5241
826.00,0.5156
825.00,0.5078
824.00,0.5013
823.00,0.4961
822.00,0.4917
821.00,0.4875
820.00,0.4831
819.00,0.4784
818.00,0.4738
817.00,0.4697
816.00,0.4663
815.00,0.4636
814.00,0.4617
813.00,0.4606
812.00,0.4603
811.00,0.4609
810.00,0.4624
809.00,0.4647
808.00,0.4672
807.00,0.4694
806.00,0.4710
805.00,0.4718
804.00,0.4717
803.00,0.4709
802.00,0.4696
801.00,0.4680
800.00,0.4662
799.00,0.4645
798.00,0.4627
797.00,0.4608
796.00,0.4587
795.00,0.4567
794.00,0.4552
793.00,0.4544
792.00,0.4545
791.00,0.4556
790.00,0.4573
789.00,0.4594
788.00,0.4617
787.00,0.4642
786.00,0.4674
785.00,0.4715
784.00,0.4768
783.00,0.4835
782.00,0.4917
781.00,0.5016
780.00,0.5130
779.00,0.5248
778.00,0.5357
777.00,0.5442
776.00,0.5500
775.00,0.5537
774.00,0.5568
773.00,0.5604
772.00,0.5647
771.00,0.5697
770.00,0.5749
769.00,0.5799
768.00,0.5846
767.00,0.5891
766.00,0.5939
765.00,0.5990
764.00,0.6047
763.00,0.6112
762.00,0.6185
761.00,0.6263
760.00,0.6340
759.00,0.6414
758.00,0.6486
757.00,0.6559
756.00,0.6637
755.00,0.6719
754.00,0.6805
753.00,0.6896
752.00,0.6988
751.00,0.7082
750.00,0.7180
749.00,0.7283
748.00,0.7389
747.00,0.7501
746.00,0.7620
745.00,0.7746
744.00,0.7879
743.00,0.8022
742.00,0.8177
741.00,0.8352
740.00,0.8549
739.00,0.8767
738.00,0.9006
737.00,0.9262
736.00,0.9529
735.00,0.9804
734.00,1.0084
733.00,1.0369
732.00,1.0661
731.00,1.0967
730.00,1.1306
729.00,1.1692
728.00,1.2133
727.00,1.2635
726.00,1.3211
725.00,1.3856
724.00,1.4532
723.00,1.5149
722.00,1.5575
721.00,1.5687
720.00,1.5467
719.00,1.5030
718.00,1.4544
717.00,1.4135
716.00,1.3860
715.00,1.3701
714.00,1.3545
713.00,1.3225
712.00,1.2649
711.00,1.1890
710.00,1.1093
709.00,1.0358
708.00,0.9728
707.00,0.9213
706.00,0.8811
705.00,0.8514
704.00,0.8312
703.00,0.8194
702.00,0.8141
701.00,0.8122
700.00,0.8098
699.00,0.8032
698.00,0.7903
697.00,0.7712
696.00,0.7486
695.00,0.7260
694.00,0.7058
693.00,0.6889
692.00,0.6752
691.00,0.6648
690.00,0.6567
689.00,0.6490
688.00,0.6394
687.00,0.6265
686.00,0.6110
685.00,0.5946
684.00,0.5796
683.00,0.5679
682.00,0.5602
681.00,0.5565
680.00,0.5561
679.00,0.5583
678.00,0.5624
677.00,0.5676
676.00,0.5728
675.00,0.5770
674.00,0.5799
673.00,0.5812
672.00,0.5810
671.00,0.5796
670.00,0.5772
669.00,0.5729
668.00,0.5665
667.00,0.5611
666.00,0.5586
665.00,0.5577
664.00,0.5573
663.00,0.5572
662.00,0.5578
661.00,0.5594
660.00,0.5616
659.00,0.5645
658.00,0.5679
657.00,0.5714
656.00,0.5743
655.00,0.5756
654.00,0.5749
653.00,0.5719
652.00,0.5665
651.00,0.5592
650.00,0.5512
649.00,0.5443
648.00,0.5393
647.00,0.5366
646.00,0.5356
645.00,0.5356
644.00,0.5363
643.00,0.5377
642.00,0.5402
641.00,0.5443
640.00,0.5500
639.00,0.5575
638.00,0.5664
637.00,0.5763
636.00,0.5867
635.00,0.5970
634.00,0.6069
633.00,0.6165
632.00,0.6259
631.00,0.6349
630.00,0.6429
629.00,0.6496
628.00,0.6551
627.00,0.6601
626.00,0.6649
625.00,0.6697
624.00,0.6742
623.00,0.6779
622.00,0.6807
621.00,0.6827
620.00,0.6844
619.00,0.6861
618.00,0.6884
617.00,0.6910
616.00,0.6933
615.00,0.6940
614.00,0.6925
613.00,0.6890
612.00,0.6840
611.00,0.6783
610.00,0.6729
609.00,0.6685
608.00,0.6653
607.00,0.6629
606.00,0.6613
605.00,0.6609
604.00,0.6626
603.00,0.6664
602.00,0.6722
601.00,0.6793
600.00,0.6873
599.00,0.6955
598.00,0.7040
597.00,0.7132
596.00,0.7233
595.00,0.7340
594.00,0.7447
593.00,0.7552
592.00,0.7650
591.00,0.7730
590.00,0.7780
589.00,0.7802
588.00,0.7802
587.00,0.7782
586.00,0.7743
585.00,0.7683
584.00,0.7604
583.00,0.7512
582.00,0.7411
581.00,0.7308
580.00,0.7211
579.00,0.7123
578.00,0.7051
577.00,0.6995
576.00,0.6953
575.00,0.6924
574.00,0.6905
573.00,0.6894
572.00,0.6887
571.00,0.6876
570.00,0.6862
569.00,0.6851
568.00,0.6842
567.00,0.6829
566.00,0.6813
565.00,0.6796
564.00,0.6783
563.00,0.6776
562.00,0.6773
561.00,0.6773
560.00,0.6775
559.00,0.6780
558.00,0.6788
557.00,0.6800
556.00,0.6816
555.00,0.6829
554.00,0.6839
553.00,0.6849
552.00,0.6862
551.00,0.6875
550.00,0.6885
