Created as New Dataset,
cm-1,A
4000.00,1.0553
3999.00,1.0547
3998.00,1.0543
3997.00,1.0537
3996.00,1.0531
3995.00,1.0524
3994.00,1.0519
3993.00,1.0514
3992.00,1.0511
3991.00,1.0507
3990.00,1.0502
3989.00,1.0497
3988.00,1.0491
3987.00,1.0484
3986.00,1.0479
3985.00,1.0474
3984.00,1.0470
3983.00,1.0465
3982.00,1.0458
3981.00,1.0451
3980.00,1.0445
3979.00,1.0440
3978.00,1.0437
3977.00,1.0436
3976.00,1.0434
3975.00,1.0431
3974.00,1.0425
3973.00,1.0418
3972.00,1.0413
3971.00,1.0409
3970.00,1.0405
3969.00,1.0401
3968.00,1.0396
3967.00,1.0391
3966.00,1.0387
3965.00,1.0385
3964.00,1.0384
3963.00,1.0384
3962.00,1.0382
3961.00,1.0376
3960.00,1.0369
3959.00,1.0362
3958.00,1.0358
3957.00,1.0357
3956.00,1.0359
3955.00,1.0362
3954.00,1.0366
3953.00,1.0366
3952.00,1.0362
3951.00,1.0355
3950.00,1.0347
3949.00,1.0340
3948.00,1.0336
3947.00,1.0335
3946.00,1.0334
3945.00,1.0332
3944.00,1.0328
3943.00,1.0323
3942.00,1.0318
3941.00,1.0314
3940.00,1.0312
3939.00,1.0311
3938.00,1.0310
3937.00,1.0309
3936.00,1.0307
3935.00,1.0303
3934.00,1.0299
3933.00,1.0295
3932.00,1.0290
3931.00,1.0285
3930.00,1.0280
3929.00,1.0277
3928.00,1.0277
3927.00,1.0278
3926.00,1.0280
3925.00,1.0280
3924.00,1.0276
3923.00,1.0271
3922.00,1.0266
3921.00,1.0263
3920.00,1.0263
3919.00,1.0263
3918.00,1.0262
3917.00,1.0260
3916.00,1.0256
3915.00,1.0251
3914.00,1.0247
3913.00,1.0243
3912.00,1.0240
3911.00,1.0239
3910.00,1.0239
3909.00,1.0239
3908.00,1.0241
3907.00,1.0242
3906.00,1.0243
3905.00,1.0243
3904.00,1.0242
3903.00,1.0237
3902.00,1.0231
3901.00,1.0226
3900.00,1.0223
3899.00,1.0223
3898.00,1.0222
3897.00,1.0220
3896.00,1.0217
3895.00,1.0214
3894.00,1.0211
3893.00,1.0208
3892.00,1.0206
3891.00,1.0203
3890.00,1.0200
3889.00,1.0196
3888.00,1.0191
3887.00,1.0189
3886.00,1.0190
3885.00,1.0192
3884.00,1.0191
3883.00,1.0189
3882.00,1.0186
3881.00,1.0183
3880.00,1.0179
3879.00,1.0173
3878.00,1.0166
3877.00,1.0161
3876.00,1.0158
3875.00,1.0157
3874.00,1.0156
3873.00,1.0154
3872.00,1.0151
3871.00,1.0148
3870.00,1.0147
3869.00,1.0146
3868.00,1.0143
3867.00,1.0139
3866.00,1.0135
3865.00,1.0133
3864.00,1.0132
3863.00,1.0129
3862.00,1.0123
3861.00,1.0117
3860.00,1.0114
3859.00,1.0115
3858.00,1.0117
3857.00,1.0118
3856.00,1.0116
3855.00,1.0111
3854.00,1.0106
3853.00,1.0102
3852.00,1.0098
3851.00,1.0093
3850.00,1.0088
3849.00,1.0086
3848.00,1.0085
3847.00,1.0085
3846.00,1.0083
3845.00,1.0081
3844.00,1.0079
3843.00,1.0079
3842.00,1.0080
3841.00,1.0080
3840.00,1.0076
3839.00,1.0071
3838.00,1.0065
3837.00,1.0061
3836.00,1.0059
3835.00,1.0057
3834.00,1.0054
3833.00,1.0052
3832.00,1.0049
3831.00,1.0046
3830.00,1.0044
3829.00,1.0041
3828.00,1.0038
3827.00,1.0036
3826.00,1.0035
3825.00,1.0032
3824.00,1.0028
3823.00,1.0022
3822.00,1.0017
3821.00,1.0014
3820.00,1.0012
3819.00,1.0009
3818.00,1.0006
3817.00,1.0004
3816.00,1.0004
3815.00,1.0004
3814.00,1.0000
3813.00,0.9994
3812.00,0.9986
3811.00,0.9980
3810.00,0.9975
3809.00,0.9971
3808.00,0.9969
3807.00,0.9968
3806.00,0.9967
3805.00,0.9964
3804.00,0.9961
3803.00,0.9958
3802.00,0.9958
3801.00,0.9958
3800.00,0.9956
3799.00,0.9950
3798.00,0.9943
3797.00,0.9937
3796.00,0.9932
3795.00,0.9927
3794.00,0.9924
3793.00,0.9921
3792.00,0.9921
3791.00,0.9921
3790.00,0.9919
3789.00,0.9916
3788.00,0.9912
3787.00,0.9908
3786.00,0.9904
3785.00,0.9901
3784.00,0.9897
3783.00,0.9893
3782.00,0.9889
3781.00,0.9886
3780.00,0.9886
3779.00,0.9886
3778.00,0.9884
3777.00,0.9879
3776.00,0.9872
3775.00,0.9866
3774.00,0.9861
3773.00,0.9857
3772.00,0.9854
3771.00,0.9851
3770.00,0.9849
3769.00,0.9846
3768.00,0.9842
3767.00,0.9838
3766.00,0.9834
3765.00,0.9830
3764.00,0.9827
3763.00,0.9822
3762.00,0.9816
3761.00,0.9812
3760.00,0.9809
3759.00,0.9807
3758.00,0.9806
3757.00,0.9804
3756.00,0.9802
3755.00,0.9799
3754.00,0.9796
3753.00,0.9792
3752.00,0.9788
3751.00,0.9783
3750.00,0.9779
3749.00,0.9774
3748.00,0.9769
3747.00,0.9765
3746.00,0.9763
3745.00,0.9764
3744.00,0.9767
3743.00,0.9767
3742.00,0.9763
3741.00,0.9759
3740.00,0.9755
3739.00,0.9754
3738.00,0.9752
3737.00,0.9750
3736.00,0.9747
3735.00,0.9743
3734.00,0.9739
3733.00,0.9736
3732.00,0.9735
3731.00,0.9732
3730.00,0.9726
3729.00,0.9719
3728.00,0.9713
3727.00,0.9711
3726.00,0.9709
3725.00,0.9705
3724.00,0.9699
3723.00,0.9694
3722.00,0.9691
3721.00,0.9689
3720.00,0.9688
3719.00,0.9686
3718.00,0.9684
3717.00,0.9681
3716.00,0.9678
3715.00,0.9673
3714.00,0.9668
3713.00,0.9664
3712.00,0.9663
3711.00,0.9663
3710.00,0.9662
3709.00,0.9660
3708.00,0.9658
3707.00,0.9656
3706.00,0.9656
3705.00,0.9655
3704.00,0.9654
3703.00,0.9653
3702.00,0.9651
3701.00,0.9646
3700.00,0.9639
3699.00,0.9632
3698.00,0.9628
3697.00,0.9626
3696.00,0.9627
3695.00,0.9628
3694.00,0.9627
3693.00,0.9625
3692.00,0.9621
3691.00,0.9616
3690.00,0.9612
3689.00,0.9612
3688.00,0.9614
3687.00,0.9615
3686.00,0.9614
3685.00,0.9609
3684.00,0.9605
3683.00,0.9600
3682.00,0.9597
3681.00,0.9595
3680.00,0.9594
3679.00,0.9593
3678.00,0.9591
3677.00,0.9589
3676.00,0.9586
3675.00,0.9584
3674.00,0.9581
3673.00,0.9577
3672.00,0.9574
3671.00,0.9572
3670.00,0.9570
3669.00,0.9568
3668.00,0.9566
3667.00,0.9566
3666.00,0.9566
3665.00,0.9567
3664.00,0.9567
3663.00,0.9566
3662.00,0.9566
3661.00,0.9565
3660.00,0.9564
3659.00,0.9562
3658.00,0.9560
3657.00,0.9558
3656.00,0.9558
3655.00,0.9560
3654.00,0.9562
3653.00,0.9563
3652.00,0.9564
3651.00,0.9564
3650.00,0.9564
3649.00,0.9564
3648.00,0.9564
3647.00,0.9564
3646.00,0.9562
3645.00,0.9559
3644.00,0.9556
3643.00,0.9553
3642.00,0.9549
3641.00,0.9544
3640.00,0.9539
3639.00,0.9535
3638.00,0.9533
3637.00,0.9532
3636.00,0.9532
3635.00,0.9533
3634.00,0.9533
3633.00,0.9533
3632.00,0.9532
3631.00,0.9530
3630.00,0.9529
3629.00,0.9529
3628.00,0.9532
3627.00,0.9536
3626.00,0.9538
3625.00,0.9539
3624.00,0.9539
3623.00,0.9538
3622.00,0.9537
3621.00,0.9534
3620.00,0.9530
3619.00,0.9525
3618.00,0.9521
3617.00,0.9516
3616.00,0.9511
3615.00,0.9505
3614.00,0.9499
3613.00,0.9496
3612.00,0.9493
3611.00,0.9490
3610.00,0.9487
3609.00,0.9484
3608.00,0.9483
3607.00,0.9482
3606.00,0.9480
3605.00,0.9476
3604.00,0.9471
3603.00,0.9466
3602.00,0.9460
3601.00,0.9455
3600.00,0.9448
3599.00,0.9441
3598.00,0.9433
3597.00,0.9425
3596.00,0.9419
3595.00,0.9414
3594.00,0.9409
3593.00,0.9403
3592.00,0.9398
3591.00,0.9392
3590.00,0.9387
3589.00,0.9381
3588.00,0.9375
3587.00,0.9369
3586.00,0.9365
3585.00,0.9362
3584.00,0.9360
3583.00,0.9357
3582.00,0.9353
3581.00,0.9349
3580.00,0.9346
3579.00,0.9343
3578.00,0.9341
3577.00,0.9338
3576.00,0.9336
3575.00,0.9333
3574.00,0.9331
3573.00,0.9329
3572.00,0.9329
3571.00,0.9329
3570.00,0.9331
3569.00,0.9332
3568.00,0.9333
3567.00,0.9333
3566.00,0.9331
3565.00,0.9328
3564.00,0.9324
3563.00,0.9321
3562.00,0.9319
3561.00,0.9318
3560.00,0.9316
3559.00,0.9315
3558.00,0.9315
3557.00,0.9316
3556.00,0.9317
3555.00,0.9317
3554.00,0.9316
3553.00,0.9315
3552.00,0.9315
3551.00,0.9315
3550.00,0.9315
3549.00,0.9315
3548.00,0.9315
3547.00,0.9315
3546.00,0.9315
3545.00,0.9315
3544.00,0.9315
3543.00,0.9315
3542.00,0.9315
3541.00,0.9315
3540.00,0.9315
3539.00,0.9316
3538.00,0.9316
3537.00,0.9316
3536.00,0.9315
3535.00,0.9315
3534.00,0.9316
3533.00,0.9317
3532.00,0.9318
3531.00,0.9319
3530.00,0.9318
3529.00,0.9318
3528.00,0.9318
3527.00,0.9318
3526.00,0.9318
3525.00,0.9317
3524.00,0.9317
3523.00,0.9315
3522.00,0.9314
3521.00,0.9312
3520.00,0.9311
3519.00,0.9311
3518.00,0.9312
3517.00,0.9314
3516.00,0.9317
3515.00,0.9319
3514.00,0.9320
3513.00,0.9322
3512.00,0.9325
3511.00,0.9328
3510.00,0.9330
3509.00,0.9332
3508.00,0.9333
3507.00,0.9334
3506.00,0.9335
3505.00,0.9337
3504.00,0.9339
3503.00,0.9341
3502.00,0.9343
3501.00,0.9344
3500.00,0.9345
3499.00,0.9347
3498.00,0.9350
3497.00,0.9353
3496.00,0.9355
3495.00,0.9358
3494.00,0.9362
3493.00,0.9368
3492.00,0.9373
3491.00,0.9377
3490.00,0.9380
3489.00,0.9382
3488.00,0.9384
3487.00,0.9387
3486.00,0.9391
3485.00,0.9394
3484.00,0.9397
3483.00,0.9398
3482.00,0.9400
3481.00,0.9402
3480.00,0.9404
3479.00,0.9406
3478.00,0.9407
3477.00,0.9408
3476.00,0.9408
3475.00,0.9407
3474.00,0.9408
3473.00,0.9409
3472.00,0.9412
3471.00,0.9415
3470.00,0.9418
3469.00,0.9421
3468.00,0.9424
3467.00,0.9427
3466.00,0.9429
3465.00,0.9431
3464.00,0.9432
3463.00,0.9435
3462.00,0.9437
3461.00,0.9440
3460.00,0.9442
3459.00,0.9445
3458.00,0.9447
3457.00,0.9449
3456.00,0.9451
3455.00,0.9453
3454.00,0.9456
3453.00,0.9460
3452.00,0.9465
3451.00,0.9470
3450.00,0.9475
3449.00,0.9479
3448.00,0.9483
3447.00,0.9484
3446.00,0.9486
3445.00,0.9488
3444.00,0.9491
3443.00,0.9497
3442.00,0.9503
3441.00,0.9509
3440.00,0.9515
3439.00,0.9519
3438.00,0.9521
3437.00,0.9522
3436.00,0.9522
3435.00,0.9524
3434.00,0.9527
3433.00,0.9533
3432.00,0.9539
3431.00,0.9544
3430.00,0.9548
3429.00,0.9551
3428.00,0.9555
3427.00,0.9559
3426.00,0.9563
3425.00,0.9568
3424.00,0.9573
3423.00,0.9579
3422.00,0.9585
3421.00,0.9591
3420.00,0.9597
3419.00,0.9604
3418.00,0.9610
3417.00,0.9616
3416.00,0.9621
3415.00,0.9627
3414.00,0.9632
3413.00,0.9639
3412.00,0.9645
3411.00,0.9651
3410.00,0.9658
3409.00,0.9665
3408.00,0.9672
3407.00,0.9677
3406.00,0.9682
3405.00,0.9688
3404.00,0.9694
3403.00,0.9701
3402.00,0.9709
3401.00,0.9716
3400.00,0.9723
3399.00,0.9728
3398.00,0.9734
3397.00,0.9739
3396.00,0.9747
3395.00,0.9756
3394.00,0.9765
3393.00,0.9774
3392.00,0.9783
3391.00,0.9792
3390.00,0.9801
3389.00,0.9809
3388.00,0.9815
3387.00,0.9821
3386.00,0.9828
3385.00,0.9836
3384.00,0.9844
3383.00,0.9852
3382.00,0.9860
3381.00,0.9867
3380.00,0.9875
3379.00,0.9884
3378.00,0.9891
3377.00,0.9898
3376.00,0.9905
3375.00,0.9914
3374.00,0.9925
3373.00,0.9936
3372.00,0.9947
3371.00,0.9958
3370.00,0.9968
3369.00,0.9977
3368.00,0.9986
3367.00,0.9995
3366.00,1.0005
3365.00,1.0015
3364.00,1.0026
3363.00,1.0038
3362.00,1.0050
3361.00,1.0064
3360.00,1.0077
3359.00,1.0089
3358.00,1.0100
3357.00,1.0110
3356.00,1.0121
3355.00,1.0133
3354.00,1.0147
3353.00,1.0161
3352.00,1.0176
3351.00,1.0191
3350.00,1.0205
3349.00,1.0217
3348.00,1.0228
3347.00,1.0237
3346.00,1.0247
3345.00,1.0257
3344.00,1.0268
3343.00,1.0281
3342.00,1.0295
3341.00,1.0308
3340.00,1.0318
3339.00,1.0327
3338.00,1.0336
3337.00,1.0345
3336.00,1.0353
3335.00,1.0360
3334.00,1.0365
3333.00,1.0369
3332.00,1.0373
3331.00,1.0378
3330.00,1.0381
3329.00,1.0385
3328.00,1.0388
3327.00,1.0391
3326.00,1.0392
3325.00,1.0390
3324.00,1.0385
3323.00,1.0380
3322.00,1.0377
3321.00,1.0374
3320.00,1.0370
3319.00,1.0365
3318.00,1.0358
3317.00,1.0350
3316.00,1.0342
3315.00,1.0335
3314.00,1.0329
3313.00,1.0322
3312.00,1.0315
3311.00,1.0307
3310.00,1.0297
3309.00,1.0286
3308.00,1.0274
3307.00,1.0264
3306.00,1.0254
3305.00,1.0245
3304.00,1.0236
3303.00,1.0226
3302.00,1.0216
3301.00,1.0206
3300.00,1.0197
3299.00,1.0188
3298.00,1.0179
3297.00,1.0171
3296.00,1.0163
3295.00,1.0156
3294.00,1.0149
3293.00,1.0142
3292.00,1.0136
3291.00,1.0132
3290.00,1.0128
3289.00,1.0124
3288.00,1.0118
3287.00,1.0113
3286.00,1.0110
3285.00,1.0107
3284.00,1.0105
3283.00,1.0102
3282.00,1.0098
3281.00,1.0095
3280.00,1.0094
3279.00,1.0093
3278.00,1.0092
3277.00,1.0091
3276.00,1.0090
3275.00,1.0091
3274.00,1.0095
3273.00,1.0100
3272.00,1.0104
3271.00,1.0105
3270.00,1.0105
3269.00,1.0104
3268.00,1.0105
3267.00,1.0109
3266.00,1.0114
3265.00,1.0118
3264.00,1.0121
3263.00,1.0125
3262.00,1.0128
3261.00,1.0132
3260.00,1.0136
3259.00,1.0141
3258.00,1.0146
3257.00,1.0151
3256.00,1.0156
3255.00,1.0161
3254.00,1.0166
3253.00,1.0170
3252.00,1.0174
3251.00,1.0175
3250.00,1.0175
3249.00,1.0176
3248.00,1.0179
3247.00,1.0183
3246.00,1.0187
3245.00,1.0189
3244.00,1.0190
3243.00,1.0191
3242.00,1.0193
3241.00,1.0197
3240.00,1.0201
3239.00,1.0204
3238.00,1.0204
3237.00,1.0203
3236.00,1.0201
3235.00,1.0199
3234.00,1.0199
3233.00,1.0201
3232.00,1.0203
3231.00,1.0205
3230.00,1.0205
3229.00,1.0204
3228.00,1.0203
3227.00,1.0202
3226.00,1.0202
3225.00,1.0201
3224.00,1.0199
3223.00,1.0196
3222.00,1.0193
3221.00,1.0189
3220.00,1.0187
3219.00,1.0186
3218.00,1.0184
3217.00,1.0181
3216.00,1.0178
3215.00,1.0174
3214.00,1.0171
3213.00,1.0169
3212.00,1.0167
3211.00,1.0166
3210.00,1.0164
3209.00,1.0160
3208.00,1.0156
3207.00,1.0152
3206.00,1.0149
3205.00,1.0146
3204.00,1.0143
3203.00,1.0138
3202.00,1.0132
3201.00,1.0127
3200.00,1.0124
3199.00,1.0121
3198.00,1.0118
3197.00,1.0115
3196.00,1.0112
3195.00,1.0107
3194.00,1.0101
3193.00,1.0096
3192.00,1.0092
3191.00,1.0089
3190.00,1.0085
3189.00,1.0080
3188.00,1.0074
3187.00,1.0068
3186.00,1.0063
3185.00,1.0059
3184.00,1.0054
3183.00,1.0047
3182.00,1.0039
3181.00,1.0029
3180.00,1.0020
3179.00,1.0012
3178.00,1.0004
3177.00,0.9996
3176.00,0.9989
3175.00,0.9982
3174.00,0.9975
3173.00,0.9968
3172.00,0.9960
3171.00,0.9951
3170.00,0.9941
3169.00,0.9932
3168.00,0.9925
3167.00,0.9919
3166.00,0.9913
3165.00,0.9905
3164.00,0.9896
3163.00,0.9885
3162.00,0.9874
3161.00,0.9864
3160.00,0.9856
3159.00,0.9848
3158.00,0.9840
3157.00,0.9832
3156.00,0.9823
3155.00,0.9813
3154.00,0.9804
3153.00,0.9797
3152.00,0.9791
3151.00,0.9785
3150.00,0.9776
3149.00,0.9767
3148.00,0.9758
3147.00,0.9750
3146.00,0.9743
3145.00,0.9736
3144.00,0.9728
3143.00,0.9721
3142.00,0.9714
3141.00,0.9708
3140.00,0.9701
3139.00,0.9694
3138.00,0.9687
3137.00,0.9680
3136.00,0.9673
3135.00,0.9667
3134.00,0.9662
3133.00,0.9659
3132.00,0.9656
3131.00,0.9654
3130.00,0.9651
3129.00,0.9647
3128.00,0.9643
3127.00,0.9640
3126.00,0.9638
3125.00,0.9638
3124.00,0.9637
3123.00,0.9637
3122.00,0.9637
3121.00,0.9638
3120.00,0.9638
3119.00,0.9638
3118.00,0.9637
3117.00,0.9637
3116.00,0.9638
3115.00,0.9638
3114.00,0.9638
3113.00,0.9638
3112.00,0.9640
3111.00,0.9645
3110.00,0.9650
3109.00,0.9655
3108.00,0.9660
3107.00,0.9665
3106.00,0.9671
3105.00,0.9679
3104.00,0.9686
3103.00,0.9693
3102.00,0.9699
3101.00,0.9704
3100.00,0.9711
3099.00,0.9720
3098.00,0.9730
3097.00,0.9740
3096.00,0.9750
3095.00,0.9760
3094.00,0.9771
3093.00,0.9785
3092.00,0.9802
3091.00,0.9823
3090.00,0.9844
3089.00,0.9866
3088.00,0.9888
3087.00,0.9912
3086.00,0.9938
3085.00,0.9964
3084.00,0.9991
3083.00,1.0018
3082.00,1.0047
3081.00,1.0078
3080.00,1.0112
3079.00,1.0147
3078.00,1.0184
3077.00,1.0222
3076.00,1.0260
3075.00,1.0300
3074.00,1.0340
3073.00,1.0379
3072.00,1.0416
3071.00,1.0454
3070.00,1.0491
3069.00,1.0529
3068.00,1.0567
3067.00,1.0605
3066.00,1.0641
3065.00,1.0675
3064.00,1.0706
3063.00,1.0736
3062.00,1.0763
3061.00,1.0789
3060.00,1.0814
3059.00,1.0838
3058.00,1.0863
3057.00,1.0890
3056.00,1.0920
3055.00,1.0951
3054.00,1.0982
3053.00,1.1015
3052.00,1.1050
3051.00,1.1088
3050.00,1.1129
3049.00,1.1173
3048.00,1.1218
3047.00,1.1265
3046.00,1.1312
3045.00,1.1359
3044.00,1.1404
3043.00,1.1450
3042.00,1.1497
3041.00,1.1545
3040.00,1.1595
3039.00,1.1645
3038.00,1.1696
3037.00,1.1748
3036.00,1.1803
3035.00,1.1860
3034.00,1.1922
3033.00,1.1988
3032.00,1.2058
3031.00,1.2133
3030.00,1.2212
3029.00,1.2296
3028.00,1.2386
3027.00,1.2480
3026.00,1.2576
3025.00,1.2674
3024.00,1.2774
3023.00,1.2879
3022.00,1.2992
3021.00,1.3112
3020.00,1.3237
3019.00,1.3366
3018.00,1.3499
3017.00,1.3633
3016.00,1.3766
3015.00,1.3899
3014.00,1.4035
3013.00,1.4176
3012.00,1.4322
3011.00,1.4472
3010.00,1.4627
3009.00,1.4790
3008.00,1.4960
3007.00,1.5137
3006.00,1.5320
3005.00,1.5510
3004.00,1.5707
3003.00,1.5910
3002.00,1.6123
3001.00,1.6346
3000.00,1.6580
2999.00,1.6826
2998.00,1.7086
2997.00,1.7364
2996.00,1.7665
2995.00,1.7996
2994.00,1.8369
2993.00,1.8790
2992.00,1.9256
2991.00,1.9763
2990.00,2.0314
2989.00,2.0927
2988.00,2.1621
2987.00,2.2398
2986.00,2.3246
2985.00,2.4160
2984.00,2.5160
2983.00,2.6278
2982.00,2.7537
2981.00,2.8940
2980.00,3.0482
2979.00,3.2191
2978.00,3.4163
2977.00,3.6599
2976.00,3.9530
2975.00,4.1605
2974.00,4.0624
2973.00,3.8821
2972.00,3.7968
2971.00,3.8658
2970.00,4.1051
2969.00,4.1194
2968.00,3.8696
2967.00,3.7021
2966.00,3.7104
2965.00,3.8530
2964.00,4.0325
2963.00,4.1808
2962.00,4.2193
2961.00,4.2214
2960.00,4.1931
2959.00,4.1098
2958.00,4.0586
2957.00,4.1044
2956.00,4.2661
2955.00,4.3803
2954.00,4.2683
2953.00,4.2471
2952.00,4.3502
2951.00,4.4479
2950.00,4.5249
2949.00,4.4308
2948.00,4.3599
2947.00,4.1985
2946.00,4.0713
2945.00,4.1011
2944.00,4.2974
2943.00,4.5285
2942.00,4.3685
2941.00,4.2015
2940.00,4.3479
2939.00,4.8635
2938.00,4.8165
2937.00,4.5850
2936.00,4.3582
2935.00,4.1152
2934.00,3.9242
2933.00,3.8761
2932.00,4.0215
2931.00,4.3865
2930.00,4.5498
2929.00,4.3354
2928.00,4.1360
2927.00,4.2040
2926.00,4.5352
2925.00,4.3210
2924.00,3.9893
2923.00,3.8098
2922.00,3.9098
2921.00,4.1161
2920.00,4.0649
2919.00,3.9807
2918.00,3.9475
2917.00,3.9374
2916.00,3.8415
2915.00,3.7746
2914.00,3.7927
2913.00,3.8735
2912.00,4.0943
2911.00,4.5197
2910.00,4.4708
2909.00,4.3586
2908.00,4.3798
2907.00,4.2063
2906.00,3.9653
2905.00,3.8888
2904.00,4.0334
2903.00,4.0589
2902.00,3.9406
2901.00,3.8775
2900.00,3.9216
2899.00,4.0344
2898.00,4.2775
2897.00,4.8404
2896.00,4.6158
2895.00,4.2871
2894.00,4.0826
2893.00,4.0337
2892.00,4.0239
2891.00,4.0135
2890.00,4.0107
2889.00,3.9855
2888.00,4.0173
2887.00,4.1185
2886.00,4.2661
2885.00,4.5175
2884.00,4.4943
2883.00,4.1582
2882.00,3.9639
2881.00,3.9165
2880.00,3.9536
2879.00,3.9852
2878.00,4.0321
2877.00,4.0964
2876.00,4.1019
2875.00,4.0819
2874.00,4.0937
2873.00,4.1675
2872.00,4.4037
2871.00,4.5795
2870.00,4.2862
2869.00,4.0998
2868.00,4.0919
2867.00,4.2208
2866.00,4.2598
2865.00,4.1740
2864.00,4.0754
2863.00,4.0535
2862.00,4.2167
2861.00,4.2854
2860.00,4.1236
2859.00,4.0098
2858.00,4.1618
2857.00,4.7401
2856.00,4.5260
2855.00,4.2025
2854.00,4.0839
2853.00,4.2035
2852.00,4.1284
2851.00,4.0050
2850.00,4.0528
2849.00,4.1633
2848.00,4.1460
2847.00,4.1133
2846.00,4.2372
2845.00,4.4063
2844.00,4.4326
2843.00,4.2266
2842.00,4.0017
2841.00,3.8888
2840.00,3.9057
2839.00,4.0845
2838.00,4.3387
2837.00,4.0036
2836.00,3.6336
2835.00,3.3782
2834.00,3.1918
2833.00,3.0125
2832.00,2.8443
2831.00,2.6981
2830.00,2.5697
2829.00,2.4566
2828.00,2.3550
2827.00,2.2643
2826.00,2.1836
2825.00,2.1112
2824.00,2.0452
2823.00,1.9845
2822.00,1.9285
2821.00,1.8769
2820.00,1.8291
2819.00,1.7845
2818.00,1.7428
2817.00,1.7040
2816.00,1.6684
2815.00,1.6359
2814.00,1.6058
2813.00,1.5773
2812.00,1.5501
2811.00,1.5243
2810.00,1.4998
2809.00,1.4765
2808.00,1.4545
2807.00,1.4341
2806.00,1.4148
2805.00,1.3964
2804.00,1.3785
2803.00,1.3614
2802.00,1.3451
2801.00,1.3298
2800.00,1.3152
2799.00,1.3014
2798.00,1.2883
2797.00,1.2759
2796.00,1.2639
2795.00,1.2524
2794.00,1.2410
2793.00,1.2298
2792.00,1.2187
2791.00,1.2080
2790.00,1.1975
2789.00,1.1871
2788.00,1.1768
2787.00,1.1669
2786.00,1.1573
2785.00,1.1481
2784.00,1.1392
2783.00,1.1306
2782.00,1.1222
2781.00,1.1140
2780.00,1.1060
2779.00,1.0984
2778.00,1.0914
2777.00,1.0849
2776.00,1.0787
2775.00,1.0727
2774.00,1.0669
2773.00,1.0613
2772.00,1.0561
2771.00,1.0514
2770.00,1.0473
2769.00,1.0435
2768.00,1.0400
2767.00,1.0368
2766.00,1.0339
2765.00,1.0313
2764.00,1.0289
2763.00,1.0268
2762.00,1.0251
2761.00,1.0236
2760.00,1.0221
2759.00,1.0207
2758.00,1.0194
2757.00,1.0181
2756.00,1.0169
2755.00,1.0157
2754.00,1.0146
2753.00,1.0136
2752.00,1.0128
2751.00,1.0122
2750.00,1.0119
2749.00,1.0118
2748.00,1.0118
2747.00,1.0119
2746.00,1.0123
2745.00,1.0131
2744.00,1.0143
2743.00,1.0158
2742.00,1.0176
2741.00,1.0197
2740.00,1.0221
2739.00,1.0251
2738.00,1.0286
2737.00,1.0326
2736.00,1.0370
2735.00,1.0418
2734.00,1.0468
2733.00,1.0519
2732.00,1.0567
2731.00,1.0607
2730.00,1.0637
2729.00,1.0655
2728.00,1.0664
2727.00,1.0663
2726.00,1.0655
2725.00,1.0641
2724.00,1.0622
2723.00,1.0600
2722.00,1.0573
2721.00,1.0540
2720.00,1.0502
2719.00,1.0462
2718.00,1.0420
2717.00,1.0376
2716.00,1.0329
2715.00,1.0282
2714.00,1.0236
2713.00,1.0190
2712.00,1.0147
2711.00,1.0106
2710.00,1.0068
2709.00,1.0035
2708.00,1.0006
2707.00,0.9981
2706.00,0.9960
2705.00,0.9943
2704.00,0.9929
2703.00,0.9919
2702.00,0.9911
2701.00,0.9906
2700.00,0.9902
2699.00,0.9900
2698.00,0.9901
2697.00,0.9904
2696.00,0.9907
2695.00,0.9912
2694.00,0.9919
2693.00,0.9926
2692.00,0.9933
2691.00,0.9941
2690.00,0.9949
2689.00,0.9956
2688.00,0.9962
2687.00,0.9967
2686.00,0.9971
2685.00,0.9976
2684.00,0.9982
2683.00,0.9988
2682.00,0.9993
2681.00,0.9996
2680.00,0.9999
2679.00,1.0001
2678.00,1.0003
2677.00,1.0007
2676.00,1.0011
2675.00,1.0015
2674.00,1.0017
2673.00,1.0018
2672.00,1.0016
2671.00,1.0012
2670.00,1.0007
2669.00,1.0000
2668.00,0.9992
2667.00,0.9983
2666.00,0.9971
2665.00,0.9954
2664.00,0.9935
2663.00,0.9913
2662.00,0.9891
2661.00,0.9869
2660.00,0.9845
2659.00,0.9820
2658.00,0.9794
2657.00,0.9768
2656.00,0.9742
2655.00,0.9719
2654.00,0.9698
2653.00,0.9677
2652.00,0.9657
2651.00,0.9638
2650.00,0.9619
2649.00,0.9601
2648.00,0.9584
2647.00,0.9569
2646.00,0.9554
2645.00,0.9540
2644.00,0.9526
2643.00,0.9513
2642.00,0.9501
2641.00,0.9488
2640.00,0.9475
2639.00,0.9464
2638.00,0.9453
2637.00,0.9445
2636.00,0.9436
2635.00,0.9426
2634.00,0.9415
2633.00,0.9403
2632.00,0.9391
2631.00,0.9379
2630.00,0.9369
2629.00,0.9360
2628.00,0.9350
2627.00,0.9340
2626.00,0.9329
2625.00,0.9317
2624.00,0.9304
2623.00,0.9291
2622.00,0.9279
2621.00,0.9268
2620.00,0.9257
2619.00,0.9246
2618.00,0.9235
2617.00,0.9223
2616.00,0.9212
2615.00,0.9202
2614.00,0.9192
2613.00,0.9181
2612.00,0.9170
2611.00,0.9159
2610.00,0.9149
2609.00,0.9138
2608.00,0.9126
2607.00,0.9114
2606.00,0.9102
2605.00,0.9089
2604.00,0.9076
2603.00,0.9062
2602.00,0.9048
2601.00,0.9034
2600.00,0.9019
2599.00,0.9003
2598.00,0.8988
2597.00,0.8973
2596.00,0.8958
2595.00,0.8944
2594.00,0.8929
2593.00,0.8913
2592.00,0.8895
2591.00,0.8876
2590.00,0.8857
2589.00,0.8838
2588.00,0.8818
2587.00,0.8798
2586.00,0.8779
2585.00,0.8761
2584.00,0.8743
2583.00,0.8725
2582.00,0.8707
2581.00,0.8688
2580.00,0.8668
2579.00,0.8647
2578.00,0.8626
2577.00,0.8606
2576.00,0.8588
2575.00,0.8570
2574.00,0.8551
2573.00,0.8532
2572.00,0.8513
2571.00,0.8496
2570.00,0.8480
2569.00,0.8466
2568.00,0.8451
2567.00,0.8436
2566.00,0.8419
2565.00,0.8403
2564.00,0.8386
2563.00,0.8371
2562.00,0.8358
2561.00,0.8344
2560.00,0.8331
2559.00,0.8318
2558.00,0.8305
2557.00,0.8291
2556.00,0.8278
2555.00,0.8265
2554.00,0.8251
2553.00,0.8238
2552.00,0.8225
2551.00,0.8214
2550.00,0.8203
2549.00,0.8192
2548.00,0.8181
2547.00,0.8170
2546.00,0.8159
2545.00,0.8148
2544.00,0.8137
2543.00,0.8128
2542.00,0.8119
2541.00,0.8111
2540.00,0.8103
2539.00,0.8094
2538.00,0.8085
2537.00,0.8075
2536.00,0.8067
2535.00,0.8060
2534.00,0.8052
2533.00,0.8044
2532.00,0.8036
2531.00,0.8028
2530.00,0.8020
2529.00,0.8011
2528.00,0.8001
2527.00,0.7990
2526.00,0.7980
2525.00,0.7969
2524.00,0.7958
2523.00,0.7947
2522.00,0.7936
2521.00,0.7926
2520.00,0.7917
2519.00,0.7907
2518.00,0.7898
2517.00,0.7888
2516.00,0.7878
2515.00,0.7868
2514.00,0.7858
2513.00,0.7848
2512.00,0.7839
2511.00,0.7830
2510.00,0.7822
2509.00,0.7814
2508.00,0.7806
2507.00,0.7799
2506.00,0.7791
2505.00,0.7784
2504.00,0.7777
2503.00,0.7770
2502.00,0.7763
2501.00,0.7757
2500.00,0.7750
2499.00,0.7744
2498.00,0.7739
2497.00,0.7733
2496.00,0.7727
2495.00,0.7721
2494.00,0.7716
2493.00,0.7712
2492.00,0.7707
2491.00,0.7701
2490.00,0.7697
2489.00,0.7692
2488.00,0.7686
2487.00,0.7680
2486.00,0.7673
2485.00,0.7668
2484.00,0.7664
2483.00,0.7660
2482.00,0.7656
2481.00,0.7652
2480.00,0.7648
2479.00,0.7643
2478.00,0.7637
2477.00,0.7632
2476.00,0.7628
2475.00,0.7622
2474.00,0.7617
2473.00,0.7611
2472.00,0.7606
2471.00,0.7602
2470.00,0.7598
2469.00,0.7595
2468.00,0.7592
2467.00,0.7589
2466.00,0.7585
2465.00,0.7581
2464.00,0.7577
2463.00,0.7572
2462.00,0.7568
2461.00,0.7565
2460.00,0.7561
2459.00,0.7558
2458.00,0.7554
2457.00,0.7550
2456.00,0.7547
2455.00,0.7545
2454.00,0.7544
2453.00,0.7543
2452.00,0.7541
2451.00,0.7539
2450.00,0.7537
2449.00,0.7534
2448.00,0.7532
2447.00,0.7530
2446.00,0.7527
2445.00,0.7526
2444.00,0.7524
2443.00,0.7523
2442.00,0.7521
2441.00,0.7519
2440.00,0.7517
2439.00,0.7515
2438.00,0.7512
2437.00,0.7510
2436.00,0.7509
2435.00,0.7509
2434.00,0.7509
2433.00,0.7509
2432.00,0.7508
2431.00,0.7507
2430.00,0.7506
2429.00,0.7505
2428.00,0.7503
2427.00,0.7501
2426.00,0.7500
2425.00,0.7499
2424.00,0.7499
2423.00,0.7499
2422.00,0.7500
2421.00,0.7499
2420.00,0.7499
2419.00,0.7498
2418.00,0.7496
2417.00,0.7494
2416.00,0.7493
2415.00,0.7492
2414.00,0.7491
2413.00,0.7490
2412.00,0.7489
2411.00,0.7487
2410.00,0.7486
2409.00,0.7484
2408.00,0.7482
2407.00,0.7479
2406.00,0.7476
2405.00,0.7473
2404.00,0.7471
2403.00,0.7468
2402.00,0.7466
2401.00,0.7464
2400.00,0.7462
2399.00,0.7460
2398.00,0.7457
2397.00,0.7454
2396.00,0.7450
2395.00,0.7446
2394.00,0.7442
2393.00,0.7439
2392.00,0.7436
2391.00,0.7433
2390.00,0.7430
2389.00,0.7427
2388.00,0.7424
2387.00,0.7421
2386.00,0.7418
2385.00,0.7416
2384.00,0.7415
2383.00,0.7413
2382.00,0.7411
2381.00,0.7410
2380.00,0.7408
2379.00,0.7407
2378.00,0.7406
2377.00,0.7404
2376.00,0.7401
2375.00,0.7397
2374.00,0.7393
2373.00,0.7390
2372.00,0.7388
2371.00,0.7387
2370.00,0.7386
2369.00,0.7384
2368.00,0.7382
2367.00,0.7379
2366.00,0.7377
2365.00,0.7375
2364.00,0.7373
2363.00,0.7370
2362.00,0.7366
2361.00,0.7364
2360.00,0.7362
2359.00,0.7360
2358.00,0.7357
2357.00,0.7354
2356.00,0.7351
2355.00,0.7349
2354.00,0.7348
2353.00,0.7346
2352.00,0.7343
2351.00,0.7339
2350.00,0.7336
2349.00,0.7334
2348.00,0.7331
2347.00,0.7330
2346.00,0.7328
2345.00,0.7324
2344.00,0.7319
2343.00,0.7315
2342.00,0.7312
2341.00,0.7310
2340.00,0.7308
2339.00,0.7305
2338.00,0.7302
2337.00,0.7299
2336.00,0.7295
2335.00,0.7292
2334.00,0.7290
2333.00,0.7289
2332.00,0.7287
2331.00,0.7283
2330.00,0.7279
2329.00,0.7274
2328.00,0.7269
2327.00,0.7264
2326.00,0.7259
2325.00,0.7254
2324.00,0.7252
2323.00,0.7252
2322.00,0.7251
2321.00,0.7249
2320.00,0.7246
2319.00,0.7240
2318.00,0.7235
2317.00,0.7229
2316.00,0.7224
2315.00,0.7220
2314.00,0.7217
2313.00,0.7215
2312.00,0.7212
2311.00,0.7208
2310.00,0.7204
2309.00,0.7198
2308.00,0.7192
2307.00,0.7186
2306.00,0.7182
2305.00,0.7178
2304.00,0.7174
2303.00,0.7170
2302.00,0.7165
2301.00,0.7161
2300.00,0.7156
2299.00,0.7151
2298.00,0.7146
2297.00,0.7141
2296.00,0.7138
2295.00,0.7134
2294.00,0.7130
2293.00,0.7125
2292.00,0.7119
2291.00,0.7114
2290.00,0.7109
2289.00,0.7104
2288.00,0.7100
2287.00,0.7095
2286.00,0.7091
2285.00,0.7087
2284.00,0.7083
2283.00,0.7079
2282.00,0.7074
2281.00,0.7068
2280.00,0.7063
2279.00,0.7057
2278.00,0.7052
2277.00,0.7047
2276.00,0.7043
2275.00,0.7039
2274.00,0.7034
2273.00,0.7029
2272.00,0.7025
2271.00,0.7022
2270.00,0.7020
2269.00,0.7017
2268.00,0.7013
2267.00,0.7010
2266.00,0.7007
2265.00,0.7004
2264.00,0.6999
2263.00,0.6995
2262.00,0.6991
2261.00,0.6986
2260.00,0.6983
2259.00,0.6979
2258.00,0.6977
2257.00,0.6974
2256.00,0.6971
2255.00,0.6967
2254.00,0.6963
2253.00,0.6959
2252.00,0.6957
2251.00,0.6954
2250.00,0.6953
2249.00,0.6953
2248.00,0.6955
2247.00,0.6959
2246.00,0.6965
2245.00,0.6972
2244.00,0.6982
2243.00,0.6994
2242.00,0.7009
2241.00,0.7025
2240.00,0.7040
2239.00,0.7051
2238.00,0.7057
2237.00,0.7056
2236.00,0.7047
2235.00,0.7031
2234.00,0.7010
2233.00,0.6987
2232.00,0.6964
2231.00,0.6942
2230.00,0.6924
2229.00,0.6908
2228.00,0.6896
2227.00,0.6887
2226.00,0.6880
2225.00,0.6874
2224.00,0.6868
2223.00,0.6863
2222.00,0.6859
2221.00,0.6855
2220.00,0.6852
2219.00,0.6849
2218.00,0.6846
2217.00,0.6842
2216.00,0.6838
2215.00,0.6834
2214.00,0.6831
2213.00,0.6829
2212.00,0.6827
2211.00,0.6825
2210.00,0.6823
2209.00,0.6820
2208.00,0.6817
2207.00,0.6815
2206.00,0.6812
2205.00,0.6810
2204.00,0.6807
2203.00,0.6805
2202.00,0.6803
2201.00,0.6801
2200.00,0.6799
2199.00,0.6797
2198.00,0.6795
2197.00,0.6793
2196.00,0.6792
2195.00,0.6791
2194.00,0.6790
2193.00,0.6790
2192.00,0.6788
2191.00,0.6786
2190.00,0.6785
2189.00,0.6784
2188.00,0.6782
2187.00,0.6780
2186.00,0.6777
2185.00,0.6775
2184.00,0.6772
2183.00,0.6769
2182.00,0.6765
2181.00,0.6762
2180.00,0.6759
2179.00,0.6756
2178.00,0.6752
2177.00,0.6749
2176.00,0.6747
2175.00,0.6743
2174.00,0.6739
2173.00,0.6735
2172.00,0.6732
2171.00,0.6730
2170.00,0.6727
2169.00,0.6725
2168.00,0.6722
2167.00,0.6719
2166.00,0.6717
2165.00,0.6714
2164.00,0.6712
2163.00,0.6709
2162.00,0.6706
2161.00,0.6703
2160.00,0.6699
2159.00,0.6694
2158.00,0.6691
2157.00,0.6687
2156.00,0.6684
2155.00,0.6681
2154.00,0.6679
2153.00,0.6676
2152.00,0.6673
2151.00,0.6670
2150.00,0.6665
2149.00,0.6660
2148.00,0.6655
2147.00,0.6649
2146.00,0.6643
2145.00,0.6636
2144.00,0.6630
2143.00,0.6624
2142.00,0.6619
2141.00,0.6614
2140.00,0.6608
2139.00,0.6603
2138.00,0.6598
2137.00,0.6593
2136.00,0.6589
2135.00,0.6585
2134.00,0.6580
2133.00,0.6576
2132.00,0.6572
2131.00,0.6569
2130.00,0.6566
2129.00,0.6563
2128.00,0.6559
2127.00,0.6556
2126.00,0.6553
2125.00,0.6551
2124.00,0.6549
2123.00,0.6547
2122.00,0.6544
2121.00,0.6541
2120.00,0.6538
2119.00,0.6535
2118.00,0.6533
2117.00,0.6530
2116.00,0.6528
2115.00,0.6525
2114.00,0.6522
2113.00,0.6519
2112.00,0.6516
2111.00,0.6513
2110.00,0.6510
2109.00,0.6507
2108.00,0.6504
2107.00,0.6501
2106.00,0.6499
2105.00,0.6496
2104.00,0.6493
2103.00,0.6490
2102.00,0.6488
2101.00,0.6486
2100.00,0.6484
2099.00,0.6482
2098.00,0.6480
2097.00,0.6477
2096.00,0.6474
2095.00,0.6472
2094.00,0.6469
2093.00,0.6468
2092.00,0.6466
2091.00,0.6464
2090.00,0.6462
2089.00,0.6460
2088.00,0.6458
2087.00,0.6456
2086.00,0.6454
2085.00,0.6453
2084.00,0.6452
2083.00,0.6451
2082.00,0.6450
2081.00,0.6448
2080.00,0.6446
2079.00,0.6442
2078.00,0.6439
2077.00,0.6437
2076.00,0.6435
2075.00,0.6434
2074.00,0.6433
2073.00,0.6432
2072.00,0.6430
2071.00,0.6428
2070.00,0.6425
2069.00,0.6424
2068.00,0.6423
2067.00,0.6423
2066.00,0.6423
2065.00,0.6422
2064.00,0.6421
2063.00,0.6419
2062.00,0.6418
2061.00,0.6417
2060.00,0.6416
2059.00,0.6415
2058.00,0.6414
2057.00,0.6413
2056.00,0.6413
2055.00,0.6412
2054.00,0.6411
2053.00,0.6410
2052.00,0.6409
2051.00,0.6409
2050.00,0.6410
2049.00,0.6410
2048.00,0.6410
2047.00,0.6409
2046.00,0.6408
2045.00,0.6408
2044.00,0.6407
2043.00,0.6407
2042.00,0.6406
2041.00,0.6405
2040.00,0.6404
2039.00,0.6402
2038.00,0.6401
2037.00,0.6400
2036.00,0.6398
2035.00,0.6397
2034.00,0.6395
2033.00,0.6395
2032.00,0.6394
2031.00,0.6392
2030.00,0.6390
2029.00,0.6388
2028.00,0.6385
2027.00,0.6383
2026.00,0.6380
2025.00,0.6378
2024.00,0.6375
2023.00,0.6371
2022.00,0.6366
2021.00,0.6360
2020.00,0.6355
2019.00,0.6349
2018.00,0.6343
2017.00,0.6337
2016.00,0.6330
2015.00,0.6324
2014.00,0.6317
2013.00,0.6310
2012.00,0.6303
2011.00,0.6296
2010.00,0.6291
2009.00,0.6286
2008.00,0.6281
2007.00,0.6276
2006.00,0.6271
2005.00,0.6267
2004.00,0.6262
2003.00,0.6258
2002.00,0.6253
2001.00,0.6249
2000.00,0.6246
1999.00,0.6242
1998.00,0.6239
1997.00,0.6235
1996.00,0.6232
1995.00,0.6230
1994.00,0.6227
1993.00,0.6224
1992.00,0.6221
1991.00,0.6219
1990.00,0.6217
1989.00,0.6214
1988.00,0.6211
1987.00,0.6208
1986.00,0.6205
1985.00,0.6202
1984.00,0.6200
1983.00,0.6199
1982.00,0.6198
1981.00,0.6196
1980.00,0.6194
1979.00,0.6192
1978.00,0.6190
1977.00,0.6189
1976.00,0.6187
1975.00,0.6184
1974.00,0.6182
1973.00,0.6181
1972.00,0.6180
1971.00,0.6180
1970.00,0.6179
1969.00,0.6177
1968.00,0.6174
1967.00,0.6172
1966.00,0.6170
1965.00,0.6169
1964.00,0.6168
1963.00,0.6166
1962.00,0.6164
1961.00,0.6162
1960.00,0.6161
1959.00,0.6160
1958.00,0.6159
1957.00,0.6157
1956.00,0.6155
1955.00,0.6154
1954.00,0.6152
1953.00,0.6152
1952.00,0.6152
1951.00,0.6151
1950.00,0.6150
1949.00,0.6149
1948.00,0.6148
1947.00,0.6147
1946.00,0.6147
1945.00,0.6147
1944.00,0.6148
1943.00,0.6150
1942.00,0.6154
1941.00,0.6158
1940.00,0.6161
1939.00,0.6163
1938.00,0.6163
1937.00,0.6162
1936.00,0.6160
1935.00,0.6156
1934.00,0.6152
1933.00,0.6149
1932.00,0.6146
1931.00,0.6143
1930.00,0.6141
1929.00,0.6140
1928.00,0.6140
1927.00,0.6140
1926.00,0.6140
1925.00,0.6139
1924.00,0.6139
1923.00,0.6140
1922.00,0.6143
1921.00,0.6145
1920.00,0.6146
1919.00,0.6147
1918.00,0.6149
1917.00,0.6152
1916.00,0.6154
1915.00,0.6153
1914.00,0.6150
1913.00,0.6147
1912.00,0.6143
1911.00,0.6140
1910.00,0.6137
1909.00,0.6136
1908.00,0.6136
1907.00,0.6136
1906.00,0.6136
1905.00,0.6135
1904.00,0.6134
1903.00,0.6133
1902.00,0.6131
1901.00,0.6130
1900.00,0.6129
1899.00,0.6129
1898.00,0.6129
1897.00,0.6129
1896.00,0.6129
1895.00,0.6129
1894.00,0.6130
1893.00,0.6129
1892.00,0.6128
1891.00,0.6127
1890.00,0.6126
1889.00,0.6126
1888.00,0.6127
1887.00,0.6126
1886.00,0.6124
1885.00,0.6121
1884.00,0.6119
1883.00,0.6118
1882.00,0.6116
1881.00,0.6114
1880.00,0.6112
1879.00,0.6110
1878.00,0.6106
1877.00,0.6103
1876.00,0.6100
1875.00,0.6097
1874.00,0.6094
1873.00,0.6092
1872.00,0.6089
1871.00,0.6085
1870.00,0.6079
1869.00,0.6076
1868.00,0.6075
1867.00,0.6075
1866.00,0.6072
1865.00,0.6068
1864.00,0.6062
1863.00,0.6057
1862.00,0.6052
1861.00,0.6047
1860.00,0.6044
1859.00,0.6040
1858.00,0.6036
1857.00,0.6032
1856.00,0.6028
1855.00,0.6025
1854.00,0.6022
1853.00,0.6018
1852.00,0.6016
1851.00,0.6013
1850.00,0.6011
1849.00,0.6009
1848.00,0.6007
1847.00,0.6006
1846.00,0.6003
1845.00,0.6000
1844.00,0.5999
1843.00,0.6000
1842.00,0.5998
1841.00,0.5993
1840.00,0.5986
1839.00,0.5980
1838.00,0.5975
1837.00,0.5972
1836.00,0.5970
1835.00,0.5970
1834.00,0.5969
1833.00,0.5967
1832.00,0.5962
1831.00,0.5956
1830.00,0.5953
1829.00,0.5953
1828.00,0.5954
1827.00,0.5952
1826.00,0.5948
1825.00,0.5945
1824.00,0.5945
1823.00,0.5946
1822.00,0.5945
1821.00,0.5942
1820.00,0.5940
1819.00,0.5937
1818.00,0.5935
1817.00,0.5934
1816.00,0.5934
1815.00,0.5934
1814.00,0.5933
1813.00,0.5932
1812.00,0.5930
1811.00,0.5928
1810.00,0.5928
1809.00,0.5929
1808.00,0.5931
1807.00,0.5932
1806.00,0.5933
1805.00,0.5935
1804.00,0.5936
1803.00,0.5938
1802.00,0.5939
1801.00,0.5941
1800.00,0.5945
1799.00,0.5949
1798.00,0.5952
1797.00,0.5956
1796.00,0.5958
1795.00,0.5959
1794.00,0.5960
1793.00,0.5962
1792.00,0.5966
1791.00,0.5971
1790.00,0.5975
1789.00,0.5977
1788.00,0.5977
1787.00,0.5977
1786.00,0.5978
1785.00,0.5981
1784.00,0.5984
1783.00,0.5986
1782.00,0.5986
1781.00,0.5986
1780.00,0.5989
1779.00,0.5993
1778.00,0.5997
1777.00,0.5999
1776.00,0.6003
1775.00,0.6007
1774.00,0.6011
1773.00,0.6015
1772.00,0.6020
1771.00,0.6028
1770.00,0.6034
1769.00,0.6038
1768.00,0.6043
1767.00,0.6049
1766.00,0.6055
1765.00,0.6060
1764.00,0.6064
1763.00,0.6071
1762.00,0.6082
1761.00,0.6099
1760.00,0.6118
1759.00,0.6135
1758.00,0.6153
1757.00,0.6176
1756.00,0.6208
1755.00,0.6244
1754.00,0.6283
1753.00,0.6328
1752.00,0.6384
1751.00,0.6450
1750.00,0.6523
1749.00,0.6599
1748.00,0.6677
1747.00,0.6760
1746.00,0.6843
1745.00,0.6923
1744.00,0.6997
1743.00,0.7061
1742.00,0.7112
1741.00,0.7149
1740.00,0.7176
1739.00,0.7193
1738.00,0.7204
1737.00,0.7210
1736.00,0.7213
1735.00,0.7215
1734.00,0.7219
1733.00,0.7222
1732.00,0.7208
1731.00,0.7173
1730.00,0.7122
1729.00,0.7062
1728.00,0.6997
1727.00,0.6926
1726.00,0.6852
1725.00,0.6780
1724.00,0.6713
1723.00,0.6653
1722.00,0.6602
1721.00,0.6559
1720.00,0.6524
1719.00,0.6495
1718.00,0.6474
1717.00,0.6463
1716.00,0.6454
1715.00,0.6445
1714.00,0.6437
1713.00,0.6436
1712.00,0.6440
1711.00,0.6445
1710.00,0.6452
1709.00,0.6460
1708.00,0.6467
1707.00,0.6471
1706.00,0.6473
1705.00,0.6474
1704.00,0.6474
1703.00,0.6467
1702.00,0.6451
1701.00,0.6428
1700.00,0.6410
1699.00,0.6404
1698.00,0.6397
1697.00,0.6383
1696.00,0.6367
1695.00,0.6351
1694.00,0.6335
1693.00,0.6315
1692.00,0.6295
1691.00,0.6278
1690.00,0.6267
1689.00,0.6260
1688.00,0.6259
1687.00,0.6260
1686.00,0.6259
1685.00,0.6254
1684.00,0.6251
1683.00,0.6252
1682.00,0.6248
1681.00,0.6240
1680.00,0.6234
1679.00,0.6232
1678.00,0.6231
1677.00,0.6233
1676.00,0.6236
1675.00,0.6245
1674.00,0.6258
1673.00,0.6268
1672.00,0.6274
1671.00,0.6278
1670.00,0.6288
1669.00,0.6307
1668.00,0.6328
1667.00,0.6343
1666.00,0.6351
1665.00,0.6358
1664.00,0.6366
1663.00,0.6380
1662.00,0.6398
1661.00,0.6419
1660.00,0.6437
1659.00,0.6453
1658.00,0.6467
1657.00,0.6485
1656.00,0.6506
1655.00,0.6531
1654.00,0.6561
1653.00,0.6607
1652.00,0.6657
1651.00,0.6680
1650.00,0.6680
1649.00,0.6683
1648.00,0.6703
1647.00,0.6743
1646.00,0.6793
1645.00,0.6845
1644.00,0.6888
1643.00,0.6925
1642.00,0.6962
1641.00,0.7006
1640.00,0.7053
1639.00,0.7099
1638.00,0.7143
1637.00,0.7194
1636.00,0.7256
1635.00,0.7325
1634.00,0.7387
1633.00,0.7437
1632.00,0.7482
1631.00,0.7525
1630.00,0.7569
1629.00,0.7617
1628.00,0.7665
1627.00,0.7707
1626.00,0.7742
1625.00,0.7773
1624.00,0.7805
1623.00,0.7838
1622.00,0.7874
1621.00,0.7911
1620.00,0.7950
1619.00,0.7994
1618.00,0.8051
1617.00,0.8127
1616.00,0.8215
1615.00,0.8296
1614.00,0.8366
1613.00,0.8436
1612.00,0.8515
1611.00,0.8601
1610.00,0.8687
1609.00,0.8776
1608.00,0.8867
1607.00,0.8952
1606.00,0.9029
1605.00,0.9107
1604.00,0.9189
1603.00,0.9271
1602.00,0.9352
1601.00,0.9438
1600.00,0.9530
1599.00,0.9626
1598.00,0.9729
1597.00,0.9853
1596.00,1.0008
1595.00,1.0198
1594.00,1.0431
1593.00,1.0725
1592.00,1.1098
1591.00,1.1560
1590.00,1.2134
1589.00,1.2869
1588.00,1.3817
1587.00,1.5012
1586.00,1.6479
1585.00,1.8249
1584.00,2.0297
1583.00,2.2226
1582.00,2.3063
1581.00,2.2386
1580.00,2.0885
1579.00,1.9119
1578.00,1.7321
1577.00,1.5658
1576.00,1.4282
1575.00,1.3266
1574.00,1.2564
1573.00,1.2070
1572.00,1.1701
1571.00,1.1415
1570.00,1.1220
1569.00,1.1146
1568.00,1.1202
1567.00,1.1376
1566.00,1.1680
1565.00,1.2142
1564.00,1.2751
1563.00,1.3425
1562.00,1.4059
1561.00,1.4547
1560.00,1.4654
1559.00,1.4135
1558.00,1.3266
1557.00,1.2459
1556.00,1.1768
1555.00,1.1130
1554.00,1.0556
1553.00,1.0091
1552.00,0.9732
1551.00,0.9440
1550.00,0.9190
1549.00,0.8984
1548.00,0.8820
1547.00,0.8681
1546.00,0.8553
1545.00,0.8438
1544.00,0.8342
1543.00,0.8260
1542.00,0.8183
1541.00,0.8111
1540.00,0.8042
1539.00,0.7979
1538.00,0.7921
1537.00,0.7865
1536.00,0.7813
1535.00,0.7762
1534.00,0.7718
1533.00,0.7690
1532.00,0.7678
1531.00,0.7672
1530.00,0.7668
1529.00,0.7667
1528.00,0.7669
1527.00,0.7670
1526.00,0.7665
1525.00,0.7662
1524.00,0.7661
1523.00,0.7664
1522.00,0.7677
1521.00,0.7705
1520.00,0.7742
1519.00,0.7777
1518.00,0.7810
1517.00,0.7849
1516.00,0.7891
1515.00,0.7920
1514.00,0.7934
1513.00,0.7938
1512.00,0.7943
1511.00,0.7951
1510.00,0.7967
1509.00,0.7998
1508.00,0.8051
1507.00,0.8131
1506.00,0.8233
1505.00,0.8336
1504.00,0.8420
1503.00,0.8486
1502.00,0.8550
1501.00,0.8620
1500.00,0.8693
1499.00,0.8765
1498.00,0.8845
1497.00,0.8943
1496.00,0.9052
1495.00,0.9156
1494.00,0.9253
1493.00,0.9356
1492.00,0.9477
1491.00,0.9618
1490.00,0.9785
1489.00,0.9976
1488.00,1.0182
1487.00,1.0399
1486.00,1.0643
1485.00,1.0929
1484.00,1.1261
1483.00,1.1644
1482.00,1.2099
1481.00,1.2638
1480.00,1.3250
1479.00,1.3922
1478.00,1.4682
1477.00,1.5576
1476.00,1.6613
1475.00,1.7799
1474.00,1.9227
1473.00,2.1082
1472.00,2.3465
1471.00,2.6219
1470.00,2.9102
1469.00,3.2144
1468.00,3.5425
1467.00,3.8643
1466.00,4.2531
1465.00,4.3729
1464.00,4.0935
1463.00,4.0098
1462.00,3.9219
1461.00,3.7954
1460.00,3.7919
1459.00,4.0013
1458.00,4.1138
1457.00,3.8341
1456.00,3.6808
1455.00,3.7672
1454.00,3.9528
1453.00,4.2209
1452.00,4.5621
1451.00,3.9821
1450.00,3.8306
1449.00,3.9088
1448.00,3.8514
1447.00,3.5956
1446.00,3.3773
1445.00,3.2112
1444.00,3.0282
1443.00,2.8460
1442.00,2.6942
1441.00,2.5681
1440.00,2.4491
1439.00,2.3292
1438.00,2.2074
1437.00,2.0834
1436.00,1.9638
1435.00,1.8574
1434.00,1.7632
1433.00,1.6740
1432.00,1.5859
1431.00,1.5020
1430.00,1.4272
1429.00,1.3638
1428.00,1.3122
1427.00,1.2711
1426.00,1.2380
1425.00,1.2104
1424.00,1.1884
1423.00,1.1722
1422.00,1.1607
1421.00,1.1516
1420.00,1.1434
1419.00,1.1360
1418.00,1.1296
1417.00,1.1237
1416.00,1.1182
1415.00,1.1135
1414.00,1.1096
1413.00,1.1064
1412.00,1.1039
1411.00,1.1019
1410.00,1.0996
1409.00,1.0960
1408.00,1.0903
1407.00,1.0824
1406.00,1.0720
1405.00,1.0595
1404.00,1.0461
1403.00,1.0334
1402.00,1.0217
1401.00,1.0106
1400.00,1.0005
1399.00,0.9924
1398.00,0.9866
1397.00,0.9833
1396.00,0.9827
1395.00,0.9862
1394.00,0.9946
1393.00,1.0089
1392.00,1.0307
1391.00,1.0622
1390.00,1.1061
1389.00,1.1655
1388.00,1.2434
1387.00,1.3394
1386.00,1.4473
1385.00,1.5591
1384.00,1.6720
1383.00,1.7884
1382.00,1.9120
1381.00,2.0480
1380.00,2.2019
1379.00,2.3661
1378.00,2.5031
1377.00,2.5559
1376.00,2.4982
1375.00,2.3565
1374.00,2.1836
1373.00,2.0228
1372.00,1.8915
1371.00,1.7902
1370.00,1.7157
1369.00,1.6654
1368.00,1.6344
1367.00,1.6117
1366.00,1.5824
1365.00,1.5349
1364.00,1.4690
1363.00,1.3947
1362.00,1.3245
1361.00,1.2662
1360.00,1.2211
1359.00,1.1873
1358.00,1.1623
1357.00,1.1444
1356.00,1.1321
1355.00,1.1240
1354.00,1.1187
1353.00,1.1147
1352.00,1.1111
1351.00,1.1072
1350.00,1.1030
1349.00,1.0986
1348.00,1.0942
1347.00,1.0901
1346.00,1.0864
1345.00,1.0832
1344.00,1.0803
1343.00,1.0775
1342.00,1.0739
1341.00,1.0684
1340.00,1.0606
1339.00,1.0502
1338.00,1.0377
1337.00,1.0235
1336.00,1.0081
1335.00,0.9926
1334.00,0.9777
1333.00,0.9643
1332.00,0.9527
1331.00,0.9431
1330.00,0.9354
1329.00,0.9294
1328.00,0.9250
1327.00,0.9221
1326.00,0.9207
1325.00,0.9204
1324.00,0.9210
1323.00,0.9221
1322.00,0.9234
1321.00,0.9248
1320.00,0.9265
1319.00,0.9285
1318.00,0.9311
1317.00,0.9340
1316.00,0.9373
1315.00,0.9411
1314.00,0.9453
1313.00,0.9499
1312.00,0.9544
1311.00,0.9588
1310.00,0.9628
1309.00,0.9666
1308.00,0.9700
1307.00,0.9728
1306.00,0.9747
1305.00,0.9753
1304.00,0.9744
1303.00,0.9722
1302.00,0.9687
1301.00,0.9645
1300.00,0.9599
1299.00,0.9553
1298.00,0.9508
1297.00,0.9466
1296.00,0.9429
1295.00,0.9399
1294.00,0.9379
1293.00,0.9365
1292.00,0.9356
1291.00,0.9348
1290.00,0.9336
1289.00,0.9319
1288.00,0.9296
1287.00,0.9265
1286.00,0.9225
1285.00,0.9176
1284.00,0.9122
1283.00,0.9070
1282.00,0.9026
1281.00,0.8992
1280.00,0.8967
1279.00,0.8947
1278.00,0.8929
1277.00,0.8911
1276.00,0.8894
1275.00,0.8878
1274.00,0.8865
1273.00,0.8855
1272.00,0.8849
1271.00,0.8843
1270.00,0.8836
1269.00,0.8822
1268.00,0.8796
1267.00,0.8755
1266.00,0.8700
1265.00,0.8638
1264.00,0.8575
1263.00,0.8519
1262.00,0.8470
1261.00,0.8427
1260.00,0.8387
1259.00,0.8350
1258.00,0.8315
1257.00,0.8279
1256.00,0.8242
1255.00,0.8203
1254.00,0.8163
1253.00,0.8124
1252.00,0.8086
1251.00,0.8050
1250.00,0.8015
1249.00,0.7978
1248.00,0.7939
1247.00,0.7898
1246.00,0.7856
1245.00,0.7813
1244.00,0.7768
1243.00,0.7722
1242.00,0.7676
1241.00,0.7631
1240.00,0.7592
1239.00,0.7558
1238.00,0.7529
1237.00,0.7503
1236.00,0.7482
1235.00,0.7466
1234.00,0.7455
1233.00,0.7446
1232.00,0.7439
1231.00,0.7433
1230.00,0.7426
1229.00,0.7414
1228.00,0.7394
1227.00,0.7364
1226.00,0.7327
1225.00,0.7285
1224.00,0.7245
1223.00,0.7212
1222.00,0.7187
1221.00,0.7168
1220.00,0.7152
1219.00,0.7141
1218.00,0.7135
1217.00,0.7135
1216.00,0.7140
1215.00,0.7149
1214.00,0.7158
1213.00,0.7163
1212.00,0.7162
1211.00,0.7158
1210.00,0.7150
1209.00,0.7141
1208.00,0.7130
1207.00,0.7118
1206.00,0.7105
1205.00,0.7089
1204.00,0.7071
1203.00,0.7054
1202.00,0.7039
1201.00,0.7027
1200.00,0.7017
1199.00,0.7012
1198.00,0.7007
1197.00,0.7001
1196.00,0.6992
1195.00,0.6982
1194.00,0.6973
1193.00,0.6962
1192.00,0.6952
1191.00,0.6943
1190.00,0.6936
1189.00,0.6930
1188.00,0.6924
1187.00,0.6920
1186.00,0.6919
1185.00,0.6920
1184.00,0.6921
1183.00,0.6922
1182.00,0.6923
1181.00,0.6925
1180.00,0.6928
1179.00,0.6935
1178.00,0.6947
1177.00,0.6963
1176.00,0.6984
1175.00,0.7014
1174.00,0.7053
1173.00,0.7098
1172.00,0.7144
1171.00,0.7187
1170.00,0.7219
1169.00,0.7233
1168.00,0.7231
1167.00,0.7219
1166.00,0.7203
1165.00,0.7192
1164.00,0.7187
1163.00,0.7191
1162.00,0.7200
1161.00,0.7213
1160.00,0.7228
1159.00,0.7245
1158.00,0.7263
1157.00,0.7279
1156.00,0.7290
1155.00,0.7295
1154.00,0.7294
1153.00,0.7288
1152.00,0.7279
1151.00,0.7267
1150.00,0.7254
1149.00,0.7240
1148.00,0.7227
1147.00,0.7217
1146.00,0.7210
1145.00,0.7206
1144.00,0.7209
1143.00,0.7223
1142.00,0.7249
1141.00,0.7285
1140.00,0.7328
1139.00,0.7381
1138.00,0.7442
1137.00,0.7512
1136.00,0.7587
1135.00,0.7665
1134.00,0.7734
1133.00,0.7775
1132.00,0.7775
1131.00,0.7735
1130.00,0.7672
1129.00,0.7602
1128.00,0.7542
1127.00,0.7500
1126.00,0.7476
1125.00,0.7464
1124.00,0.7457
1123.00,0.7449
1122.00,0.7436
1121.00,0.7419
1120.00,0.7398
1119.00,0.7377
1118.00,0.7359
1117.00,0.7347
1116.00,0.7339
1115.00,0.7327
1114.00,0.7298
1113.00,0.7242
1112.00,0.7164
1111.00,0.7074
1110.00,0.6987
1109.00,0.6910
1108.00,0.6848
1107.00,0.6801
1106.00,0.6768
1105.00,0.6744
1104.00,0.6724
1103.00,0.6707
1102.00,0.6690
1101.00,0.6672
1100.00,0.6653
1099.00,0.6634
1098.00,0.6616
1097.00,0.6601
1096.00,0.6589
1095.00,0.6580
1094.00,0.6578
1093.00,0.6581
1092.00,0.6587
1091.00,0.6597
1090.00,0.6611
1089.00,0.6629
1088.00,0.6653
1087.00,0.6685
1086.00,0.6725
1085.00,0.6774
1084.00,0.6834
1083.00,0.6904
1082.00,0.6984
1081.00,0.7069
1080.00,0.7156
1079.00,0.7240
1078.00,0.7313
1077.00,0.7364
1076.00,0.7386
1075.00,0.7379
1074.00,0.7348
1073.00,0.7303
1072.00,0.7250
1071.00,0.7195
1070.00,0.7139
1069.00,0.7084
1068.00,0.7032
1067.00,0.6983
1066.00,0.6939
1065.00,0.6899
1064.00,0.6864
1063.00,0.6835
1062.00,0.6813
1061.00,0.6795
1060.00,0.6781
1059.00,0.6768
1058.00,0.6755
1057.00,0.6741
1056.00,0.6727
1055.00,0.6715
1054.00,0.6704
1053.00,0.6696
1052.00,0.6692
1051.00,0.6696
1050.00,0.6711
1049.00,0.6732
1048.00,0.6757
1047.00,0.6782
1046.00,0.6803
1045.00,0.6820
1044.00,0.6831
1043.00,0.6840
1042.00,0.6846
1041.00,0.6847
1040.00,0.6843
1039.00,0.6835
1038.00,0.6823
1037.00,0.6808
1036.00,0.6794
1035.00,0.6785
1034.00,0.6783
1033.00,0.6787
1032.00,0.6796
1031.00,0.6806
1030.00,0.6813
1029.00,0.6814
1028.00,0.6805
1027.00,0.6782
1026.00,0.6744
1025.00,0.6690
1024.00,0.6626
1023.00,0.6562
1022.00,0.6502
1021.00,0.6450
1020.00,0.6406
1019.00,0.6369
1018.00,0.6338
1017.00,0.6309
1016.00,0.6284
1015.00,0.6264
1014.00,0.6248
1013.00,0.6236
1012.00,0.6225
1011.00,0.6220
1010.00,0.6221
1009.00,0.6228
1008.00,0.6239
1007.00,0.6254
1006.00,0.6271
1005.00,0.6291
1004.00,0.6314
1003.00,0.6340
1002.00,0.6367
1001.00,0.6391
1000.00,0.6410
999.00,0.6425
998.00,0.6434
997.00,0.6436
996.00,0.6429
995.00,0.6415
994.00,0.6395
993.00,0.6372
992.00,0.6346
991.00,0.6321
990.00,0.6301
989.00,0.6287
988.00,0.6281
987.00,0.6284
986.00,0.6297
985.00,0.6322
984.00,0.6357
983.00,0.6403
982.00,0.6455
981.00,0.6511
980.00,0.6572
979.00,0.6636
978.00,0.6703
977.00,0.6769
976.00,0.6832
975.00,0.6887
974.00,0.6933
973.00,0.6966
972.00,0.6986
971.00,0.6992
970.00,0.6988
969.00,0.6973
968.00,0.6947
967.00,0.6909
966.00,0.6859
965.00,0.6799
964.00,0.6733
963.00,0.6664
962.00,0.6594
961.00,0.6525
960.00,0.6462
959.00,0.6408
958.00,0.6366
957.00,0.6331
956.00,0.6301
955.00,0.6274
954.00,0.6247
953.00,0.6221
952.00,0.6194
951.00,0.6171
950.00,0.6153
949.00,0.6140
948.00,0.6132
947.00,0.6129
946.00,0.6132
945.00,0.6139
944.00,0.6149
943.00,0.6158
942.00,0.6166
941.00,0.6173
940.00,0.6180
939.00,0.6186
938.00,0.6189
937.00,0.6189
936.00,0.6182
935.00,0.6168
934.00,0.6149
933.00,0.6125
932.00,0.6100
931.00,0.6078
930.00,0.6059
929.00,0.6045
928.00,0.6037
927.00,0.6040
926.00,0.6055
925.00,0.6083
924.00,0.6121
923.00,0.6167
922.00,0.6212
921.00,0.6239
920.00,0.6237
919.00,0.6201
918.00,0.6135
917.00,0.6054
916.00,0.5970
915.00,0.5893
914.00,0.5827
913.00,0.5773
912.00,0.5730
911.00,0.5696
910.00,0.5669
909.00,0.5645
908.00,0.5624
907.00,0.5606
906.00,0.5592
905.00,0.5582
904.00,0.5575
903.00,0.5576
902.00,0.5583
901.00,0.5595
900.00,0.5613
899.00,0.5637
898.00,0.5667
897.00,0.5699
896.00,0.5731
895.00,0.5765
894.00,0.5801
893.00,0.5839
892.00,0.5874
891.00,0.5905
890.00,0.5932
889.00,0.5950
888.00,0.5955
887.00,0.5946
886.00,0.5928
885.00,0.5905
884.00,0.5883
883.00,0.5867
882.00,0.5858
881.00,0.5856
880.00,0.5857
879.00,0.5858
878.00,0.5857
877.00,0.5856
876.00,0.5857
875.00,0.5861
874.00,0.5869
873.00,0.5877
872.00,0.5886
871.00,0.5898
870.00,0.5911
869.00,0.5925
868.00,0.5941
867.00,0.5964
866.00,0.5994
865.00,0.6028
864.00,0.6061
863.00,0.6083
862.00,0.6085
861.00,0.6060
860.00,0.6008
859.00,0.5941
858.00,0.5873
857.00,0.5814
856.00,0.5768
855.00,0.5736
854.00,0.5713
853.00,0.5696
852.00,0.5681
851.00,0.5665
850.00,0.5648
849.00,0.5628
848.00,0.5604
847.00,0.5575
846.00,0.5545
845.00,0.5515
844.00,0.5490
843.00,0.5471
842.00,0.5462
841.00,0.5466
840.00,0.5487
839.00,0.5530
838.00,0.5590
837.00,0.5653
836.00,0.5697
835.00,0.5710
834.00,0.5689
833.00,0.5647
832.00,0.5603
831.00,0.5574
830.00,0.5566
829.00,0.5576
828.00,0.5598
827.00,0.5629
826.00,0.5670
825.00,0.5720
824.00,0.5776
823.00,0.5839
822.00,0.5906
821.00,0.5975
820.00,0.6040
819.00,0.6102
818.00,0.6156
817.00,0.6198
816.00,0.6223
815.00,0.6230
814.00,0.6217
813.00,0.6185
812.00,0.6137
811.00,0.6080
810.00,0.6022
809.00,0.5966
808.00,0.5914
807.00,0.5866
806.00,0.5821
805.00,0.5775
804.00,0.5724
803.00,0.5665
802.00,0.5599
801.00,0.5531
800.00,0.5469
799.00,0.5418
798.00,0.5379
797.00,0.5351
796.00,0.5332
795.00,0.5319
794.00,0.5311
793.00,0.5305
792.00,0.5303
791.00,0.5308
790.00,0.5320
789.00,0.5336
788.00,0.5355
787.00,0.5378
786.00,0.5405
785.00,0.5438
784.00,0.5475
783.00,0.5513
782.00,0.5549
781.00,0.5580
780.00,0.5605
779.00,0.5626
778.00,0.5645
777.00,0.5661
776.00,0.5678
775.00,0.5695
774.00,0.5713
773.00,0.5731
772.00,0.5750
771.00,0.5771
770.00,0.5795
769.00,0.5822
768.00,0.5851
767.00,0.5881
766.00,0.5908
765.00,0.5926
764.00,0.5938
763.00,0.5951
762.00,0.5972
761.00,0.6003
760.00,0.6040
759.00,0.6079
758.00,0.6114
757.00,0.6141
756.00,0.6162
755.00,0.6182
754.00,0.6206
753.00,0.6235
752.00,0.6271
751.00,0.6312
750.00,0.6357
749.00,0.6405
748.00,0.6455
747.00,0.6508
746.00,0.6567
745.00,0.6629
744.00,0.6692
743.00,0.6757
742.00,0.6824
741.00,0.6891
740.00,0.6952
739.00,0.7003
738.00,0.7041
737.00,0.7068
736.00,0.7088
735.00,0.7114
734.00,0.7150
733.00,0.7200
732.00,0.7266
731.00,0.7355
730.00,0.7471
729.00,0.7618
728.00,0.7797
727.00,0.8016
726.00,0.8275
725.00,0.8566
724.00,0.8860
723.00,0.9106
722.00,0.9222
721.00,0.9132
720.00,0.8829
719.00,0.8395
718.00,0.7928
717.00,0.7496
716.00,0.7125
715.00,0.6821
714.00,0.6578
713.00,0.6382
712.00,0.6221
711.00,0.6087
710.00,0.5975
709.00,0.5880
708.00,0.5799
707.00,0.5730
706.00,0.5674
705.00,0.5625
704.00,0.5579
703.00,0.5540
702.00,0.5509
701.00,0.5485
700.00,0.5456
699.00,0.5405
698.00,0.5319
697.00,0.5199
696.00,0.5066
695.00,0.4944
694.00,0.4845
693.00,0.4765
692.00,0.4701
691.00,0.4650
690.00,0.4612
689.00,0.4584
688.00,0.4557
687.00,0.4533
686.00,0.4512
685.00,0.4496
684.00,0.4484
683.00,0.4475
682.00,0.4469
681.00,0.4463
680.00,0.4459
679.00,0.4456
678.00,0.4453
677.00,0.4450
676.00,0.4444
675.00,0.4440
674.00,0.4439
673.00,0.4441
672.00,0.4442
671.00,0.4440
670.00,0.4436
669.00,0.4431
668.00,0.4427
667.00,0.4425
666.00,0.4431
665.00,0.4443
664.00,0.4452
663.00,0.4460
662.00,0.4469
661.00,0.4479
660.00,0.4489
659.00,0.4499
658.00,0.4510
657.00,0.4519
656.00,0.4527
655.00,0.4536
654.00,0.4547
653.00,0.4558
652.00,0.4570
651.00,0.4582
650.00,0.4592
649.00,0.4599
648.00,0.4604
647.00,0.4610
646.00,0.4621
645.00,0.4636
644.00,0.4655
643.00,0.4674
642.00,0.4689
641.00,0.4696
640.00,0.4696
639.00,0.4695
638.00,0.4700
637.00,0.4708
636.00,0.4715
635.00,0.4722
634.00,0.4730
633.00,0.4739
632.00,0.4749
631.00,0.4757
630.00,0.4766
629.00,0.4776
628.00,0.4788
627.00,0.4804
626.00,0.4825
625.00,0.4848
624.00,0.4871
623.00,0.4894
622.00,0.4917
621.00,0.4937
620.00,0.4953
619.00,0.4962
618.00,0.4964
617.00,0.4963
616.00,0.4960
615.00,0.4956
614.00,0.4950
613.00,0.4937
612.00,0.4920
611.00,0.4903
610.00,0.4890
609.00,0.4879
608.00,0.4865
607.00,0.4849
606.00,0.4832
605.00,0.4820
604.00,0.4814
603.00,0.4813
602.00,0.4815
601.00,0.4817
600.00,0.4819
599.00,0.4824
598.00,0.4835
597.00,0.4848
596.00,0.4862
595.00,0.4877
594.00,0.4894
593.00,0.4912
592.00,0.4932
591.00,0.4951
590.00,0.4969
589.00,0.4985
588.00,0.5002
587.00,0.5024
586.00,0.5051
585.00,0.5080
584.00,0.5108
583.00,0.5134
582.00,0.5160
581.00,0.5185
580.00,0.5208
579.00,0.5230
578.00,0.5248
577.00,0.5261
576.00,0.5269
575.00,0.5279
574.00,0.5294
573.00,0.5314
572.00,0.5335
571.00,0.5353
570.00,0.5367
569.00,0.5376
568.00,0.5384
567.00,0.5393
566.00,0.5401
565.00,0.5404
564.00,0.5405
563.00,0.5410
562.00,0.5420
561.00,0.5431
560.00,0.5440
559.00,0.5449
558.00,0.5461
557.00,0.5474
556.00,0.5487
555.00,0.5498
554.00,0.5509
553.00,0.5522
552.00,0.5537
551.00,0.5552
550.00,0.5566
