Created as New Dataset,
cm-1,A
4000.00,0.3770
3999.00,0.3766
3998.00,0.3762
3997.00,0.3758
3996.00,0.3755
3995.00,0.3751
3994.00,0.3747
3993.00,0.3743
3992.00,0.3739
3991.00,0.3735
3990.00,0.3730
3989.00,0.3725
3988.00,0.3721
3987.00,0.3717
3986.00,0.3713
3985.00,0.3709
3984.00,0.3705
3983.00,0.3700
3982.00,0.3696
3981.00,0.3691
3980.00,0.3687
3979.00,0.3683
3978.00,0.3679
3977.00,0.3676
3976.00,0.3673
3975.00,0.3670
3974.00,0.3666
3973.00,0.3663
3972.00,0.3660
3971.00,0.3656
3970.00,0.3653
3969.00,0.3650
3968.00,0.3647
3967.00,0.3644
3966.00,0.3641
3965.00,0.3639
3964.00,0.3637
3963.00,0.3635
3962.00,0.3632
3961.00,0.3629
3960.00,0.3625
3959.00,0.3622
3958.00,0.3619
3957.00,0.3617
3956.00,0.3614
3955.00,0.3612
3954.00,0.3610
3953.00,0.3609
3952.00,0.3607
3951.00,0.3605
3950.00,0.3604
3949.00,0.3603
3948.00,0.3601
3947.00,0.3599
3946.00,0.3597
3945.00,0.3595
3944.00,0.3593
3943.00,0.3592
3942.00,0.3590
3941.00,0.3588
3940.00,0.3587
3939.00,0.3585
3938.00,0.3584
3937.00,0.3583
3936.00,0.3582
3935.00,0.3582
3934.00,0.3581
3933.00,0.3581
3932.00,0.3581
3931.00,0.3580
3930.00,0.3580
3929.00,0.3580
3928.00,0.3580
3927.00,0.3581
3926.00,0.3581
3925.00,0.3581
3924.00,0.3579
3923.00,0.3578
3922.00,0.3577
3921.00,0.3576
3920.00,0.3576
3919.00,0.3576
3918.00,0.3577
3917.00,0.3577
3916.00,0.3576
3915.00,0.3575
3914.00,0.3574
3913.00,0.3574
3912.00,0.3573
3911.00,0.3572
3910.00,0.3570
3909.00,0.3568
3908.00,0.3567
3907.00,0.3566
3906.00,0.3565
3905.00,0.3565
3904.00,0.3565
3903.00,0.3565
3902.00,0.3565
3901.00,0.3566
3900.00,0.3567
3899.00,0.3566
3898.00,0.3566
3897.00,0.3564
3896.00,0.3563
3895.00,0.3561
3894.00,0.3559
3893.00,0.3558
3892.00,0.3556
3891.00,0.3555
3890.00,0.3552
3889.00,0.3550
3888.00,0.3549
3887.00,0.3548
3886.00,0.3548
3885.00,0.3547
3884.00,0.3545
3883.00,0.3544
3882.00,0.3546
3881.00,0.3547
3880.00,0.3547
3879.00,0.3545
3878.00,0.3543
3877.00,0.3542
3876.00,0.3541
3875.00,0.3539
3874.00,0.3537
3873.00,0.3534
3872.00,0.3532
3871.00,0.3532
3870.00,0.3532
3869.00,0.3530
3868.00,0.3528
3867.00,0.3528
3866.00,0.3528
3865.00,0.3527
3864.00,0.3525
3863.00,0.3523
3862.00,0.3521
3861.00,0.3519
3860.00,0.3517
3859.00,0.3515
3858.00,0.3511
3857.00,0.3508
3856.00,0.3505
3855.00,0.3505
3854.00,0.3506
3853.00,0.3507
3852.00,0.3506
3851.00,0.3505
3850.00,0.3506
3849.00,0.3507
3848.00,0.3508
3847.00,0.3508
3846.00,0.3507
3845.00,0.3506
3844.00,0.3504
3843.00,0.3502
3842.00,0.3500
3841.00,0.3498
3840.00,0.3497
3839.00,0.3497
3838.00,0.3497
3837.00,0.3497
3836.00,0.3496
3835.00,0.3496
3834.00,0.3496
3833.00,0.3496
3832.00,0.3496
3831.00,0.3494
3830.00,0.3492
3829.00,0.3491
3828.00,0.3490
3827.00,0.3488
3826.00,0.3486
3825.00,0.3483
3824.00,0.3480
3823.00,0.3479
3822.00,0.3480
3821.00,0.3479
3820.00,0.3477
3819.00,0.3474
3818.00,0.3474
3817.00,0.3475
3816.00,0.3474
3815.00,0.3472
3814.00,0.3469
3813.00,0.3467
3812.00,0.3466
3811.00,0.3464
3810.00,0.3461
3809.00,0.3459
3808.00,0.3457
3807.00,0.3456
3806.00,0.3453
3805.00,0.3450
3804.00,0.3448
3803.00,0.3447
3802.00,0.3447
3801.00,0.3444
3800.00,0.3441
3799.00,0.3439
3798.00,0.3439
3797.00,0.3439
3796.00,0.3439
3795.00,0.3437
3794.00,0.3435
3793.00,0.3433
3792.00,0.3430
3791.00,0.3427
3790.00,0.3423
3789.00,0.3421
3788.00,0.3419
3787.00,0.3417
3786.00,0.3415
3785.00,0.3413
3784.00,0.3411
3783.00,0.3409
3782.00,0.3408
3781.00,0.3406
3780.00,0.3405
3779.00,0.3404
3778.00,0.3402
3777.00,0.3401
3776.00,0.3400
3775.00,0.3399
3774.00,0.3398
3773.00,0.3396
3772.00,0.3394
3771.00,0.3392
3770.00,0.3390
3769.00,0.3388
3768.00,0.3386
3767.00,0.3385
3766.00,0.3385
3765.00,0.3384
3764.00,0.3382
3763.00,0.3380
3762.00,0.3378
3761.00,0.3377
3760.00,0.3375
3759.00,0.3373
3758.00,0.3371
3757.00,0.3369
3756.00,0.3366
3755.00,0.3363
3754.00,0.3360
3753.00,0.3357
3752.00,0.3355
3751.00,0.3353
3750.00,0.3352
3749.00,0.3351
3748.00,0.3350
3747.00,0.3350
3746.00,0.3351
3745.00,0.3353
3744.00,0.3353
3743.00,0.3351
3742.00,0.3349
3741.00,0.3348
3740.00,0.3346
3739.00,0.3344
3738.00,0.3342
3737.00,0.3340
3736.00,0.3339
3735.00,0.3337
3734.00,0.3337
3733.00,0.3338
3732.00,0.3339
3731.00,0.3339
3730.00,0.3337
3729.00,0.3335
3728.00,0.3333
3727.00,0.3331
3726.00,0.3329
3725.00,0.3326
3724.00,0.3324
3723.00,0.3323
3722.00,0.3321
3721.00,0.3320
3720.00,0.3319
3719.00,0.3318
3718.00,0.3316
3717.00,0.3314
3716.00,0.3311
3715.00,0.3309
3714.00,0.3309
3713.00,0.3308
3712.00,0.3309
3711.00,0.3309
3710.00,0.3310
3709.00,0.3311
3708.00,0.3312
3707.00,0.3313
3706.00,0.3312
3705.00,0.3311
3704.00,0.3311
3703.00,0.3310
3702.00,0.3310
3701.00,0.3310
3700.00,0.3310
3699.00,0.3311
3698.00,0.3312
3697.00,0.3313
3696.00,0.3313
3695.00,0.3312
3694.00,0.3310
3693.00,0.3309
3692.00,0.3308
3691.00,0.3308
3690.00,0.3309
3689.00,0.3310
3688.00,0.3311
3687.00,0.3312
3686.00,0.3313
3685.00,0.3314
3684.00,0.3314
3683.00,0.3313
3682.00,0.3310
3681.00,0.3308
3680.00,0.3305
3679.00,0.3303
3678.00,0.3301
3677.00,0.3302
3676.00,0.3304
3675.00,0.3305
3674.00,0.3305
3673.00,0.3307
3672.00,0.3310
3671.00,0.3313
3670.00,0.3315
3669.00,0.3316
3668.00,0.3318
3667.00,0.3321
3666.00,0.3325
3665.00,0.3330
3664.00,0.3335
3663.00,0.3341
3662.00,0.3347
3661.00,0.3355
3660.00,0.3364
3659.00,0.3376
3658.00,0.3393
3657.00,0.3414
3656.00,0.3437
3655.00,0.3460
3654.00,0.3481
3653.00,0.3501
3652.00,0.3520
3651.00,0.3536
3650.00,0.3546
3649.00,0.3547
3648.00,0.3542
3647.00,0.3533
3646.00,0.3520
3645.00,0.3506
3644.00,0.3490
3643.00,0.3474
3642.00,0.3458
3641.00,0.3443
3640.00,0.3429
3639.00,0.3418
3638.00,0.3409
3637.00,0.3401
3636.00,0.3396
3635.00,0.3393
3634.00,0.3389
3633.00,0.3386
3632.00,0.3383
3631.00,0.3381
3630.00,0.3381
3629.00,0.3382
3628.00,0.3382
3627.00,0.3383
3626.00,0.3384
3625.00,0.3385
3624.00,0.3384
3623.00,0.3382
3622.00,0.3380
3621.00,0.3377
3620.00,0.3373
3619.00,0.3368
3618.00,0.3363
3617.00,0.3359
3616.00,0.3356
3615.00,0.3354
3614.00,0.3352
3613.00,0.3349
3612.00,0.3348
3611.00,0.3346
3610.00,0.3346
3609.00,0.3345
3608.00,0.3344
3607.00,0.3342
3606.00,0.3340
3605.00,0.3337
3604.00,0.3333
3603.00,0.3328
3602.00,0.3322
3601.00,0.3314
3600.00,0.3305
3599.00,0.3294
3598.00,0.3284
3597.00,0.3275
3596.00,0.3265
3595.00,0.3256
3594.00,0.3248
3593.00,0.3240
3592.00,0.3233
3591.00,0.3227
3590.00,0.3221
3589.00,0.3217
3588.00,0.3213
3587.00,0.3209
3586.00,0.3206
3585.00,0.3203
3584.00,0.3200
3583.00,0.3198
3582.00,0.3196
3581.00,0.3193
3580.00,0.3191
3579.00,0.3189
3578.00,0.3187
3577.00,0.3186
3576.00,0.3185
3575.00,0.3184
3574.00,0.3183
3573.00,0.3182
3572.00,0.3181
3571.00,0.3180
3570.00,0.3180
3569.00,0.3180
3568.00,0.3181
3567.00,0.3181
3566.00,0.3181
3565.00,0.3181
3564.00,0.3181
3563.00,0.3181
3562.00,0.3181
3561.00,0.3181
3560.00,0.3182
3559.00,0.3183
3558.00,0.3183
3557.00,0.3184
3556.00,0.3184
3555.00,0.3185
3554.00,0.3187
3553.00,0.3188
3552.00,0.3190
3551.00,0.3191
3550.00,0.3192
3549.00,0.3194
3548.00,0.3196
3547.00,0.3198
3546.00,0.3201
3545.00,0.3203
3544.00,0.3206
3543.00,0.3209
3542.00,0.3212
3541.00,0.3214
3540.00,0.3217
3539.00,0.3219
3538.00,0.3221
3537.00,0.3223
3536.00,0.3225
3535.00,0.3227
3534.00,0.3229
3533.00,0.3231
3532.00,0.3233
3531.00,0.3235
3530.00,0.3238
3529.00,0.3242
3528.00,0.3245
3527.00,0.3248
3526.00,0.3251
3525.00,0.3254
3524.00,0.3256
3523.00,0.3259
3522.00,0.3262
3521.00,0.3266
3520.00,0.3269
3519.00,0.3272
3518.00,0.3276
3517.00,0.3280
3516.00,0.3284
3515.00,0.3288
3514.00,0.3292
3513.00,0.3296
3512.00,0.3300
3511.00,0.3303
3510.00,0.3307
3509.00,0.3312
3508.00,0.3316
3507.00,0.3321
3506.00,0.3326
3505.00,0.3330
3504.00,0.3335
3503.00,0.3340
3502.00,0.3345
3501.00,0.3351
3500.00,0.3357
3499.00,0.3363
3498.00,0.3368
3497.00,0.3373
3496.00,0.3379
3495.00,0.3385
3494.00,0.3391
3493.00,0.3397
3492.00,0.3403
3491.00,0.3409
3490.00,0.3416
3489.00,0.3422
3488.00,0.3429
3487.00,0.3435
3486.00,0.3441
3485.00,0.3448
3484.00,0.3454
3483.00,0.3459
3482.00,0.3465
3481.00,0.3470
3480.00,0.3476
3479.00,0.3481
3478.00,0.3486
3477.00,0.3491
3476.00,0.3495
3475.00,0.3500
3474.00,0.3505
3473.00,0.3511
3472.00,0.3517
3471.00,0.3523
3470.00,0.3529
3469.00,0.3536
3468.00,0.3542
3467.00,0.3549
3466.00,0.3555
3465.00,0.3561
3464.00,0.3568
3463.00,0.3574
3462.00,0.3581
3461.00,0.3588
3460.00,0.3596
3459.00,0.3605
3458.00,0.3613
3457.00,0.3621
3456.00,0.3629
3455.00,0.3637
3454.00,0.3645
3453.00,0.3653
3452.00,0.3662
3451.00,0.3671
3450.00,0.3681
3449.00,0.3692
3448.00,0.3703
3447.00,0.3715
3446.00,0.3727
3445.00,0.3741
3444.00,0.3756
3443.00,0.3772
3442.00,0.3787
3441.00,0.3801
3440.00,0.3815
3439.00,0.3827
3438.00,0.3838
3437.00,0.3849
3436.00,0.3859
3435.00,0.3868
3434.00,0.3877
3433.00,0.3884
3432.00,0.3891
3431.00,0.3898
3430.00,0.3905
3429.00,0.3913
3428.00,0.3921
3427.00,0.3928
3426.00,0.3935
3425.00,0.3942
3424.00,0.3950
3423.00,0.3957
3422.00,0.3965
3421.00,0.3974
3420.00,0.3983
3419.00,0.3992
3418.00,0.4002
3417.00,0.4012
3416.00,0.4021
3415.00,0.4031
3414.00,0.4041
3413.00,0.4052
3412.00,0.4063
3411.00,0.4075
3410.00,0.4087
3409.00,0.4099
3408.00,0.4111
3407.00,0.4123
3406.00,0.4136
3405.00,0.4150
3404.00,0.4164
3403.00,0.4178
3402.00,0.4191
3401.00,0.4204
3400.00,0.4217
3399.00,0.4230
3398.00,0.4244
3397.00,0.4259
3396.00,0.4274
3395.00,0.4289
3394.00,0.4303
3393.00,0.4316
3392.00,0.4330
3391.00,0.4344
3390.00,0.4358
3389.00,0.4373
3388.00,0.4388
3387.00,0.4403
3386.00,0.4419
3385.00,0.4435
3384.00,0.4451
3383.00,0.4468
3382.00,0.4485
3381.00,0.4502
3380.00,0.4519
3379.00,0.4536
3378.00,0.4554
3377.00,0.4571
3376.00,0.4589
3375.00,0.4607
3374.00,0.4626
3373.00,0.4646
3372.00,0.4666
3371.00,0.4686
3370.00,0.4707
3369.00,0.4728
3368.00,0.4749
3367.00,0.4770
3366.00,0.4790
3365.00,0.4811
3364.00,0.4833
3363.00,0.4855
3362.00,0.4877
3361.00,0.4899
3360.00,0.4921
3359.00,0.4943
3358.00,0.4966
3357.00,0.4988
3356.00,0.5010
3355.00,0.5032
3354.00,0.5054
3353.00,0.5076
3352.00,0.5097
3351.00,0.5117
3350.00,0.5137
3349.00,0.5156
3348.00,0.5174
3347.00,0.5192
3346.00,0.5210
3345.00,0.5228
3344.00,0.5245
3343.00,0.5261
3342.00,0.5276
3341.00,0.5291
3340.00,0.5304
3339.00,0.5317
3338.00,0.5328
3337.00,0.5339
3336.00,0.5348
3335.00,0.5355
3334.00,0.5361
3333.00,0.5366
3332.00,0.5369
3331.00,0.5371
3330.00,0.5374
3329.00,0.5376
3328.00,0.5376
3327.00,0.5375
3326.00,0.5373
3325.00,0.5369
3324.00,0.5365
3323.00,0.5359
3322.00,0.5353
3321.00,0.5347
3320.00,0.5340
3319.00,0.5334
3318.00,0.5327
3317.00,0.5319
3316.00,0.5309
3315.00,0.5299
3314.00,0.5288
3313.00,0.5278
3312.00,0.5267
3311.00,0.5257
3310.00,0.5247
3309.00,0.5237
3308.00,0.5227
3307.00,0.5216
3306.00,0.5206
3305.00,0.5196
3304.00,0.5187
3303.00,0.5179
3302.00,0.5170
3301.00,0.5161
3300.00,0.5153
3299.00,0.5145
3298.00,0.5137
3297.00,0.5130
3296.00,0.5123
3295.00,0.5116
3294.00,0.5111
3293.00,0.5106
3292.00,0.5102
3291.00,0.5099
3290.00,0.5096
3289.00,0.5093
3288.00,0.5091
3287.00,0.5088
3286.00,0.5086
3285.00,0.5085
3284.00,0.5085
3283.00,0.5086
3282.00,0.5088
3281.00,0.5090
3280.00,0.5092
3279.00,0.5094
3278.00,0.5096
3277.00,0.5099
3276.00,0.5102
3275.00,0.5105
3274.00,0.5108
3273.00,0.5112
3272.00,0.5117
3271.00,0.5122
3270.00,0.5126
3269.00,0.5130
3268.00,0.5133
3267.00,0.5137
3266.00,0.5141
3265.00,0.5146
3264.00,0.5151
3263.00,0.5156
3262.00,0.5161
3261.00,0.5166
3260.00,0.5171
3259.00,0.5175
3258.00,0.5179
3257.00,0.5183
3256.00,0.5188
3255.00,0.5192
3254.00,0.5196
3253.00,0.5199
3252.00,0.5202
3251.00,0.5205
3250.00,0.5207
3249.00,0.5209
3248.00,0.5211
3247.00,0.5211
3246.00,0.5211
3245.00,0.5211
3244.00,0.5210
3243.00,0.5210
3242.00,0.5209
3241.00,0.5209
3240.00,0.5208
3239.00,0.5207
3238.00,0.5205
3237.00,0.5203
3236.00,0.5201
3235.00,0.5198
3234.00,0.5194
3233.00,0.5191
3232.00,0.5187
3231.00,0.5182
3230.00,0.5178
3229.00,0.5172
3228.00,0.5167
3227.00,0.5163
3226.00,0.5158
3225.00,0.5154
3224.00,0.5148
3223.00,0.5142
3222.00,0.5136
3221.00,0.5130
3220.00,0.5124
3219.00,0.5118
3218.00,0.5111
3217.00,0.5105
3216.00,0.5098
3215.00,0.5092
3214.00,0.5085
3213.00,0.5078
3212.00,0.5071
3211.00,0.5065
3210.00,0.5059
3209.00,0.5054
3208.00,0.5049
3207.00,0.5043
3206.00,0.5037
3205.00,0.5031
3204.00,0.5025
3203.00,0.5020
3202.00,0.5014
3201.00,0.5007
3200.00,0.5001
3199.00,0.4995
3198.00,0.4989
3197.00,0.4982
3196.00,0.4975
3195.00,0.4968
3194.00,0.4961
3193.00,0.4954
3192.00,0.4948
3191.00,0.4941
3190.00,0.4934
3189.00,0.4927
3188.00,0.4919
3187.00,0.4911
3186.00,0.4903
3185.00,0.4894
3184.00,0.4885
3183.00,0.4876
3182.00,0.4867
3181.00,0.4858
3180.00,0.4850
3179.00,0.4841
3178.00,0.4833
3177.00,0.4824
3176.00,0.4815
3175.00,0.4805
3174.00,0.4796
3173.00,0.4787
3172.00,0.4778
3171.00,0.4768
3170.00,0.4759
3169.00,0.4749
3168.00,0.4740
3167.00,0.4730
3166.00,0.4721
3165.00,0.4711
3164.00,0.4701
3163.00,0.4691
3162.00,0.4681
3161.00,0.4672
3160.00,0.4663
3159.00,0.4655
3158.00,0.4647
3157.00,0.4639
3156.00,0.4630
3155.00,0.4621
3154.00,0.4612
3153.00,0.4604
3152.00,0.4596
3151.00,0.4589
3150.00,0.4582
3149.00,0.4574
3148.00,0.4568
3147.00,0.4561
3146.00,0.4553
3145.00,0.4546
3144.00,0.4539
3143.00,0.4533
3142.00,0.4527
3141.00,0.4522
3140.00,0.4517
3139.00,0.4512
3138.00,0.4507
3137.00,0.4502
3136.00,0.4497
3135.00,0.4493
3134.00,0.4488
3133.00,0.4484
3132.00,0.4481
3131.00,0.4478
3130.00,0.4475
3129.00,0.4473
3128.00,0.4471
3127.00,0.4469
3126.00,0.4468
3125.00,0.4467
3124.00,0.4466
3123.00,0.4466
3122.00,0.4465
3121.00,0.4465
3120.00,0.4466
3119.00,0.4467
3118.00,0.4468
3117.00,0.4471
3116.00,0.4474
3115.00,0.4478
3114.00,0.4482
3113.00,0.4486
3112.00,0.4491
3111.00,0.4496
3110.00,0.4502
3109.00,0.4510
3108.00,0.4519
3107.00,0.4528
3106.00,0.4538
3105.00,0.4548
3104.00,0.4559
3103.00,0.4569
3102.00,0.4580
3101.00,0.4591
3100.00,0.4603
3099.00,0.4614
3098.00,0.4625
3097.00,0.4637
3096.00,0.4648
3095.00,0.4660
3094.00,0.4674
3093.00,0.4688
3092.00,0.4702
3091.00,0.4719
3090.00,0.4736
3089.00,0.4756
3088.00,0.4776
3087.00,0.4798
3086.00,0.4821
3085.00,0.4845
3084.00,0.4871
3083.00,0.4899
3082.00,0.4928
3081.00,0.4958
3080.00,0.4990
3079.00,0.5023
3078.00,0.5058
3077.00,0.5094
3076.00,0.5132
3075.00,0.5170
3074.00,0.5209
3073.00,0.5248
3072.00,0.5288
3071.00,0.5327
3070.00,0.5367
3069.00,0.5407
3068.00,0.5447
3067.00,0.5487
3066.00,0.5527
3065.00,0.5566
3064.00,0.5604
3063.00,0.5641
3062.00,0.5677
3061.00,0.5712
3060.00,0.5745
3059.00,0.5777
3058.00,0.5809
3057.00,0.5841
3056.00,0.5873
3055.00,0.5905
3054.00,0.5939
3053.00,0.5974
3052.00,0.6010
3051.00,0.6048
3050.00,0.6088
3049.00,0.6130
3048.00,0.6173
3047.00,0.6216
3046.00,0.6261
3045.00,0.6306
3044.00,0.6351
3043.00,0.6396
3042.00,0.6440
3041.00,0.6485
3040.00,0.6532
3039.00,0.6582
3038.00,0.6635
3037.00,0.6693
3036.00,0.6753
3035.00,0.6816
3034.00,0.6882
3033.00,0.6950
3032.00,0.7022
3031.00,0.7097
3030.00,0.7174
3029.00,0.7254
3028.00,0.7335
3027.00,0.7419
3026.00,0.7507
3025.00,0.7596
3024.00,0.7689
3023.00,0.7785
3022.00,0.7884
3021.00,0.7988
3020.00,0.8093
3019.00,0.8201
3018.00,0.8311
3017.00,0.8422
3016.00,0.8538
3015.00,0.8658
3014.00,0.8784
3013.00,0.8916
3012.00,0.9054
3011.00,0.9199
3010.00,0.9354
3009.00,0.9518
3008.00,0.9691
3007.00,0.9873
3006.00,1.0061
3005.00,1.0257
3004.00,1.0459
3003.00,1.0669
3002.00,1.0889
3001.00,1.1122
3000.00,1.1370
2999.00,1.1632
2998.00,1.1910
2997.00,1.2205
2996.00,1.2525
2995.00,1.2875
2994.00,1.3259
2993.00,1.3678
2992.00,1.4137
2991.00,1.4642
2990.00,1.5203
2989.00,1.5823
2988.00,1.6503
2987.00,1.7245
2986.00,1.8059
2985.00,1.8958
2984.00,1.9956
2983.00,2.1063
2982.00,2.2284
2981.00,2.3629
2980.00,2.5115
2979.00,2.6767
2978.00,2.8579
2977.00,3.0461
2976.00,3.2305
2975.00,3.4135
2974.00,3.6043
2973.00,3.7888
2972.00,3.9290
2971.00,4.0000
2970.00,4.0108
2969.00,3.9670
2968.00,3.9042
2967.00,3.8677
2966.00,3.8748
2965.00,3.9293
2964.00,4.0049
2963.00,4.1116
2962.00,4.1611
2961.00,4.0683
2960.00,3.9780
2959.00,4.0614
2958.00,4.4050
2957.00,4.7578
2956.00,4.6000
2955.00,4.3036
2954.00,4.2048
2953.00,4.1398
2952.00,4.0988
2951.00,4.0788
2950.00,4.0196
2949.00,3.9974
2948.00,4.0007
2947.00,4.0681
2946.00,4.1642
2945.00,4.1554
2944.00,4.1616
2943.00,4.3229
2942.00,4.4689
2941.00,4.2478
2940.00,4.0380
2939.00,4.0681
2938.00,4.3055
2937.00,4.4544
2936.00,4.2873
2935.00,4.0175
2934.00,3.8709
2933.00,3.8425
2932.00,3.9168
2931.00,4.0217
2930.00,4.1247
2929.00,4.2776
2928.00,4.3868
2927.00,4.2394
2926.00,4.1620
2925.00,4.3662
2924.00,4.3178
2923.00,4.0469
2922.00,3.9412
2921.00,4.0810
2920.00,4.2036
2919.00,4.1456
2918.00,4.2482
2917.00,4.2493
2916.00,3.9828
2915.00,3.7748
2914.00,3.7314
2913.00,3.8108
2912.00,3.9296
2911.00,4.1694
2910.00,4.5135
2909.00,4.3904
2908.00,4.2064
2907.00,4.2610
2906.00,4.5337
2905.00,4.3806
2904.00,4.1719
2903.00,4.1914
2902.00,4.3713
2901.00,4.3076
2900.00,4.2760
2899.00,4.4152
2898.00,4.4441
2897.00,4.3293
2896.00,4.2639
2895.00,4.5116
2894.00,4.4680
2893.00,4.0926
2892.00,3.8982
2891.00,3.8935
2890.00,4.0591
2889.00,4.2869
2888.00,4.5084
2887.00,4.7877
2886.00,4.9992
2885.00,5.0095
2884.00,4.8731
2883.00,4.6034
2882.00,4.3861
2881.00,4.2156
2880.00,4.1119
2879.00,4.0698
2878.00,4.0912
2877.00,4.2655
2876.00,4.5450
2875.00,4.4130
2874.00,4.1596
2873.00,4.0299
2872.00,4.0736
2871.00,4.2258
2870.00,4.4186
2869.00,4.5553
2868.00,4.3235
2867.00,4.0185
2866.00,3.8246
2865.00,3.7643
2864.00,3.8223
2863.00,3.9265
2862.00,3.9338
2861.00,3.8510
2860.00,3.8307
2859.00,3.9104
2858.00,4.0280
2857.00,4.0780
2856.00,4.1487
2855.00,4.4024
2854.00,4.6138
2853.00,4.5214
2852.00,4.4962
2851.00,4.8347
2850.00,4.7844
2849.00,4.3326
2848.00,4.2034
2847.00,4.4043
2846.00,4.7593
2845.00,4.3870
2844.00,4.0237
2843.00,3.8183
2842.00,3.7219
2841.00,3.6789
2840.00,3.6662
2839.00,3.6288
2838.00,3.5106
2837.00,3.3217
2836.00,3.1095
2835.00,2.9068
2834.00,2.7181
2833.00,2.5437
2832.00,2.3869
2831.00,2.2489
2830.00,2.1271
2829.00,2.0181
2828.00,1.9201
2827.00,1.8321
2826.00,1.7530
2825.00,1.6818
2824.00,1.6173
2823.00,1.5590
2822.00,1.5058
2821.00,1.4569
2820.00,1.4114
2819.00,1.3690
2818.00,1.3292
2817.00,1.2919
2816.00,1.2570
2815.00,1.2245
2814.00,1.1940
2813.00,1.1650
2812.00,1.1375
2811.00,1.1114
2810.00,1.0869
2809.00,1.0637
2808.00,1.0415
2807.00,1.0201
2806.00,0.9995
2805.00,0.9797
2804.00,0.9608
2803.00,0.9427
2802.00,0.9255
2801.00,0.9089
2800.00,0.8929
2799.00,0.8776
2798.00,0.8630
2797.00,0.8490
2796.00,0.8355
2795.00,0.8225
2794.00,0.8099
2793.00,0.7978
2792.00,0.7860
2791.00,0.7745
2790.00,0.7634
2789.00,0.7525
2788.00,0.7419
2787.00,0.7314
2786.00,0.7212
2785.00,0.7111
2784.00,0.7013
2783.00,0.6918
2782.00,0.6828
2781.00,0.6740
2780.00,0.6655
2779.00,0.6574
2778.00,0.6495
2777.00,0.6421
2776.00,0.6351
2775.00,0.6286
2774.00,0.6224
2773.00,0.6167
2772.00,0.6113
2771.00,0.6063
2770.00,0.6018
2769.00,0.5977
2768.00,0.5942
2767.00,0.5910
2766.00,0.5883
2765.00,0.5858
2764.00,0.5836
2763.00,0.5818
2762.00,0.5801
2761.00,0.5787
2760.00,0.5774
2759.00,0.5763
2758.00,0.5751
2757.00,0.5740
2756.00,0.5730
2755.00,0.5721
2754.00,0.5713
2753.00,0.5707
2752.00,0.5704
2751.00,0.5703
2750.00,0.5705
2749.00,0.5708
2748.00,0.5713
2747.00,0.5720
2746.00,0.5729
2745.00,0.5741
2744.00,0.5756
2743.00,0.5773
2742.00,0.5794
2741.00,0.5820
2740.00,0.5849
2739.00,0.5882
2738.00,0.5920
2737.00,0.5963
2736.00,0.6011
2735.00,0.6062
2734.00,0.6115
2733.00,0.6167
2732.00,0.6213
2731.00,0.6251
2730.00,0.6276
2729.00,0.6287
2728.00,0.6285
2727.00,0.6271
2726.00,0.6250
2725.00,0.6225
2724.00,0.6197
2723.00,0.6167
2722.00,0.6135
2721.00,0.6101
2720.00,0.6066
2719.00,0.6030
2718.00,0.5993
2717.00,0.5953
2716.00,0.5911
2715.00,0.5867
2714.00,0.5822
2713.00,0.5779
2712.00,0.5738
2711.00,0.5701
2710.00,0.5668
2709.00,0.5639
2708.00,0.5613
2707.00,0.5590
2706.00,0.5571
2705.00,0.5555
2704.00,0.5543
2703.00,0.5533
2702.00,0.5526
2701.00,0.5523
2700.00,0.5522
2699.00,0.5523
2698.00,0.5527
2697.00,0.5533
2696.00,0.5542
2695.00,0.5552
2694.00,0.5564
2693.00,0.5577
2692.00,0.5590
2691.00,0.5605
2690.00,0.5620
2689.00,0.5634
2688.00,0.5647
2687.00,0.5659
2686.00,0.5668
2685.00,0.5676
2684.00,0.5682
2683.00,0.5687
2682.00,0.5690
2681.00,0.5692
2680.00,0.5694
2679.00,0.5696
2678.00,0.5698
2677.00,0.5699
2676.00,0.5701
2675.00,0.5703
2674.00,0.5704
2673.00,0.5703
2672.00,0.5699
2671.00,0.5694
2670.00,0.5686
2669.00,0.5675
2668.00,0.5660
2667.00,0.5642
2666.00,0.5621
2665.00,0.5599
2664.00,0.5575
2663.00,0.5549
2662.00,0.5524
2661.00,0.5497
2660.00,0.5471
2659.00,0.5446
2658.00,0.5421
2657.00,0.5398
2656.00,0.5375
2655.00,0.5353
2654.00,0.5332
2653.00,0.5312
2652.00,0.5294
2651.00,0.5276
2650.00,0.5258
2649.00,0.5241
2648.00,0.5225
2647.00,0.5208
2646.00,0.5193
2645.00,0.5178
2644.00,0.5163
2643.00,0.5149
2642.00,0.5135
2641.00,0.5120
2640.00,0.5106
2639.00,0.5093
2638.00,0.5082
2637.00,0.5072
2636.00,0.5062
2635.00,0.5053
2634.00,0.5044
2633.00,0.5034
2632.00,0.5024
2631.00,0.5014
2630.00,0.5004
2629.00,0.4994
2628.00,0.4985
2627.00,0.4975
2626.00,0.4964
2625.00,0.4953
2624.00,0.4942
2623.00,0.4931
2622.00,0.4919
2621.00,0.4907
2620.00,0.4895
2619.00,0.4884
2618.00,0.4874
2617.00,0.4863
2616.00,0.4853
2615.00,0.4843
2614.00,0.4832
2613.00,0.4822
2612.00,0.4811
2611.00,0.4800
2610.00,0.4789
2609.00,0.4778
2608.00,0.4767
2607.00,0.4757
2606.00,0.4746
2605.00,0.4737
2604.00,0.4726
2603.00,0.4715
2602.00,0.4703
2601.00,0.4689
2600.00,0.4675
2599.00,0.4660
2598.00,0.4645
2597.00,0.4630
2596.00,0.4614
2595.00,0.4597
2594.00,0.4580
2593.00,0.4562
2592.00,0.4543
2591.00,0.4525
2590.00,0.4507
2589.00,0.4490
2588.00,0.4473
2587.00,0.4456
2586.00,0.4439
2585.00,0.4421
2584.00,0.4404
2583.00,0.4385
2582.00,0.4367
2581.00,0.4348
2580.00,0.4329
2579.00,0.4310
2578.00,0.4292
2577.00,0.4274
2576.00,0.4257
2575.00,0.4240
2574.00,0.4224
2573.00,0.4208
2572.00,0.4192
2571.00,0.4177
2570.00,0.4162
2569.00,0.4147
2568.00,0.4132
2567.00,0.4118
2566.00,0.4104
2565.00,0.4089
2564.00,0.4075
2563.00,0.4060
2562.00,0.4045
2561.00,0.4030
2560.00,0.4016
2559.00,0.4001
2558.00,0.3988
2557.00,0.3974
2556.00,0.3962
2555.00,0.3950
2554.00,0.3937
2553.00,0.3925
2552.00,0.3913
2551.00,0.3902
2550.00,0.3891
2549.00,0.3881
2548.00,0.3871
2547.00,0.3861
2546.00,0.3852
2545.00,0.3843
2544.00,0.3834
2543.00,0.3824
2542.00,0.3815
2541.00,0.3806
2540.00,0.3798
2539.00,0.3790
2538.00,0.3783
2537.00,0.3777
2536.00,0.3771
2535.00,0.3764
2534.00,0.3758
2533.00,0.3751
2532.00,0.3743
2531.00,0.3734
2530.00,0.3725
2529.00,0.3715
2528.00,0.3704
2527.00,0.3693
2526.00,0.3681
2525.00,0.3669
2524.00,0.3657
2523.00,0.3646
2522.00,0.3634
2521.00,0.3622
2520.00,0.3611
2519.00,0.3600
2518.00,0.3590
2517.00,0.3580
2516.00,0.3571
2515.00,0.3562
2514.00,0.3553
2513.00,0.3544
2512.00,0.3535
2511.00,0.3527
2510.00,0.3518
2509.00,0.3511
2508.00,0.3504
2507.00,0.3497
2506.00,0.3492
2505.00,0.3487
2504.00,0.3483
2503.00,0.3479
2502.00,0.3476
2501.00,0.3473
2500.00,0.3471
2499.00,0.3468
2498.00,0.3465
2497.00,0.3462
2496.00,0.3460
2495.00,0.3456
2494.00,0.3453
2493.00,0.3448
2492.00,0.3443
2491.00,0.3438
2490.00,0.3433
2489.00,0.3428
2488.00,0.3422
2487.00,0.3416
2486.00,0.3410
2485.00,0.3405
2484.00,0.3399
2483.00,0.3393
2482.00,0.3387
2481.00,0.3381
2480.00,0.3375
2479.00,0.3369
2478.00,0.3363
2477.00,0.3358
2476.00,0.3353
2475.00,0.3348
2474.00,0.3344
2473.00,0.3340
2472.00,0.3337
2471.00,0.3333
2470.00,0.3330
2469.00,0.3328
2468.00,0.3325
2467.00,0.3322
2466.00,0.3320
2465.00,0.3317
2464.00,0.3314
2463.00,0.3312
2462.00,0.3309
2461.00,0.3305
2460.00,0.3303
2459.00,0.3300
2458.00,0.3299
2457.00,0.3298
2456.00,0.3297
2455.00,0.3296
2454.00,0.3294
2453.00,0.3293
2452.00,0.3292
2451.00,0.3291
2450.00,0.3291
2449.00,0.3290
2448.00,0.3289
2447.00,0.3288
2446.00,0.3288
2445.00,0.3287
2444.00,0.3287
2443.00,0.3288
2442.00,0.3289
2441.00,0.3290
2440.00,0.3291
2439.00,0.3292
2438.00,0.3293
2437.00,0.3294
2436.00,0.3295
2435.00,0.3296
2434.00,0.3296
2433.00,0.3297
2432.00,0.3298
2431.00,0.3299
2430.00,0.3300
2429.00,0.3302
2428.00,0.3303
2427.00,0.3305
2426.00,0.3306
2425.00,0.3308
2424.00,0.3309
2423.00,0.3310
2422.00,0.3312
2421.00,0.3313
2420.00,0.3314
2419.00,0.3316
2418.00,0.3317
2417.00,0.3318
2416.00,0.3319
2415.00,0.3319
2414.00,0.3320
2413.00,0.3321
2412.00,0.3322
2411.00,0.3323
2410.00,0.3324
2409.00,0.3325
2408.00,0.3326
2407.00,0.3325
2406.00,0.3325
2405.00,0.3325
2404.00,0.3324
2403.00,0.3325
2402.00,0.3325
2401.00,0.3325
2400.00,0.3325
2399.00,0.3326
2398.00,0.3326
2397.00,0.3325
2396.00,0.3325
2395.00,0.3324
2394.00,0.3324
2393.00,0.3323
2392.00,0.3324
2391.00,0.3324
2390.00,0.3324
2389.00,0.3325
2388.00,0.3326
2387.00,0.3327
2386.00,0.3329
2385.00,0.3330
2384.00,0.3332
2383.00,0.3333
2382.00,0.3335
2381.00,0.3338
2380.00,0.3340
2379.00,0.3342
2378.00,0.3344
2377.00,0.3346
2376.00,0.3347
2375.00,0.3347
2374.00,0.3347
2373.00,0.3345
2372.00,0.3343
2371.00,0.3342
2370.00,0.3340
2369.00,0.3340
2368.00,0.3340
2367.00,0.3340
2366.00,0.3339
2365.00,0.3340
2364.00,0.3340
2363.00,0.3339
2362.00,0.3338
2361.00,0.3338
2360.00,0.3338
2359.00,0.3338
2358.00,0.3337
2357.00,0.3335
2356.00,0.3333
2355.00,0.3331
2354.00,0.3330
2353.00,0.3331
2352.00,0.3331
2351.00,0.3332
2350.00,0.3331
2349.00,0.3328
2348.00,0.3325
2347.00,0.3322
2346.00,0.3321
2345.00,0.3322
2344.00,0.3324
2343.00,0.3323
2342.00,0.3321
2341.00,0.3319
2340.00,0.3317
2339.00,0.3314
2338.00,0.3313
2337.00,0.3312
2336.00,0.3311
2335.00,0.3309
2334.00,0.3306
2333.00,0.3302
2332.00,0.3298
2331.00,0.3295
2330.00,0.3292
2329.00,0.3289
2328.00,0.3286
2327.00,0.3282
2326.00,0.3279
2325.00,0.3276
2324.00,0.3274
2323.00,0.3271
2322.00,0.3269
2321.00,0.3266
2320.00,0.3262
2319.00,0.3257
2318.00,0.3253
2317.00,0.3249
2316.00,0.3245
2315.00,0.3242
2314.00,0.3239
2313.00,0.3238
2312.00,0.3236
2311.00,0.3233
2310.00,0.3230
2309.00,0.3225
2308.00,0.3219
2307.00,0.3213
2306.00,0.3208
2305.00,0.3204
2304.00,0.3200
2303.00,0.3198
2302.00,0.3195
2301.00,0.3192
2300.00,0.3189
2299.00,0.3187
2298.00,0.3184
2297.00,0.3182
2296.00,0.3179
2295.00,0.3176
2294.00,0.3172
2293.00,0.3168
2292.00,0.3163
2291.00,0.3159
2290.00,0.3154
2289.00,0.3150
2288.00,0.3146
2287.00,0.3142
2286.00,0.3138
2285.00,0.3134
2284.00,0.3131
2283.00,0.3127
2282.00,0.3123
2281.00,0.3120
2280.00,0.3116
2279.00,0.3113
2278.00,0.3109
2277.00,0.3105
2276.00,0.3101
2275.00,0.3099
2274.00,0.3096
2273.00,0.3093
2272.00,0.3091
2271.00,0.3089
2270.00,0.3088
2269.00,0.3087
2268.00,0.3085
2267.00,0.3084
2266.00,0.3083
2265.00,0.3081
2264.00,0.3080
2263.00,0.3077
2262.00,0.3075
2261.00,0.3073
2260.00,0.3070
2259.00,0.3067
2258.00,0.3063
2257.00,0.3060
2256.00,0.3057
2255.00,0.3053
2254.00,0.3050
2253.00,0.3046
2252.00,0.3042
2251.00,0.3039
2250.00,0.3037
2249.00,0.3034
2248.00,0.3032
2247.00,0.3030
2246.00,0.3027
2245.00,0.3025
2244.00,0.3023
2243.00,0.3021
2242.00,0.3018
2241.00,0.3016
2240.00,0.3014
2239.00,0.3012
2238.00,0.3011
2237.00,0.3009
2236.00,0.3008
2235.00,0.3006
2234.00,0.3004
2233.00,0.3002
2232.00,0.3000
2231.00,0.2998
2230.00,0.2996
2229.00,0.2995
2228.00,0.2994
2227.00,0.2992
2226.00,0.2990
2225.00,0.2989
2224.00,0.2987
2223.00,0.2986
2222.00,0.2984
2221.00,0.2984
2220.00,0.2983
2219.00,0.2982
2218.00,0.2981
2217.00,0.2980
2216.00,0.2979
2215.00,0.2979
2214.00,0.2978
2213.00,0.2978
2212.00,0.2978
2211.00,0.2978
2210.00,0.2978
2209.00,0.2978
2208.00,0.2978
2207.00,0.2978
2206.00,0.2978
2205.00,0.2978
2204.00,0.2978
2203.00,0.2978
2202.00,0.2978
2201.00,0.2978
2200.00,0.2979
2199.00,0.2979
2198.00,0.2980
2197.00,0.2980
2196.00,0.2981
2195.00,0.2981
2194.00,0.2982
2193.00,0.2983
2192.00,0.2983
2191.00,0.2984
2190.00,0.2984
2189.00,0.2985
2188.00,0.2985
2187.00,0.2986
2186.00,0.2986
2185.00,0.2986
2184.00,0.2987
2183.00,0.2987
2182.00,0.2987
2181.00,0.2986
2180.00,0.2986
2179.00,0.2985
2178.00,0.2985
2177.00,0.2984
2176.00,0.2983
2175.00,0.2982
2174.00,0.2981
2173.00,0.2980
2172.00,0.2980
2171.00,0.2979
2170.00,0.2979
2169.00,0.2978
2168.00,0.2978
2167.00,0.2977
2166.00,0.2975
2165.00,0.2975
2164.00,0.2974
2163.00,0.2973
2162.00,0.2972
2161.00,0.2971
2160.00,0.2970
2159.00,0.2968
2158.00,0.2967
2157.00,0.2966
2156.00,0.2966
2155.00,0.2965
2154.00,0.2963
2153.00,0.2962
2152.00,0.2961
2151.00,0.2959
2150.00,0.2957
2149.00,0.2954
2148.00,0.2950
2147.00,0.2946
2146.00,0.2940
2145.00,0.2935
2144.00,0.2929
2143.00,0.2923
2142.00,0.2916
2141.00,0.2910
2140.00,0.2904
2139.00,0.2899
2138.00,0.2894
2137.00,0.2890
2136.00,0.2886
2135.00,0.2882
2134.00,0.2879
2133.00,0.2875
2132.00,0.2872
2131.00,0.2869
2130.00,0.2867
2129.00,0.2865
2128.00,0.2864
2127.00,0.2862
2126.00,0.2860
2125.00,0.2859
2124.00,0.2859
2123.00,0.2858
2122.00,0.2857
2121.00,0.2856
2120.00,0.2855
2119.00,0.2854
2118.00,0.2853
2117.00,0.2852
2116.00,0.2852
2115.00,0.2851
2114.00,0.2850
2113.00,0.2849
2112.00,0.2849
2111.00,0.2848
2110.00,0.2847
2109.00,0.2845
2108.00,0.2844
2107.00,0.2842
2106.00,0.2841
2105.00,0.2839
2104.00,0.2839
2103.00,0.2838
2102.00,0.2837
2101.00,0.2836
2100.00,0.2835
2099.00,0.2834
2098.00,0.2833
2097.00,0.2832
2096.00,0.2831
2095.00,0.2831
2094.00,0.2830
2093.00,0.2830
2092.00,0.2830
2091.00,0.2830
2090.00,0.2830
2089.00,0.2830
2088.00,0.2829
2087.00,0.2829
2086.00,0.2828
2085.00,0.2828
2084.00,0.2829
2083.00,0.2830
2082.00,0.2830
2081.00,0.2831
2080.00,0.2831
2079.00,0.2831
2078.00,0.2831
2077.00,0.2832
2076.00,0.2832
2075.00,0.2833
2074.00,0.2834
2073.00,0.2835
2072.00,0.2836
2071.00,0.2836
2070.00,0.2837
2069.00,0.2837
2068.00,0.2838
2067.00,0.2839
2066.00,0.2841
2065.00,0.2842
2064.00,0.2844
2063.00,0.2845
2062.00,0.2846
2061.00,0.2847
2060.00,0.2849
2059.00,0.2850
2058.00,0.2852
2057.00,0.2854
2056.00,0.2856
2055.00,0.2858
2054.00,0.2860
2053.00,0.2862
2052.00,0.2865
2051.00,0.2867
2050.00,0.2870
2049.00,0.2874
2048.00,0.2877
2047.00,0.2881
2046.00,0.2884
2045.00,0.2887
2044.00,0.2889
2043.00,0.2892
2042.00,0.2894
2041.00,0.2897
2040.00,0.2899
2039.00,0.2901
2038.00,0.2902
2037.00,0.2903
2036.00,0.2904
2035.00,0.2905
2034.00,0.2906
2033.00,0.2906
2032.00,0.2906
2031.00,0.2906
2030.00,0.2906
2029.00,0.2906
2028.00,0.2907
2027.00,0.2907
2026.00,0.2906
2025.00,0.2905
2024.00,0.2904
2023.00,0.2902
2022.00,0.2899
2021.00,0.2894
2020.00,0.2889
2019.00,0.2882
2018.00,0.2875
2017.00,0.2868
2016.00,0.2860
2015.00,0.2851
2014.00,0.2843
2013.00,0.2835
2012.00,0.2828
2011.00,0.2820
2010.00,0.2813
2009.00,0.2806
2008.00,0.2801
2007.00,0.2796
2006.00,0.2792
2005.00,0.2788
2004.00,0.2785
2003.00,0.2782
2002.00,0.2779
2001.00,0.2777
2000.00,0.2776
1999.00,0.2774
1998.00,0.2772
1997.00,0.2771
1996.00,0.2770
1995.00,0.2769
1994.00,0.2768
1993.00,0.2767
1992.00,0.2767
1991.00,0.2766
1990.00,0.2765
1989.00,0.2764
1988.00,0.2763
1987.00,0.2762
1986.00,0.2761
1985.00,0.2760
1984.00,0.2760
1983.00,0.2759
1982.00,0.2759
1981.00,0.2758
1980.00,0.2757
1979.00,0.2757
1978.00,0.2756
1977.00,0.2756
1976.00,0.2755
1975.00,0.2754
1974.00,0.2754
1973.00,0.2753
1972.00,0.2754
1971.00,0.2754
1970.00,0.2754
1969.00,0.2755
1968.00,0.2756
1967.00,0.2756
1966.00,0.2757
1965.00,0.2758
1964.00,0.2758
1963.00,0.2759
1962.00,0.2759
1961.00,0.2760
1960.00,0.2762
1959.00,0.2763
1958.00,0.2764
1957.00,0.2766
1956.00,0.2768
1955.00,0.2770
1954.00,0.2771
1953.00,0.2773
1952.00,0.2774
1951.00,0.2775
1950.00,0.2775
1949.00,0.2775
1948.00,0.2776
1947.00,0.2776
1946.00,0.2778
1945.00,0.2781
1944.00,0.2785
1943.00,0.2790
1942.00,0.2795
1941.00,0.2800
1940.00,0.2805
1939.00,0.2809
1938.00,0.2812
1937.00,0.2814
1936.00,0.2816
1935.00,0.2817
1934.00,0.2818
1933.00,0.2819
1932.00,0.2819
1931.00,0.2819
1930.00,0.2819
1929.00,0.2818
1928.00,0.2817
1927.00,0.2816
1926.00,0.2814
1925.00,0.2814
1924.00,0.2814
1923.00,0.2815
1922.00,0.2817
1921.00,0.2820
1920.00,0.2824
1919.00,0.2827
1918.00,0.2830
1917.00,0.2832
1916.00,0.2834
1915.00,0.2835
1914.00,0.2835
1913.00,0.2835
1912.00,0.2836
1911.00,0.2837
1910.00,0.2837
1909.00,0.2838
1908.00,0.2839
1907.00,0.2840
1906.00,0.2841
1905.00,0.2841
1904.00,0.2841
1903.00,0.2841
1902.00,0.2841
1901.00,0.2841
1900.00,0.2841
1899.00,0.2840
1898.00,0.2840
1897.00,0.2840
1896.00,0.2840
1895.00,0.2840
1894.00,0.2840
1893.00,0.2841
1892.00,0.2842
1891.00,0.2844
1890.00,0.2845
1889.00,0.2846
1888.00,0.2848
1887.00,0.2849
1886.00,0.2851
1885.00,0.2851
1884.00,0.2852
1883.00,0.2853
1882.00,0.2853
1881.00,0.2854
1880.00,0.2853
1879.00,0.2852
1878.00,0.2851
1877.00,0.2850
1876.00,0.2849
1875.00,0.2848
1874.00,0.2846
1873.00,0.2844
1872.00,0.2842
1871.00,0.2840
1870.00,0.2836
1869.00,0.2831
1868.00,0.2826
1867.00,0.2823
1866.00,0.2822
1865.00,0.2821
1864.00,0.2820
1863.00,0.2818
1862.00,0.2815
1861.00,0.2813
1860.00,0.2812
1859.00,0.2809
1858.00,0.2807
1857.00,0.2804
1856.00,0.2801
1855.00,0.2799
1854.00,0.2797
1853.00,0.2795
1852.00,0.2793
1851.00,0.2791
1850.00,0.2789
1849.00,0.2788
1848.00,0.2786
1847.00,0.2785
1846.00,0.2784
1845.00,0.2784
1844.00,0.2784
1843.00,0.2784
1842.00,0.2783
1841.00,0.2781
1840.00,0.2778
1839.00,0.2776
1838.00,0.2773
1837.00,0.2773
1836.00,0.2773
1835.00,0.2773
1834.00,0.2773
1833.00,0.2773
1832.00,0.2773
1831.00,0.2773
1830.00,0.2772
1829.00,0.2771
1828.00,0.2772
1827.00,0.2772
1826.00,0.2773
1825.00,0.2776
1824.00,0.2776
1823.00,0.2776
1822.00,0.2775
1821.00,0.2774
1820.00,0.2774
1819.00,0.2775
1818.00,0.2776
1817.00,0.2778
1816.00,0.2779
1815.00,0.2780
1814.00,0.2782
1813.00,0.2784
1812.00,0.2786
1811.00,0.2787
1810.00,0.2789
1809.00,0.2794
1808.00,0.2801
1807.00,0.2809
1806.00,0.2818
1805.00,0.2827
1804.00,0.2839
1803.00,0.2851
1802.00,0.2862
1801.00,0.2870
1800.00,0.2874
1799.00,0.2877
1798.00,0.2881
1797.00,0.2886
1796.00,0.2891
1795.00,0.2896
1794.00,0.2899
1793.00,0.2902
1792.00,0.2905
1791.00,0.2909
1790.00,0.2912
1789.00,0.2915
1788.00,0.2917
1787.00,0.2919
1786.00,0.2922
1785.00,0.2926
1784.00,0.2929
1783.00,0.2931
1782.00,0.2931
1781.00,0.2932
1780.00,0.2935
1779.00,0.2939
1778.00,0.2945
1777.00,0.2950
1776.00,0.2954
1775.00,0.2957
1774.00,0.2961
1773.00,0.2964
1772.00,0.2966
1771.00,0.2969
1770.00,0.2977
1769.00,0.2988
1768.00,0.2998
1767.00,0.3004
1766.00,0.3007
1765.00,0.3010
1764.00,0.3014
1763.00,0.3020
1762.00,0.3027
1761.00,0.3034
1760.00,0.3043
1759.00,0.3051
1758.00,0.3059
1757.00,0.3070
1756.00,0.3082
1755.00,0.3095
1754.00,0.3112
1753.00,0.3135
1752.00,0.3166
1751.00,0.3200
1750.00,0.3235
1749.00,0.3275
1748.00,0.3321
1747.00,0.3377
1746.00,0.3440
1745.00,0.3507
1744.00,0.3572
1743.00,0.3626
1742.00,0.3665
1741.00,0.3688
1740.00,0.3691
1739.00,0.3677
1738.00,0.3654
1737.00,0.3626
1736.00,0.3595
1735.00,0.3553
1734.00,0.3502
1733.00,0.3454
1732.00,0.3416
1731.00,0.3382
1730.00,0.3353
1729.00,0.3332
1728.00,0.3320
1727.00,0.3313
1726.00,0.3311
1725.00,0.3311
1724.00,0.3315
1723.00,0.3320
1722.00,0.3327
1721.00,0.3335
1720.00,0.3345
1719.00,0.3355
1718.00,0.3365
1717.00,0.3377
1716.00,0.3389
1715.00,0.3399
1714.00,0.3407
1713.00,0.3417
1712.00,0.3429
1711.00,0.3443
1710.00,0.3458
1709.00,0.3473
1708.00,0.3487
1707.00,0.3496
1706.00,0.3502
1705.00,0.3506
1704.00,0.3509
1703.00,0.3512
1702.00,0.3512
1701.00,0.3501
1700.00,0.3478
1699.00,0.3455
1698.00,0.3440
1697.00,0.3429
1696.00,0.3419
1695.00,0.3412
1694.00,0.3406
1693.00,0.3398
1692.00,0.3388
1691.00,0.3382
1690.00,0.3379
1689.00,0.3380
1688.00,0.3384
1687.00,0.3390
1686.00,0.3397
1685.00,0.3398
1684.00,0.3391
1683.00,0.3385
1682.00,0.3385
1681.00,0.3386
1680.00,0.3388
1679.00,0.3391
1678.00,0.3397
1677.00,0.3406
1676.00,0.3417
1675.00,0.3427
1674.00,0.3436
1673.00,0.3445
1672.00,0.3452
1671.00,0.3457
1670.00,0.3463
1669.00,0.3474
1668.00,0.3490
1667.00,0.3506
1666.00,0.3520
1665.00,0.3532
1664.00,0.3545
1663.00,0.3558
1662.00,0.3572
1661.00,0.3592
1660.00,0.3613
1659.00,0.3633
1658.00,0.3652
1657.00,0.3674
1656.00,0.3700
1655.00,0.3733
1654.00,0.3769
1653.00,0.3802
1652.00,0.3835
1651.00,0.3858
1650.00,0.3864
1649.00,0.3868
1648.00,0.3883
1647.00,0.3910
1646.00,0.3946
1645.00,0.3988
1644.00,0.4024
1643.00,0.4051
1642.00,0.4074
1641.00,0.4100
1640.00,0.4128
1639.00,0.4154
1638.00,0.4179
1637.00,0.4209
1636.00,0.4244
1635.00,0.4283
1634.00,0.4325
1633.00,0.4365
1632.00,0.4401
1631.00,0.4436
1630.00,0.4474
1629.00,0.4519
1628.00,0.4570
1627.00,0.4623
1626.00,0.4681
1625.00,0.4747
1624.00,0.4821
1623.00,0.4903
1622.00,0.4994
1621.00,0.5091
1620.00,0.5192
1619.00,0.5301
1618.00,0.5430
1617.00,0.5588
1616.00,0.5768
1615.00,0.5949
1614.00,0.6130
1613.00,0.6327
1612.00,0.6553
1611.00,0.6801
1610.00,0.7056
1609.00,0.7309
1608.00,0.7549
1607.00,0.7760
1606.00,0.7945
1605.00,0.8130
1604.00,0.8338
1603.00,0.8579
1602.00,0.8866
1601.00,0.9222
1600.00,0.9659
1599.00,1.0174
1598.00,1.0774
1597.00,1.1501
1596.00,1.2397
1595.00,1.3477
1594.00,1.4754
1593.00,1.6301
1592.00,1.8223
1591.00,2.0528
1590.00,2.3125
1589.00,2.6219
1588.00,3.0730
1587.00,3.7393
1586.00,3.7163
1585.00,3.6233
1584.00,3.8305
1583.00,3.9436
1582.00,4.0171
1581.00,3.8346
1580.00,4.1056
1579.00,3.7523
1578.00,3.0473
1577.00,2.6238
1576.00,2.3177
1575.00,2.0724
1574.00,1.8875
1573.00,1.7576
1572.00,1.6673
1571.00,1.6068
1570.00,1.5793
1569.00,1.5942
1568.00,1.6536
1567.00,1.7512
1566.00,1.8861
1565.00,2.0719
1564.00,2.3234
1563.00,2.6142
1562.00,2.8365
1561.00,2.9332
1560.00,2.8625
1559.00,2.5250
1558.00,2.1847
1557.00,1.9388
1556.00,1.7370
1555.00,1.5509
1554.00,1.3913
1553.00,1.2700
1552.00,1.1822
1551.00,1.1163
1550.00,1.0664
1549.00,1.0327
1548.00,1.0145
1547.00,1.0083
1546.00,1.0110
1545.00,1.0217
1544.00,1.0387
1543.00,1.0580
1542.00,1.0753
1541.00,1.0865
1540.00,1.0863
1539.00,1.0726
1538.00,1.0503
1537.00,1.0247
1536.00,0.9962
1535.00,0.9626
1534.00,0.9243
1533.00,0.8877
1532.00,0.8580
1531.00,0.8351
1530.00,0.8165
1529.00,0.8014
1528.00,0.7886
1527.00,0.7767
1526.00,0.7653
1525.00,0.7557
1524.00,0.7492
1523.00,0.7457
1522.00,0.7462
1521.00,0.7515
1520.00,0.7604
1519.00,0.7697
1518.00,0.7780
1517.00,0.7849
1516.00,0.7880
1515.00,0.7841
1514.00,0.7725
1513.00,0.7546
1512.00,0.7332
1511.00,0.7113
1510.00,0.6918
1509.00,0.6759
1508.00,0.6632
1507.00,0.6527
1506.00,0.6461
1505.00,0.6444
1504.00,0.6454
1503.00,0.6469
1502.00,0.6491
1501.00,0.6528
1500.00,0.6581
1499.00,0.6645
1498.00,0.6725
1497.00,0.6838
1496.00,0.6984
1495.00,0.7147
1494.00,0.7322
1493.00,0.7528
1492.00,0.7779
1491.00,0.8057
1490.00,0.8315
1489.00,0.8517
1488.00,0.8668
1487.00,0.8807
1486.00,0.8983
1485.00,0.9227
1484.00,0.9535
1483.00,0.9901
1482.00,1.0331
1481.00,1.0843
1480.00,1.1433
1479.00,1.2101
1478.00,1.2882
1477.00,1.3831
1476.00,1.4968
1475.00,1.6291
1474.00,1.7878
1473.00,1.9939
1472.00,2.2673
1471.00,2.6074
1470.00,3.0017
1469.00,3.5325
1468.00,4.2499
1467.00,3.8678
1466.00,3.8355
1465.00,3.9671
1464.00,4.1645
1463.00,4.7261
1462.00,4.4977
1461.00,4.4456
1460.00,3.9632
1459.00,3.9504
1458.00,4.3102
1457.00,4.3751
1456.00,4.4754
1455.00,3.9624
1454.00,3.8202
1453.00,3.9121
1452.00,3.9253
1451.00,4.2151
1450.00,4.3185
1449.00,4.2355
1448.00,4.5297
1447.00,4.1081
1446.00,3.8792
1445.00,3.9931
1444.00,4.1477
1443.00,3.8701
1442.00,3.6281
1441.00,3.4974
1440.00,3.3212
1439.00,3.0689
1438.00,2.8272
1437.00,2.6131
1436.00,2.4066
1435.00,2.2151
1434.00,2.0488
1433.00,1.9014
1432.00,1.7642
1431.00,1.6369
1430.00,1.5241
1429.00,1.4290
1428.00,1.3517
1427.00,1.2900
1426.00,1.2406
1425.00,1.2006
1424.00,1.1691
1423.00,1.1460
1422.00,1.1300
1421.00,1.1193
1420.00,1.1134
1419.00,1.1128
1418.00,1.1183
1417.00,1.1298
1416.00,1.1470
1415.00,1.1690
1414.00,1.1936
1413.00,1.2176
1412.00,1.2371
1411.00,1.2478
1410.00,1.2469
1409.00,1.2344
1408.00,1.2115
1407.00,1.1792
1406.00,1.1387
1405.00,1.0928
1404.00,1.0456
1403.00,1.0012
1402.00,0.9612
1401.00,0.9256
1400.00,0.8943
1399.00,0.8685
1398.00,0.8495
1397.00,0.8366
1396.00,0.8281
1395.00,0.8226
1394.00,0.8198
1393.00,0.8205
1392.00,0.8266
1391.00,0.8406
1390.00,0.8647
1389.00,0.9026
1388.00,0.9584
1387.00,1.0336
1386.00,1.1247
1385.00,1.2266
1384.00,1.3385
1383.00,1.4637
1382.00,1.6066
1381.00,1.7709
1380.00,1.9586
1379.00,2.1548
1378.00,2.3030
1377.00,2.3319
1376.00,2.2413
1375.00,2.0869
1374.00,1.9191
1373.00,1.7697
1372.00,1.6498
1371.00,1.5584
1370.00,1.4928
1369.00,1.4514
1368.00,1.4290
1367.00,1.4134
1366.00,1.3889
1365.00,1.3442
1364.00,1.2799
1363.00,1.2065
1362.00,1.1372
1361.00,1.0798
1360.00,1.0356
1359.00,1.0024
1358.00,0.9780
1357.00,0.9612
1356.00,0.9513
1355.00,0.9470
1354.00,0.9470
1353.00,0.9498
1352.00,0.9545
1351.00,0.9610
1350.00,0.9701
1349.00,0.9837
1348.00,1.0034
1347.00,1.0289
1346.00,1.0563
1345.00,1.0770
1344.00,1.0820
1343.00,1.0674
1342.00,1.0374
1341.00,0.9998
1340.00,0.9613
1339.00,0.9251
1338.00,0.8921
1337.00,0.8622
1336.00,0.8354
1335.00,0.8117
1334.00,0.7913
1333.00,0.7743
1332.00,0.7608
1331.00,0.7508
1330.00,0.7443
1329.00,0.7411
1328.00,0.7406
1327.00,0.7422
1326.00,0.7449
1325.00,0.7477
1324.00,0.7500
1323.00,0.7520
1322.00,0.7539
1321.00,0.7561
1320.00,0.7589
1319.00,0.7626
1318.00,0.7669
1317.00,0.7717
1316.00,0.7772
1315.00,0.7835
1314.00,0.7906
1313.00,0.7985
1312.00,0.8071
1311.00,0.8161
1310.00,0.8251
1309.00,0.8337
1308.00,0.8411
1307.00,0.8461
1306.00,0.8479
1305.00,0.8467
1304.00,0.8434
1303.00,0.8396
1302.00,0.8365
1301.00,0.8346
1300.00,0.8336
1299.00,0.8324
1298.00,0.8295
1297.00,0.8243
1296.00,0.8172
1295.00,0.8090
1294.00,0.8005
1293.00,0.7918
1292.00,0.7822
1291.00,0.7712
1290.00,0.7588
1289.00,0.7459
1288.00,0.7336
1287.00,0.7225
1286.00,0.7131
1285.00,0.7056
1284.00,0.7006
1283.00,0.6987
1282.00,0.7008
1281.00,0.7070
1280.00,0.7159
1279.00,0.7239
1278.00,0.7267
1277.00,0.7212
1276.00,0.7082
1275.00,0.6914
1274.00,0.6748
1273.00,0.6612
1272.00,0.6513
1271.00,0.6447
1270.00,0.6404
1269.00,0.6373
1268.00,0.6344
1267.00,0.6309
1266.00,0.6268
1265.00,0.6225
1264.00,0.6184
1263.00,0.6150
1262.00,0.6123
1261.00,0.6102
1260.00,0.6090
1259.00,0.6088
1258.00,0.6096
1257.00,0.6111
1256.00,0.6131
1255.00,0.6157
1254.00,0.6186
1253.00,0.6214
1252.00,0.6236
1251.00,0.6246
1250.00,0.6240
1249.00,0.6221
1248.00,0.6193
1247.00,0.6160
1246.00,0.6125
1245.00,0.6090
1244.00,0.6059
1243.00,0.6035
1242.00,0.6013
1241.00,0.5988
1240.00,0.5958
1239.00,0.5930
1238.00,0.5915
1237.00,0.5927
1236.00,0.5970
1235.00,0.6044
1234.00,0.6141
1233.00,0.6245
1232.00,0.6341
1231.00,0.6410
1230.00,0.6436
1229.00,0.6409
1228.00,0.6330
1227.00,0.6209
1226.00,0.6065
1225.00,0.5914
1224.00,0.5772
1223.00,0.5648
1222.00,0.5546
1221.00,0.5463
1220.00,0.5401
1219.00,0.5358
1218.00,0.5333
1217.00,0.5325
1216.00,0.5329
1215.00,0.5343
1214.00,0.5360
1213.00,0.5375
1212.00,0.5384
1211.00,0.5386
1210.00,0.5379
1209.00,0.5360
1208.00,0.5330
1207.00,0.5296
1206.00,0.5268
1205.00,0.5255
1204.00,0.5265
1203.00,0.5304
1202.00,0.5372
1201.00,0.5461
1200.00,0.5553
1199.00,0.5627
1198.00,0.5672
1197.00,0.5698
1196.00,0.5725
1195.00,0.5773
1194.00,0.5845
1193.00,0.5935
1192.00,0.6030
1191.00,0.6110
1190.00,0.6157
1189.00,0.6157
1188.00,0.6110
1187.00,0.6027
1186.00,0.5923
1185.00,0.5811
1184.00,0.5700
1183.00,0.5594
1182.00,0.5496
1181.00,0.5410
1180.00,0.5338
1179.00,0.5283
1178.00,0.5244
1177.00,0.5219
1176.00,0.5210
1175.00,0.5215
1174.00,0.5235
1173.00,0.5267
1172.00,0.5306
1171.00,0.5346
1170.00,0.5382
1169.00,0.5409
1168.00,0.5428
1167.00,0.5442
1166.00,0.5457
1165.00,0.5477
1164.00,0.5509
1163.00,0.5551
1162.00,0.5600
1161.00,0.5642
1160.00,0.5664
1159.00,0.5660
1158.00,0.5635
1157.00,0.5601
1156.00,0.5570
1155.00,0.5548
1154.00,0.5531
1153.00,0.5513
1152.00,0.5493
1151.00,0.5469
1150.00,0.5442
1149.00,0.5414
1148.00,0.5386
1147.00,0.5362
1146.00,0.5340
1145.00,0.5322
1144.00,0.5311
1143.00,0.5311
1142.00,0.5325
1141.00,0.5355
1140.00,0.5402
1139.00,0.5465
1138.00,0.5542
1137.00,0.5632
1136.00,0.5734
1135.00,0.5838
1134.00,0.5925
1133.00,0.5970
1132.00,0.5962
1131.00,0.5906
1130.00,0.5829
1129.00,0.5759
1128.00,0.5722
1127.00,0.5723
1126.00,0.5747
1125.00,0.5766
1124.00,0.5757
1123.00,0.5715
1122.00,0.5652
1121.00,0.5589
1120.00,0.5545
1119.00,0.5529
1118.00,0.5542
1117.00,0.5576
1116.00,0.5617
1115.00,0.5648
1114.00,0.5651
1113.00,0.5612
1112.00,0.5536
1111.00,0.5439
1110.00,0.5339
1109.00,0.5253
1108.00,0.5191
1107.00,0.5157
1106.00,0.5150
1105.00,0.5169
1104.00,0.5210
1103.00,0.5271
1102.00,0.5343
1101.00,0.5417
1100.00,0.5478
1099.00,0.5511
1098.00,0.5504
1097.00,0.5461
1096.00,0.5402
1095.00,0.5347
1094.00,0.5306
1093.00,0.5278
1092.00,0.5256
1091.00,0.5237
1090.00,0.5221
1089.00,0.5210
1088.00,0.5209
1087.00,0.5221
1086.00,0.5250
1085.00,0.5293
1084.00,0.5351
1083.00,0.5423
1082.00,0.5505
1081.00,0.5592
1080.00,0.5673
1079.00,0.5738
1078.00,0.5778
1077.00,0.5785
1076.00,0.5755
1075.00,0.5693
1074.00,0.5608
1073.00,0.5515
1072.00,0.5423
1071.00,0.5341
1070.00,0.5269
1069.00,0.5204
1068.00,0.5147
1067.00,0.5097
1066.00,0.5054
1065.00,0.5019
1064.00,0.4989
1063.00,0.4967
1062.00,0.4949
1061.00,0.4934
1060.00,0.4917
1059.00,0.4896
1058.00,0.4870
1057.00,0.4839
1056.00,0.4805
1055.00,0.4773
1054.00,0.4743
1053.00,0.4716
1052.00,0.4692
1051.00,0.4671
1050.00,0.4655
1049.00,0.4645
1048.00,0.4640
1047.00,0.4639
1046.00,0.4641
1045.00,0.4641
1044.00,0.4640
1043.00,0.4640
1042.00,0.4643
1041.00,0.4650
1040.00,0.4660
1039.00,0.4671
1038.00,0.4684
1037.00,0.4698
1036.00,0.4717
1035.00,0.4745
1034.00,0.4783
1033.00,0.4830
1032.00,0.4884
1031.00,0.4944
1030.00,0.5005
1029.00,0.5061
1028.00,0.5101
1027.00,0.5115
1026.00,0.5095
1025.00,0.5041
1024.00,0.4961
1023.00,0.4866
1022.00,0.4772
1021.00,0.4688
1020.00,0.4622
1019.00,0.4575
1018.00,0.4546
1017.00,0.4527
1016.00,0.4515
1015.00,0.4506
1014.00,0.4499
1013.00,0.4491
1012.00,0.4486
1011.00,0.4488
1010.00,0.4500
1009.00,0.4521
1008.00,0.4541
1007.00,0.4552
1006.00,0.4553
1005.00,0.4548
1004.00,0.4543
1003.00,0.4542
1002.00,0.4546
1001.00,0.4554
1000.00,0.4564
999.00,0.4573
998.00,0.4578
997.00,0.4574
996.00,0.4563
995.00,0.4548
994.00,0.4530
993.00,0.4512
992.00,0.4496
991.00,0.4483
990.00,0.4474
989.00,0.4465
988.00,0.4453
987.00,0.4437
986.00,0.4422
985.00,0.4412
984.00,0.4416
983.00,0.4437
982.00,0.4473
981.00,0.4523
980.00,0.4585
979.00,0.4664
978.00,0.4767
977.00,0.4907
976.00,0.5104
975.00,0.5380
974.00,0.5756
973.00,0.6257
972.00,0.6903
971.00,0.7695
970.00,0.8591
969.00,0.9451
968.00,1.0020
967.00,1.0048
966.00,0.9531
965.00,0.8714
964.00,0.7857
963.00,0.7106
962.00,0.6519
961.00,0.6112
960.00,0.5881
959.00,0.5803
958.00,0.5835
957.00,0.5918
956.00,0.5988
955.00,0.6001
954.00,0.5938
953.00,0.5817
952.00,0.5664
951.00,0.5510
950.00,0.5375
949.00,0.5271
948.00,0.5205
947.00,0.5176
946.00,0.5183
945.00,0.5216
944.00,0.5267
943.00,0.5328
942.00,0.5389
941.00,0.5441
940.00,0.5476
939.00,0.5491
938.00,0.5485
937.00,0.5463
936.00,0.5428
935.00,0.5383
934.00,0.5328
933.00,0.5264
932.00,0.5193
931.00,0.5117
930.00,0.5040
929.00,0.4963
928.00,0.4893
927.00,0.4838
926.00,0.4802
925.00,0.4791
924.00,0.4805
923.00,0.4838
922.00,0.4876
921.00,0.4898
920.00,0.4882
919.00,0.4823
918.00,0.4729
917.00,0.4617
916.00,0.4507
915.00,0.4411
914.00,0.4335
913.00,0.4278
912.00,0.4238
911.00,0.4213
910.00,0.4200
909.00,0.4200
908.00,0.4215
907.00,0.4250
906.00,0.4306
905.00,0.4373
904.00,0.4432
903.00,0.4463
902.00,0.4456
901.00,0.4423
900.00,0.4385
899.00,0.4359
898.00,0.4349
897.00,0.4352
896.00,0.4367
895.00,0.4392
894.00,0.4427
893.00,0.4469
892.00,0.4515
891.00,0.4559
890.00,0.4595
889.00,0.4613
888.00,0.4608
887.00,0.4579
886.00,0.4534
885.00,0.4481
884.00,0.4431
883.00,0.4390
882.00,0.4360
881.00,0.4339
880.00,0.4325
879.00,0.4315
878.00,0.4309
877.00,0.4305
876.00,0.4304
875.00,0.4306
874.00,0.4309
873.00,0.4312
872.00,0.4314
871.00,0.4316
870.00,0.4320
869.00,0.4328
868.00,0.4344
867.00,0.4370
866.00,0.4409
865.00,0.4459
864.00,0.4515
863.00,0.4565
862.00,0.4591
861.00,0.4579
860.00,0.4525
859.00,0.4443
858.00,0.4354
857.00,0.4273
856.00,0.4209
855.00,0.4162
854.00,0.4131
853.00,0.4111
852.00,0.4098
851.00,0.4090
850.00,0.4083
849.00,0.4077
848.00,0.4070
847.00,0.4063
846.00,0.4059
845.00,0.4057
844.00,0.4061
843.00,0.4072
842.00,0.4098
841.00,0.4147
840.00,0.4226
839.00,0.4336
838.00,0.4460
837.00,0.4569
836.00,0.4633
835.00,0.4636
834.00,0.4587
833.00,0.4512
832.00,0.4443
831.00,0.4401
830.00,0.4396
829.00,0.4424
828.00,0.4476
827.00,0.4539
826.00,0.4606
825.00,0.4676
824.00,0.4751
823.00,0.4825
822.00,0.4888
821.00,0.4925
820.00,0.4929
819.00,0.4905
818.00,0.4861
817.00,0.4810
816.00,0.4761
815.00,0.4720
814.00,0.4689
813.00,0.4664
812.00,0.4642
811.00,0.4621
810.00,0.4602
809.00,0.4583
808.00,0.4566
807.00,0.4549
806.00,0.4530
805.00,0.4506
804.00,0.4477
803.00,0.4442
802.00,0.4405
801.00,0.4368
800.00,0.4335
799.00,0.4308
798.00,0.4284
797.00,0.4262
796.00,0.4239
795.00,0.4218
794.00,0.4203
793.00,0.4195
792.00,0.4194
791.00,0.4199
790.00,0.4209
789.00,0.4219
788.00,0.4232
787.00,0.4250
786.00,0.4281
785.00,0.4327
784.00,0.4390
783.00,0.4470
782.00,0.4569
781.00,0.4689
780.00,0.4827
779.00,0.4967
778.00,0.5080
777.00,0.5138
776.00,0.5129
775.00,0.5071
774.00,0.4999
773.00,0.4942
772.00,0.4910
771.00,0.4903
770.00,0.4911
769.00,0.4924
768.00,0.4937
767.00,0.4949
766.00,0.4959
765.00,0.4965
764.00,0.4972
763.00,0.4986
762.00,0.5012
761.00,0.5050
760.00,0.5095
759.00,0.5138
758.00,0.5173
757.00,0.5203
756.00,0.5235
755.00,0.5276
754.00,0.5330
753.00,0.5389
752.00,0.5445
751.00,0.5495
750.00,0.5543
749.00,0.5594
748.00,0.5651
747.00,0.5715
746.00,0.5787
745.00,0.5865
744.00,0.5948
743.00,0.6040
742.00,0.6143
741.00,0.6255
740.00,0.6373
739.00,0.6493
738.00,0.6617
737.00,0.6750
736.00,0.6891
735.00,0.7039
734.00,0.7191
733.00,0.7349
732.00,0.7521
731.00,0.7716
730.00,0.7950
729.00,0.8230
728.00,0.8569
727.00,0.8986
726.00,0.9499
725.00,1.0108
724.00,1.0765
723.00,1.1350
722.00,1.1673
721.00,1.1580
720.00,1.1095
719.00,1.0409
718.00,0.9708
717.00,0.9087
716.00,0.8576
715.00,0.8176
714.00,0.7872
713.00,0.7634
712.00,0.7432
711.00,0.7242
710.00,0.7051
709.00,0.6854
708.00,0.6653
707.00,0.6455
706.00,0.6267
705.00,0.6087
704.00,0.5916
703.00,0.5758
702.00,0.5617
701.00,0.5492
700.00,0.5373
699.00,0.5254
698.00,0.5126
697.00,0.4991
696.00,0.4857
695.00,0.4736
694.00,0.4638
693.00,0.4565
692.00,0.4517
691.00,0.4494
690.00,0.4487
689.00,0.4482
688.00,0.4462
687.00,0.4419
686.00,0.4353
685.00,0.4276
684.00,0.4204
683.00,0.4147
682.00,0.4108
681.00,0.4081
680.00,0.4062
679.00,0.4047
678.00,0.4036
677.00,0.4026
676.00,0.4018
675.00,0.4013
674.00,0.4011
673.00,0.4012
672.00,0.4015
671.00,0.4017
670.00,0.4019
669.00,0.4021
668.00,0.4024
667.00,0.4027
666.00,0.4036
665.00,0.4052
664.00,0.4065
663.00,0.4073
662.00,0.4080
661.00,0.4091
660.00,0.4105
659.00,0.4120
658.00,0.4132
657.00,0.4140
656.00,0.4146
655.00,0.4152
654.00,0.4157
653.00,0.4163
652.00,0.4170
651.00,0.4180
650.00,0.4189
649.00,0.4198
648.00,0.4209
647.00,0.4224
646.00,0.4245
645.00,0.4267
644.00,0.4288
643.00,0.4310
642.00,0.4333
641.00,0.4356
640.00,0.4378
639.00,0.4401
638.00,0.4424
637.00,0.4445
636.00,0.4461
635.00,0.4473
634.00,0.4483
633.00,0.4495
632.00,0.4509
631.00,0.4528
630.00,0.4550
629.00,0.4573
628.00,0.4599
627.00,0.4627
626.00,0.4657
625.00,0.4687
624.00,0.4717
623.00,0.4745
622.00,0.4769
621.00,0.4789
620.00,0.4805
619.00,0.4819
618.00,0.4832
617.00,0.4841
616.00,0.4844
615.00,0.4840
614.00,0.4832
613.00,0.4824
612.00,0.4816
611.00,0.4806
610.00,0.4795
609.00,0.4785
608.00,0.4779
607.00,0.4780
606.00,0.4783
605.00,0.4785
604.00,0.4782
603.00,0.4774
602.00,0.4761
601.00,0.4744
600.00,0.4725
599.00,0.4709
598.00,0.4700
597.00,0.4698
596.00,0.4701
595.00,0.4708
594.00,0.4714
593.00,0.4718
592.00,0.4721
591.00,0.4727
590.00,0.4737
589.00,0.4753
588.00,0.4773
587.00,0.4798
586.00,0.4829
585.00,0.4868
584.00,0.4908
583.00,0.4948
582.00,0.4985
581.00,0.5019
580.00,0.5049
579.00,0.5075
578.00,0.5099
577.00,0.5124
576.00,0.5150
575.00,0.5171
574.00,0.5184
573.00,0.5196
572.00,0.5217
571.00,0.5254
570.00,0.5302
569.00,0.5350
568.00,0.5394
567.00,0.5432
566.00,0.5465
565.00,0.5496
564.00,0.5526
563.00,0.5557
562.00,0.5589
561.00,0.5624
560.00,0.5666
559.00,0.5713
558.00,0.5762
557.00,0.5808
556.00,0.5851
555.00,0.5895
554.00,0.5945
553.00,0.6004
552.00,0.6069
551.00,0.6133
550.00,0.6187
