Created as New Dataset,
cm-1,A
4000.00,0.3832
3999.00,0.3830
3998.00,0.3827
3997.00,0.3823
3996.00,0.3819
3995.00,0.3816
3994.00,0.3813
3993.00,0.3809
3992.00,0.3806
3991.00,0.3802
3990.00,0.3798
3989.00,0.3794
3988.00,0.3790
3987.00,0.3785
3986.00,0.3781
3985.00,0.3777
3984.00,0.3773
3983.00,0.3768
3982.00,0.3764
3981.00,0.3760
3980.00,0.3756
3979.00,0.3752
3978.00,0.3748
3977.00,0.3744
3976.00,0.3741
3975.00,0.3738
3974.00,0.3735
3973.00,0.3731
3972.00,0.3729
3971.00,0.3726
3970.00,0.3723
3969.00,0.3721
3968.00,0.3718
3967.00,0.3716
3966.00,0.3713
3965.00,0.3711
3964.00,0.3710
3963.00,0.3708
3962.00,0.3706
3961.00,0.3704
3960.00,0.3703
3959.00,0.3701
3958.00,0.3699
3957.00,0.3698
3956.00,0.3696
3955.00,0.3694
3954.00,0.3693
3953.00,0.3691
3952.00,0.3690
3951.00,0.3688
3950.00,0.3687
3949.00,0.3685
3948.00,0.3685
3947.00,0.3685
3946.00,0.3684
3945.00,0.3683
3944.00,0.3682
3943.00,0.3681
3942.00,0.3681
3941.00,0.3681
3940.00,0.3680
3939.00,0.3679
3938.00,0.3679
3937.00,0.3679
3936.00,0.3678
3935.00,0.3677
3934.00,0.3677
3933.00,0.3677
3932.00,0.3677
3931.00,0.3677
3930.00,0.3676
3929.00,0.3676
3928.00,0.3675
3927.00,0.3674
3926.00,0.3673
3925.00,0.3673
3924.00,0.3672
3923.00,0.3671
3922.00,0.3669
3921.00,0.3668
3920.00,0.3669
3919.00,0.3670
3918.00,0.3670
3917.00,0.3671
3916.00,0.3671
3915.00,0.3671
3914.00,0.3670
3913.00,0.3669
3912.00,0.3668
3911.00,0.3667
3910.00,0.3666
3909.00,0.3664
3908.00,0.3662
3907.00,0.3659
3906.00,0.3657
3905.00,0.3655
3904.00,0.3655
3903.00,0.3656
3902.00,0.3655
3901.00,0.3655
3900.00,0.3656
3899.00,0.3658
3898.00,0.3660
3897.00,0.3660
3896.00,0.3660
3895.00,0.3660
3894.00,0.3658
3893.00,0.3655
3892.00,0.3652
3891.00,0.3652
3890.00,0.3652
3889.00,0.3651
3888.00,0.3646
3887.00,0.3643
3886.00,0.3644
3885.00,0.3647
3884.00,0.3648
3883.00,0.3645
3882.00,0.3641
3881.00,0.3640
3880.00,0.3642
3879.00,0.3644
3878.00,0.3643
3877.00,0.3639
3876.00,0.3634
3875.00,0.3634
3874.00,0.3637
3873.00,0.3637
3872.00,0.3631
3871.00,0.3624
3870.00,0.3623
3869.00,0.3624
3868.00,0.3625
3867.00,0.3622
3866.00,0.3621
3865.00,0.3622
3864.00,0.3624
3863.00,0.3623
3862.00,0.3620
3861.00,0.3616
3860.00,0.3613
3859.00,0.3612
3858.00,0.3612
3857.00,0.3610
3856.00,0.3605
3855.00,0.3601
3854.00,0.3603
3853.00,0.3607
3852.00,0.3610
3851.00,0.3610
3850.00,0.3611
3849.00,0.3613
3848.00,0.3616
3847.00,0.3616
3846.00,0.3615
3845.00,0.3612
3844.00,0.3609
3843.00,0.3607
3842.00,0.3606
3841.00,0.3603
3840.00,0.3600
3839.00,0.3598
3838.00,0.3597
3837.00,0.3598
3836.00,0.3598
3835.00,0.3598
3834.00,0.3598
3833.00,0.3598
3832.00,0.3601
3831.00,0.3604
3830.00,0.3605
3829.00,0.3602
3828.00,0.3597
3827.00,0.3594
3826.00,0.3594
3825.00,0.3594
3824.00,0.3592
3823.00,0.3587
3822.00,0.3585
3821.00,0.3588
3820.00,0.3592
3819.00,0.3591
3818.00,0.3586
3817.00,0.3583
3816.00,0.3585
3815.00,0.3586
3814.00,0.3584
3813.00,0.3580
3812.00,0.3577
3811.00,0.3577
3810.00,0.3575
3809.00,0.3570
3808.00,0.3564
3807.00,0.3562
3806.00,0.3562
3805.00,0.3560
3804.00,0.3555
3803.00,0.3548
3802.00,0.3547
3801.00,0.3549
3800.00,0.3549
3799.00,0.3546
3798.00,0.3542
3797.00,0.3542
3796.00,0.3544
3795.00,0.3545
3794.00,0.3544
3793.00,0.3541
3792.00,0.3539
3791.00,0.3538
3790.00,0.3537
3789.00,0.3536
3788.00,0.3535
3787.00,0.3533
3786.00,0.3530
3785.00,0.3528
3784.00,0.3528
3783.00,0.3527
3782.00,0.3526
3781.00,0.3524
3780.00,0.3524
3779.00,0.3524
3778.00,0.3522
3777.00,0.3518
3776.00,0.3514
3775.00,0.3512
3774.00,0.3511
3773.00,0.3509
3772.00,0.3506
3771.00,0.3502
3770.00,0.3500
3769.00,0.3498
3768.00,0.3496
3767.00,0.3492
3766.00,0.3489
3765.00,0.3489
3764.00,0.3488
3763.00,0.3486
3762.00,0.3483
3761.00,0.3480
3760.00,0.3478
3759.00,0.3475
3758.00,0.3471
3757.00,0.3467
3756.00,0.3464
3755.00,0.3461
3754.00,0.3458
3753.00,0.3456
3752.00,0.3453
3751.00,0.3448
3750.00,0.3445
3749.00,0.3445
3748.00,0.3447
3747.00,0.3446
3746.00,0.3445
3745.00,0.3448
3744.00,0.3455
3743.00,0.3457
3742.00,0.3455
3741.00,0.3452
3740.00,0.3453
3739.00,0.3455
3738.00,0.3454
3737.00,0.3453
3736.00,0.3452
3735.00,0.3452
3734.00,0.3450
3733.00,0.3448
3732.00,0.3448
3731.00,0.3450
3730.00,0.3451
3729.00,0.3449
3728.00,0.3446
3727.00,0.3446
3726.00,0.3445
3725.00,0.3444
3724.00,0.3442
3723.00,0.3440
3722.00,0.3440
3721.00,0.3439
3720.00,0.3438
3719.00,0.3435
3718.00,0.3433
3717.00,0.3432
3716.00,0.3432
3715.00,0.3430
3714.00,0.3429
3713.00,0.3429
3712.00,0.3430
3711.00,0.3432
3710.00,0.3434
3709.00,0.3434
3708.00,0.3435
3707.00,0.3436
3706.00,0.3438
3705.00,0.3439
3704.00,0.3441
3703.00,0.3441
3702.00,0.3443
3701.00,0.3444
3700.00,0.3444
3699.00,0.3443
3698.00,0.3441
3697.00,0.3440
3696.00,0.3438
3695.00,0.3436
3694.00,0.3433
3693.00,0.3432
3692.00,0.3431
3691.00,0.3429
3690.00,0.3428
3689.00,0.3428
3688.00,0.3429
3687.00,0.3431
3686.00,0.3431
3685.00,0.3431
3684.00,0.3431
3683.00,0.3431
3682.00,0.3429
3681.00,0.3426
3680.00,0.3426
3679.00,0.3426
3678.00,0.3422
3677.00,0.3417
3676.00,0.3417
3675.00,0.3421
3674.00,0.3425
3673.00,0.3426
3672.00,0.3426
3671.00,0.3431
3670.00,0.3441
3669.00,0.3450
3668.00,0.3456
3667.00,0.3460
3666.00,0.3464
3665.00,0.3469
3664.00,0.3475
3663.00,0.3480
3662.00,0.3484
3661.00,0.3489
3660.00,0.3495
3659.00,0.3500
3658.00,0.3506
3657.00,0.3515
3656.00,0.3527
3655.00,0.3541
3654.00,0.3555
3653.00,0.3571
3652.00,0.3593
3651.00,0.3627
3650.00,0.3673
3649.00,0.3727
3648.00,0.3785
3647.00,0.3843
3646.00,0.3896
3645.00,0.3942
3644.00,0.3978
3643.00,0.4004
3642.00,0.4018
3641.00,0.4018
3640.00,0.4003
3639.00,0.3977
3638.00,0.3945
3637.00,0.3909
3636.00,0.3871
3635.00,0.3835
3634.00,0.3804
3633.00,0.3780
3632.00,0.3758
3631.00,0.3736
3630.00,0.3716
3629.00,0.3700
3628.00,0.3687
3627.00,0.3676
3626.00,0.3667
3625.00,0.3662
3624.00,0.3659
3623.00,0.3657
3622.00,0.3652
3621.00,0.3642
3620.00,0.3631
3619.00,0.3618
3618.00,0.3606
3617.00,0.3595
3616.00,0.3585
3615.00,0.3576
3614.00,0.3570
3613.00,0.3566
3612.00,0.3563
3611.00,0.3560
3610.00,0.3556
3609.00,0.3555
3608.00,0.3554
3607.00,0.3554
3606.00,0.3551
3605.00,0.3549
3604.00,0.3546
3603.00,0.3543
3602.00,0.3538
3601.00,0.3533
3600.00,0.3526
3599.00,0.3519
3598.00,0.3511
3597.00,0.3502
3596.00,0.3493
3595.00,0.3484
3594.00,0.3475
3593.00,0.3466
3592.00,0.3459
3591.00,0.3453
3590.00,0.3446
3589.00,0.3440
3588.00,0.3435
3587.00,0.3431
3586.00,0.3427
3585.00,0.3423
3584.00,0.3421
3583.00,0.3419
3582.00,0.3418
3581.00,0.3417
3580.00,0.3415
3579.00,0.3414
3578.00,0.3412
3577.00,0.3411
3576.00,0.3410
3575.00,0.3409
3574.00,0.3408
3573.00,0.3406
3572.00,0.3405
3571.00,0.3405
3570.00,0.3404
3569.00,0.3404
3568.00,0.3404
3567.00,0.3405
3566.00,0.3407
3565.00,0.3408
3564.00,0.3409
3563.00,0.3412
3562.00,0.3414
3561.00,0.3416
3560.00,0.3417
3559.00,0.3417
3558.00,0.3418
3557.00,0.3419
3556.00,0.3420
3555.00,0.3422
3554.00,0.3423
3553.00,0.3425
3552.00,0.3426
3551.00,0.3428
3550.00,0.3430
3549.00,0.3432
3548.00,0.3434
3547.00,0.3436
3546.00,0.3438
3545.00,0.3441
3544.00,0.3443
3543.00,0.3446
3542.00,0.3449
3541.00,0.3451
3540.00,0.3454
3539.00,0.3457
3538.00,0.3459
3537.00,0.3463
3536.00,0.3466
3535.00,0.3469
3534.00,0.3472
3533.00,0.3475
3532.00,0.3477
3531.00,0.3480
3530.00,0.3483
3529.00,0.3486
3528.00,0.3489
3527.00,0.3493
3526.00,0.3496
3525.00,0.3499
3524.00,0.3503
3523.00,0.3507
3522.00,0.3511
3521.00,0.3514
3520.00,0.3516
3519.00,0.3519
3518.00,0.3523
3517.00,0.3527
3516.00,0.3530
3515.00,0.3533
3514.00,0.3536
3513.00,0.3539
3512.00,0.3542
3511.00,0.3544
3510.00,0.3548
3509.00,0.3551
3508.00,0.3555
3507.00,0.3559
3506.00,0.3563
3505.00,0.3567
3504.00,0.3572
3503.00,0.3576
3502.00,0.3580
3501.00,0.3584
3500.00,0.3588
3499.00,0.3593
3498.00,0.3597
3497.00,0.3601
3496.00,0.3605
3495.00,0.3609
3494.00,0.3613
3493.00,0.3618
3492.00,0.3623
3491.00,0.3628
3490.00,0.3632
3489.00,0.3637
3488.00,0.3641
3487.00,0.3645
3486.00,0.3649
3485.00,0.3654
3484.00,0.3659
3483.00,0.3664
3482.00,0.3668
3481.00,0.3673
3480.00,0.3678
3479.00,0.3683
3478.00,0.3688
3477.00,0.3694
3476.00,0.3699
3475.00,0.3704
3474.00,0.3708
3473.00,0.3713
3472.00,0.3718
3471.00,0.3724
3470.00,0.3730
3469.00,0.3736
3468.00,0.3743
3467.00,0.3749
3466.00,0.3755
3465.00,0.3761
3464.00,0.3767
3463.00,0.3773
3462.00,0.3779
3461.00,0.3785
3460.00,0.3791
3459.00,0.3797
3458.00,0.3804
3457.00,0.3810
3456.00,0.3817
3455.00,0.3823
3454.00,0.3829
3453.00,0.3835
3452.00,0.3842
3451.00,0.3849
3450.00,0.3855
3449.00,0.3862
3448.00,0.3869
3447.00,0.3875
3446.00,0.3882
3445.00,0.3888
3444.00,0.3895
3443.00,0.3902
3442.00,0.3909
3441.00,0.3916
3440.00,0.3924
3439.00,0.3931
3438.00,0.3938
3437.00,0.3945
3436.00,0.3953
3435.00,0.3960
3434.00,0.3969
3433.00,0.3977
3432.00,0.3986
3431.00,0.3995
3430.00,0.4004
3429.00,0.4012
3428.00,0.4020
3427.00,0.4029
3426.00,0.4038
3425.00,0.4047
3424.00,0.4057
3423.00,0.4066
3422.00,0.4076
3421.00,0.4086
3420.00,0.4096
3419.00,0.4106
3418.00,0.4116
3417.00,0.4126
3416.00,0.4136
3415.00,0.4147
3414.00,0.4157
3413.00,0.4167
3412.00,0.4178
3411.00,0.4188
3410.00,0.4199
3409.00,0.4210
3408.00,0.4222
3407.00,0.4234
3406.00,0.4245
3405.00,0.4257
3404.00,0.4269
3403.00,0.4282
3402.00,0.4294
3401.00,0.4306
3400.00,0.4318
3399.00,0.4331
3398.00,0.4344
3397.00,0.4358
3396.00,0.4372
3395.00,0.4385
3394.00,0.4399
3393.00,0.4413
3392.00,0.4427
3391.00,0.4441
3390.00,0.4455
3389.00,0.4468
3388.00,0.4481
3387.00,0.4494
3386.00,0.4508
3385.00,0.4522
3384.00,0.4537
3383.00,0.4551
3382.00,0.4565
3381.00,0.4580
3380.00,0.4594
3379.00,0.4609
3378.00,0.4624
3377.00,0.4639
3376.00,0.4654
3375.00,0.4668
3374.00,0.4683
3373.00,0.4698
3372.00,0.4713
3371.00,0.4728
3370.00,0.4743
3369.00,0.4758
3368.00,0.4774
3367.00,0.4789
3366.00,0.4805
3365.00,0.4821
3364.00,0.4838
3363.00,0.4855
3362.00,0.4873
3361.00,0.4890
3360.00,0.4906
3359.00,0.4921
3358.00,0.4937
3357.00,0.4952
3356.00,0.4969
3355.00,0.4986
3354.00,0.5003
3353.00,0.5021
3352.00,0.5039
3351.00,0.5056
3350.00,0.5073
3349.00,0.5089
3348.00,0.5104
3347.00,0.5119
3346.00,0.5134
3345.00,0.5148
3344.00,0.5163
3343.00,0.5177
3342.00,0.5191
3341.00,0.5205
3340.00,0.5219
3339.00,0.5232
3338.00,0.5244
3337.00,0.5256
3336.00,0.5268
3335.00,0.5279
3334.00,0.5290
3333.00,0.5300
3332.00,0.5309
3331.00,0.5318
3330.00,0.5328
3329.00,0.5337
3328.00,0.5345
3327.00,0.5352
3326.00,0.5358
3325.00,0.5363
3324.00,0.5367
3323.00,0.5372
3322.00,0.5376
3321.00,0.5381
3320.00,0.5385
3319.00,0.5388
3318.00,0.5390
3317.00,0.5392
3316.00,0.5393
3315.00,0.5393
3314.00,0.5393
3313.00,0.5393
3312.00,0.5394
3311.00,0.5394
3310.00,0.5394
3309.00,0.5394
3308.00,0.5393
3307.00,0.5391
3306.00,0.5389
3305.00,0.5387
3304.00,0.5385
3303.00,0.5383
3302.00,0.5381
3301.00,0.5379
3300.00,0.5379
3299.00,0.5378
3298.00,0.5379
3297.00,0.5380
3296.00,0.5380
3295.00,0.5381
3294.00,0.5381
3293.00,0.5381
3292.00,0.5382
3291.00,0.5384
3290.00,0.5386
3289.00,0.5388
3288.00,0.5390
3287.00,0.5393
3286.00,0.5396
3285.00,0.5400
3284.00,0.5406
3283.00,0.5412
3282.00,0.5418
3281.00,0.5425
3280.00,0.5432
3279.00,0.5438
3278.00,0.5444
3277.00,0.5450
3276.00,0.5456
3275.00,0.5464
3274.00,0.5472
3273.00,0.5480
3272.00,0.5487
3271.00,0.5495
3270.00,0.5503
3269.00,0.5512
3268.00,0.5521
3267.00,0.5530
3266.00,0.5539
3265.00,0.5548
3264.00,0.5558
3263.00,0.5567
3262.00,0.5578
3261.00,0.5589
3260.00,0.5600
3259.00,0.5611
3258.00,0.5621
3257.00,0.5631
3256.00,0.5640
3255.00,0.5650
3254.00,0.5661
3253.00,0.5672
3252.00,0.5682
3251.00,0.5692
3250.00,0.5701
3249.00,0.5710
3248.00,0.5719
3247.00,0.5728
3246.00,0.5737
3245.00,0.5746
3244.00,0.5754
3243.00,0.5762
3242.00,0.5769
3241.00,0.5776
3240.00,0.5784
3239.00,0.5790
3238.00,0.5796
3237.00,0.5800
3236.00,0.5805
3235.00,0.5809
3234.00,0.5813
3233.00,0.5818
3232.00,0.5822
3231.00,0.5825
3230.00,0.5827
3229.00,0.5829
3228.00,0.5830
3227.00,0.5830
3226.00,0.5831
3225.00,0.5832
3224.00,0.5833
3223.00,0.5833
3222.00,0.5832
3221.00,0.5831
3220.00,0.5829
3219.00,0.5828
3218.00,0.5828
3217.00,0.5827
3216.00,0.5826
3215.00,0.5823
3214.00,0.5820
3213.00,0.5817
3212.00,0.5814
3211.00,0.5810
3210.00,0.5806
3209.00,0.5801
3208.00,0.5796
3207.00,0.5791
3206.00,0.5786
3205.00,0.5780
3204.00,0.5774
3203.00,0.5767
3202.00,0.5760
3201.00,0.5753
3200.00,0.5745
3199.00,0.5737
3198.00,0.5728
3197.00,0.5719
3196.00,0.5709
3195.00,0.5698
3194.00,0.5687
3193.00,0.5676
3192.00,0.5666
3191.00,0.5655
3190.00,0.5643
3189.00,0.5631
3188.00,0.5619
3187.00,0.5607
3186.00,0.5594
3185.00,0.5581
3184.00,0.5569
3183.00,0.5556
3182.00,0.5544
3181.00,0.5532
3180.00,0.5520
3179.00,0.5507
3178.00,0.5493
3177.00,0.5480
3176.00,0.5466
3175.00,0.5452
3174.00,0.5438
3173.00,0.5424
3172.00,0.5411
3171.00,0.5397
3170.00,0.5383
3169.00,0.5369
3168.00,0.5355
3167.00,0.5341
3166.00,0.5326
3165.00,0.5312
3164.00,0.5297
3163.00,0.5283
3162.00,0.5269
3161.00,0.5255
3160.00,0.5239
3159.00,0.5224
3158.00,0.5208
3157.00,0.5192
3156.00,0.5176
3155.00,0.5160
3154.00,0.5145
3153.00,0.5130
3152.00,0.5115
3151.00,0.5100
3150.00,0.5085
3149.00,0.5071
3148.00,0.5058
3147.00,0.5045
3146.00,0.5031
3145.00,0.5018
3144.00,0.5005
3143.00,0.4993
3142.00,0.4980
3141.00,0.4969
3140.00,0.4958
3139.00,0.4947
3138.00,0.4937
3137.00,0.4927
3136.00,0.4917
3135.00,0.4907
3134.00,0.4897
3133.00,0.4886
3132.00,0.4876
3131.00,0.4865
3130.00,0.4855
3129.00,0.4847
3128.00,0.4839
3127.00,0.4831
3126.00,0.4823
3125.00,0.4816
3124.00,0.4809
3123.00,0.4803
3122.00,0.4798
3121.00,0.4793
3120.00,0.4789
3119.00,0.4785
3118.00,0.4781
3117.00,0.4778
3116.00,0.4776
3115.00,0.4775
3114.00,0.4776
3113.00,0.4777
3112.00,0.4779
3111.00,0.4781
3110.00,0.4784
3109.00,0.4789
3108.00,0.4794
3107.00,0.4799
3106.00,0.4804
3105.00,0.4809
3104.00,0.4812
3103.00,0.4813
3102.00,0.4815
3101.00,0.4816
3100.00,0.4817
3099.00,0.4819
3098.00,0.4821
3097.00,0.4824
3096.00,0.4829
3095.00,0.4835
3094.00,0.4844
3093.00,0.4854
3092.00,0.4867
3091.00,0.4882
3090.00,0.4900
3089.00,0.4921
3088.00,0.4944
3087.00,0.4969
3086.00,0.4996
3085.00,0.5022
3084.00,0.5047
3083.00,0.5068
3082.00,0.5085
3081.00,0.5098
3080.00,0.5109
3079.00,0.5120
3078.00,0.5131
3077.00,0.5145
3076.00,0.5161
3075.00,0.5179
3074.00,0.5199
3073.00,0.5221
3072.00,0.5245
3071.00,0.5272
3070.00,0.5300
3069.00,0.5331
3068.00,0.5364
3067.00,0.5398
3066.00,0.5435
3065.00,0.5473
3064.00,0.5512
3063.00,0.5548
3062.00,0.5582
3061.00,0.5610
3060.00,0.5632
3059.00,0.5650
3058.00,0.5664
3057.00,0.5675
3056.00,0.5687
3055.00,0.5698
3054.00,0.5711
3053.00,0.5726
3052.00,0.5744
3051.00,0.5764
3050.00,0.5787
3049.00,0.5813
3048.00,0.5841
3047.00,0.5870
3046.00,0.5903
3045.00,0.5937
3044.00,0.5974
3043.00,0.6013
3042.00,0.6053
3041.00,0.6095
3040.00,0.6140
3039.00,0.6187
3038.00,0.6239
3037.00,0.6295
3036.00,0.6358
3035.00,0.6426
3034.00,0.6500
3033.00,0.6580
3032.00,0.6666
3031.00,0.6758
3030.00,0.6853
3029.00,0.6948
3028.00,0.7040
3027.00,0.7124
3026.00,0.7198
3025.00,0.7263
3024.00,0.7318
3023.00,0.7367
3022.00,0.7413
3021.00,0.7460
3020.00,0.7511
3019.00,0.7567
3018.00,0.7631
3017.00,0.7703
3016.00,0.7782
3015.00,0.7869
3014.00,0.7964
3013.00,0.8067
3012.00,0.8177
3011.00,0.8295
3010.00,0.8421
3009.00,0.8555
3008.00,0.8699
3007.00,0.8852
3006.00,0.9014
3005.00,0.9186
3004.00,0.9368
3003.00,0.9559
3002.00,0.9758
3001.00,0.9968
3000.00,1.0188
2999.00,1.0421
2998.00,1.0670
2997.00,1.0936
2996.00,1.1224
2995.00,1.1538
2994.00,1.1880
2993.00,1.2255
2992.00,1.2665
2991.00,1.3119
2990.00,1.3622
2989.00,1.4182
2988.00,1.4801
2987.00,1.5486
2986.00,1.6242
2985.00,1.7079
2984.00,1.8005
2983.00,1.9034
2982.00,2.0174
2981.00,2.1430
2980.00,2.2808
2979.00,2.4333
2978.00,2.6046
2977.00,2.7945
2976.00,2.9914
2975.00,3.1716
2974.00,3.3217
2973.00,3.4482
2972.00,3.5490
2971.00,3.6246
2970.00,3.6936
2969.00,3.7755
2968.00,3.8566
2967.00,3.8945
2966.00,3.8612
2965.00,3.7667
2964.00,3.6629
2963.00,3.5961
2962.00,3.5840
2961.00,3.6252
2960.00,3.7439
2959.00,3.9444
2958.00,4.0304
2957.00,3.9868
2956.00,3.9196
2955.00,3.9034
2954.00,3.8712
2953.00,3.8714
2952.00,4.0977
2951.00,4.3310
2950.00,4.0776
2949.00,3.9008
2948.00,3.8908
2947.00,4.0124
2946.00,4.0622
2945.00,4.1964
2944.00,4.3770
2943.00,4.2191
2942.00,4.0759
2941.00,4.0976
2940.00,4.3542
2939.00,4.6294
2938.00,4.5167
2937.00,4.2481
2936.00,4.0691
2935.00,4.0402
2934.00,4.1111
2933.00,4.3199
2932.00,4.3904
2931.00,4.0746
2930.00,3.8537
2929.00,3.7930
2928.00,3.8654
2927.00,3.9477
2926.00,4.0054
2925.00,4.0579
2924.00,4.0432
2923.00,3.9383
2922.00,3.8379
2921.00,3.8085
2920.00,3.8415
2919.00,3.9058
2918.00,3.9842
2917.00,4.0837
2916.00,4.1983
2915.00,4.3339
2914.00,4.4493
2913.00,4.3834
2912.00,4.1657
2911.00,3.9570
2910.00,3.8457
2909.00,3.8460
2908.00,3.9558
2907.00,4.1901
2906.00,4.5610
2905.00,4.6137
2904.00,4.3632
2903.00,4.1641
2902.00,4.0790
2901.00,3.9961
2900.00,3.9257
2899.00,3.9593
2898.00,4.0735
2897.00,4.1176
2896.00,4.0442
2895.00,3.9481
2894.00,3.9234
2893.00,3.9576
2892.00,4.0143
2891.00,4.0419
2890.00,4.1069
2889.00,4.3297
2888.00,4.3892
2887.00,4.2653
2886.00,4.2132
2885.00,4.3688
2884.00,4.3892
2883.00,4.1551
2882.00,4.0188
2881.00,3.9542
2880.00,4.0081
2879.00,4.2150
2878.00,4.3852
2877.00,4.4443
2876.00,4.4192
2875.00,4.5983
2874.00,5.0481
2873.00,4.7570
2872.00,4.4548
2871.00,4.2617
2870.00,4.2338
2869.00,4.1957
2868.00,4.0977
2867.00,4.0188
2866.00,3.9476
2865.00,3.8748
2864.00,3.8452
2863.00,3.9012
2862.00,4.0200
2861.00,4.1641
2860.00,4.3256
2859.00,4.4930
2858.00,4.4531
2857.00,4.1250
2856.00,3.9476
2855.00,3.9600
2854.00,4.0617
2853.00,3.9985
2852.00,3.8613
2851.00,3.8340
2850.00,3.9214
2849.00,4.0040
2848.00,4.0343
2847.00,4.1511
2846.00,4.2973
2845.00,4.1688
2844.00,3.9924
2843.00,3.9224
2842.00,3.9685
2841.00,4.0020
2840.00,3.8962
2839.00,3.6601
2838.00,3.3861
2837.00,3.1239
2836.00,2.8823
2835.00,2.6697
2834.00,2.4849
2833.00,2.3221
2832.00,2.1775
2831.00,2.0498
2830.00,1.9369
2829.00,1.8369
2828.00,1.7484
2827.00,1.6701
2826.00,1.6007
2825.00,1.5385
2824.00,1.4822
2823.00,1.4309
2822.00,1.3840
2821.00,1.3410
2820.00,1.3011
2819.00,1.2642
2818.00,1.2298
2817.00,1.1977
2816.00,1.1677
2815.00,1.1394
2814.00,1.1128
2813.00,1.0873
2812.00,1.0629
2811.00,1.0396
2810.00,1.0173
2809.00,0.9960
2808.00,0.9755
2807.00,0.9559
2806.00,0.9374
2805.00,0.9197
2804.00,0.9029
2803.00,0.8869
2802.00,0.8717
2801.00,0.8572
2800.00,0.8432
2799.00,0.8299
2798.00,0.8170
2797.00,0.8047
2796.00,0.7928
2795.00,0.7812
2794.00,0.7700
2793.00,0.7592
2792.00,0.7487
2791.00,0.7385
2790.00,0.7285
2789.00,0.7187
2788.00,0.7091
2787.00,0.6995
2786.00,0.6902
2785.00,0.6811
2784.00,0.6722
2783.00,0.6637
2782.00,0.6555
2781.00,0.6475
2780.00,0.6398
2779.00,0.6325
2778.00,0.6256
2777.00,0.6191
2776.00,0.6130
2775.00,0.6072
2774.00,0.6017
2773.00,0.5966
2772.00,0.5918
2771.00,0.5874
2770.00,0.5834
2769.00,0.5798
2768.00,0.5765
2767.00,0.5737
2766.00,0.5712
2765.00,0.5690
2764.00,0.5671
2763.00,0.5654
2762.00,0.5639
2761.00,0.5627
2760.00,0.5616
2759.00,0.5607
2758.00,0.5597
2757.00,0.5587
2756.00,0.5576
2755.00,0.5567
2754.00,0.5559
2753.00,0.5554
2752.00,0.5550
2751.00,0.5547
2750.00,0.5546
2749.00,0.5547
2748.00,0.5550
2747.00,0.5555
2746.00,0.5562
2745.00,0.5570
2744.00,0.5580
2743.00,0.5594
2742.00,0.5610
2741.00,0.5631
2740.00,0.5656
2739.00,0.5684
2738.00,0.5717
2737.00,0.5755
2736.00,0.5796
2735.00,0.5840
2734.00,0.5886
2733.00,0.5933
2732.00,0.5976
2731.00,0.6015
2730.00,0.6045
2729.00,0.6066
2728.00,0.6077
2727.00,0.6080
2726.00,0.6075
2725.00,0.6065
2724.00,0.6052
2723.00,0.6034
2722.00,0.6013
2721.00,0.5987
2720.00,0.5957
2719.00,0.5924
2718.00,0.5887
2717.00,0.5846
2716.00,0.5802
2715.00,0.5756
2714.00,0.5709
2713.00,0.5663
2712.00,0.5621
2711.00,0.5582
2710.00,0.5548
2709.00,0.5517
2708.00,0.5492
2707.00,0.5470
2706.00,0.5451
2705.00,0.5436
2704.00,0.5424
2703.00,0.5414
2702.00,0.5408
2701.00,0.5404
2700.00,0.5402
2699.00,0.5403
2698.00,0.5405
2697.00,0.5410
2696.00,0.5415
2695.00,0.5422
2694.00,0.5430
2693.00,0.5439
2692.00,0.5447
2691.00,0.5457
2690.00,0.5465
2689.00,0.5474
2688.00,0.5481
2687.00,0.5486
2686.00,0.5491
2685.00,0.5494
2684.00,0.5495
2683.00,0.5496
2682.00,0.5496
2681.00,0.5496
2680.00,0.5496
2679.00,0.5496
2678.00,0.5496
2677.00,0.5495
2676.00,0.5495
2675.00,0.5494
2674.00,0.5494
2673.00,0.5493
2672.00,0.5492
2671.00,0.5488
2670.00,0.5481
2669.00,0.5472
2668.00,0.5461
2667.00,0.5447
2666.00,0.5432
2665.00,0.5414
2664.00,0.5394
2663.00,0.5374
2662.00,0.5354
2661.00,0.5334
2660.00,0.5315
2659.00,0.5295
2658.00,0.5275
2657.00,0.5255
2656.00,0.5236
2655.00,0.5219
2654.00,0.5202
2653.00,0.5187
2652.00,0.5173
2651.00,0.5159
2650.00,0.5145
2649.00,0.5131
2648.00,0.5118
2647.00,0.5104
2646.00,0.5091
2645.00,0.5079
2644.00,0.5066
2643.00,0.5055
2642.00,0.5043
2641.00,0.5033
2640.00,0.5023
2639.00,0.5015
2638.00,0.5008
2637.00,0.5001
2636.00,0.4995
2635.00,0.4988
2634.00,0.4980
2633.00,0.4972
2632.00,0.4964
2631.00,0.4956
2630.00,0.4949
2629.00,0.4942
2628.00,0.4934
2627.00,0.4926
2626.00,0.4919
2625.00,0.4911
2624.00,0.4904
2623.00,0.4897
2622.00,0.4891
2621.00,0.4884
2620.00,0.4876
2619.00,0.4867
2618.00,0.4859
2617.00,0.4851
2616.00,0.4842
2615.00,0.4834
2614.00,0.4825
2613.00,0.4815
2612.00,0.4805
2611.00,0.4795
2610.00,0.4784
2609.00,0.4773
2608.00,0.4762
2607.00,0.4750
2606.00,0.4739
2605.00,0.4728
2604.00,0.4717
2603.00,0.4707
2602.00,0.4696
2601.00,0.4685
2600.00,0.4674
2599.00,0.4662
2598.00,0.4650
2597.00,0.4636
2596.00,0.4622
2595.00,0.4607
2594.00,0.4592
2593.00,0.4576
2592.00,0.4560
2591.00,0.4543
2590.00,0.4525
2589.00,0.4508
2588.00,0.4491
2587.00,0.4473
2586.00,0.4456
2585.00,0.4438
2584.00,0.4420
2583.00,0.4402
2582.00,0.4382
2581.00,0.4362
2580.00,0.4342
2579.00,0.4322
2578.00,0.4302
2577.00,0.4283
2576.00,0.4264
2575.00,0.4245
2574.00,0.4227
2573.00,0.4209
2572.00,0.4192
2571.00,0.4174
2570.00,0.4157
2569.00,0.4140
2568.00,0.4125
2567.00,0.4110
2566.00,0.4096
2565.00,0.4081
2564.00,0.4067
2563.00,0.4053
2562.00,0.4039
2561.00,0.4026
2560.00,0.4013
2559.00,0.4001
2558.00,0.3989
2557.00,0.3978
2556.00,0.3967
2555.00,0.3955
2554.00,0.3945
2553.00,0.3934
2552.00,0.3924
2551.00,0.3914
2550.00,0.3905
2549.00,0.3896
2548.00,0.3888
2547.00,0.3879
2546.00,0.3871
2545.00,0.3862
2544.00,0.3853
2543.00,0.3844
2542.00,0.3836
2541.00,0.3828
2540.00,0.3820
2539.00,0.3813
2538.00,0.3805
2537.00,0.3798
2536.00,0.3791
2535.00,0.3784
2534.00,0.3777
2533.00,0.3771
2532.00,0.3764
2531.00,0.3757
2530.00,0.3750
2529.00,0.3743
2528.00,0.3735
2527.00,0.3727
2526.00,0.3719
2525.00,0.3711
2524.00,0.3704
2523.00,0.3696
2522.00,0.3688
2521.00,0.3680
2520.00,0.3673
2519.00,0.3665
2518.00,0.3657
2517.00,0.3649
2516.00,0.3642
2515.00,0.3634
2514.00,0.3626
2513.00,0.3619
2512.00,0.3611
2511.00,0.3604
2510.00,0.3596
2509.00,0.3588
2508.00,0.3580
2507.00,0.3571
2506.00,0.3563
2505.00,0.3555
2504.00,0.3547
2503.00,0.3539
2502.00,0.3532
2501.00,0.3525
2500.00,0.3519
2499.00,0.3513
2498.00,0.3507
2497.00,0.3501
2496.00,0.3496
2495.00,0.3490
2494.00,0.3486
2493.00,0.3482
2492.00,0.3477
2491.00,0.3473
2490.00,0.3470
2489.00,0.3466
2488.00,0.3463
2487.00,0.3460
2486.00,0.3456
2485.00,0.3453
2484.00,0.3451
2483.00,0.3448
2482.00,0.3446
2481.00,0.3444
2480.00,0.3441
2479.00,0.3439
2478.00,0.3437
2477.00,0.3434
2476.00,0.3431
2475.00,0.3428
2474.00,0.3425
2473.00,0.3423
2472.00,0.3421
2471.00,0.3418
2470.00,0.3415
2469.00,0.3413
2468.00,0.3410
2467.00,0.3407
2466.00,0.3404
2465.00,0.3402
2464.00,0.3399
2463.00,0.3397
2462.00,0.3394
2461.00,0.3392
2460.00,0.3390
2459.00,0.3387
2458.00,0.3385
2457.00,0.3383
2456.00,0.3381
2455.00,0.3379
2454.00,0.3378
2453.00,0.3378
2452.00,0.3377
2451.00,0.3377
2450.00,0.3376
2449.00,0.3376
2448.00,0.3376
2447.00,0.3376
2446.00,0.3377
2445.00,0.3378
2444.00,0.3379
2443.00,0.3381
2442.00,0.3382
2441.00,0.3384
2440.00,0.3385
2439.00,0.3386
2438.00,0.3388
2437.00,0.3389
2436.00,0.3390
2435.00,0.3391
2434.00,0.3392
2433.00,0.3393
2432.00,0.3395
2431.00,0.3396
2430.00,0.3398
2429.00,0.3399
2428.00,0.3400
2427.00,0.3400
2426.00,0.3401
2425.00,0.3402
2424.00,0.3403
2423.00,0.3404
2422.00,0.3405
2421.00,0.3406
2420.00,0.3407
2419.00,0.3407
2418.00,0.3408
2417.00,0.3409
2416.00,0.3410
2415.00,0.3411
2414.00,0.3412
2413.00,0.3413
2412.00,0.3414
2411.00,0.3415
2410.00,0.3416
2409.00,0.3417
2408.00,0.3417
2407.00,0.3418
2406.00,0.3418
2405.00,0.3418
2404.00,0.3419
2403.00,0.3419
2402.00,0.3419
2401.00,0.3419
2400.00,0.3418
2399.00,0.3417
2398.00,0.3416
2397.00,0.3415
2396.00,0.3413
2395.00,0.3412
2394.00,0.3410
2393.00,0.3409
2392.00,0.3408
2391.00,0.3406
2390.00,0.3405
2389.00,0.3404
2388.00,0.3404
2387.00,0.3404
2386.00,0.3405
2385.00,0.3406
2384.00,0.3407
2383.00,0.3410
2382.00,0.3413
2381.00,0.3416
2380.00,0.3419
2379.00,0.3422
2378.00,0.3423
2377.00,0.3424
2376.00,0.3424
2375.00,0.3424
2374.00,0.3423
2373.00,0.3423
2372.00,0.3422
2371.00,0.3422
2370.00,0.3423
2369.00,0.3423
2368.00,0.3425
2367.00,0.3426
2366.00,0.3428
2365.00,0.3430
2364.00,0.3432
2363.00,0.3433
2362.00,0.3434
2361.00,0.3434
2360.00,0.3435
2359.00,0.3435
2358.00,0.3436
2357.00,0.3437
2356.00,0.3437
2355.00,0.3437
2354.00,0.3436
2353.00,0.3436
2352.00,0.3437
2351.00,0.3438
2350.00,0.3437
2349.00,0.3437
2348.00,0.3437
2347.00,0.3439
2346.00,0.3440
2345.00,0.3440
2344.00,0.3439
2343.00,0.3437
2342.00,0.3435
2341.00,0.3435
2340.00,0.3435
2339.00,0.3436
2338.00,0.3436
2337.00,0.3437
2336.00,0.3437
2335.00,0.3436
2334.00,0.3436
2333.00,0.3435
2332.00,0.3433
2331.00,0.3430
2330.00,0.3426
2329.00,0.3423
2328.00,0.3421
2327.00,0.3419
2326.00,0.3418
2325.00,0.3417
2324.00,0.3415
2323.00,0.3413
2322.00,0.3410
2321.00,0.3406
2320.00,0.3403
2319.00,0.3400
2318.00,0.3397
2317.00,0.3395
2316.00,0.3393
2315.00,0.3391
2314.00,0.3389
2313.00,0.3387
2312.00,0.3385
2311.00,0.3383
2310.00,0.3379
2309.00,0.3375
2308.00,0.3371
2307.00,0.3366
2306.00,0.3360
2305.00,0.3354
2304.00,0.3349
2303.00,0.3344
2302.00,0.3339
2301.00,0.3335
2300.00,0.3332
2299.00,0.3328
2298.00,0.3325
2297.00,0.3322
2296.00,0.3318
2295.00,0.3315
2294.00,0.3312
2293.00,0.3308
2292.00,0.3305
2291.00,0.3302
2290.00,0.3298
2289.00,0.3295
2288.00,0.3292
2287.00,0.3289
2286.00,0.3285
2285.00,0.3282
2284.00,0.3279
2283.00,0.3276
2282.00,0.3272
2281.00,0.3269
2280.00,0.3266
2279.00,0.3263
2278.00,0.3260
2277.00,0.3257
2276.00,0.3254
2275.00,0.3251
2274.00,0.3249
2273.00,0.3246
2272.00,0.3244
2271.00,0.3242
2270.00,0.3240
2269.00,0.3238
2268.00,0.3237
2267.00,0.3235
2266.00,0.3233
2265.00,0.3232
2264.00,0.3230
2263.00,0.3227
2262.00,0.3225
2261.00,0.3223
2260.00,0.3221
2259.00,0.3218
2258.00,0.3216
2257.00,0.3213
2256.00,0.3211
2255.00,0.3208
2254.00,0.3205
2253.00,0.3202
2252.00,0.3200
2251.00,0.3197
2250.00,0.3194
2249.00,0.3191
2248.00,0.3189
2247.00,0.3186
2246.00,0.3183
2245.00,0.3181
2244.00,0.3179
2243.00,0.3178
2242.00,0.3176
2241.00,0.3175
2240.00,0.3173
2239.00,0.3172
2238.00,0.3170
2237.00,0.3170
2236.00,0.3169
2235.00,0.3168
2234.00,0.3167
2233.00,0.3166
2232.00,0.3165
2231.00,0.3164
2230.00,0.3163
2229.00,0.3162
2228.00,0.3161
2227.00,0.3160
2226.00,0.3159
2225.00,0.3158
2224.00,0.3157
2223.00,0.3156
2222.00,0.3155
2221.00,0.3153
2220.00,0.3152
2219.00,0.3151
2218.00,0.3150
2217.00,0.3149
2216.00,0.3148
2215.00,0.3147
2214.00,0.3146
2213.00,0.3145
2212.00,0.3144
2211.00,0.3143
2210.00,0.3142
2209.00,0.3141
2208.00,0.3141
2207.00,0.3141
2206.00,0.3141
2205.00,0.3141
2204.00,0.3142
2203.00,0.3142
2202.00,0.3142
2201.00,0.3142
2200.00,0.3142
2199.00,0.3143
2198.00,0.3143
2197.00,0.3144
2196.00,0.3145
2195.00,0.3146
2194.00,0.3147
2193.00,0.3148
2192.00,0.3150
2191.00,0.3151
2190.00,0.3152
2189.00,0.3152
2188.00,0.3153
2187.00,0.3153
2186.00,0.3153
2185.00,0.3152
2184.00,0.3152
2183.00,0.3151
2182.00,0.3150
2181.00,0.3149
2180.00,0.3148
2179.00,0.3146
2178.00,0.3144
2177.00,0.3142
2176.00,0.3141
2175.00,0.3139
2174.00,0.3137
2173.00,0.3136
2172.00,0.3135
2171.00,0.3134
2170.00,0.3133
2169.00,0.3132
2168.00,0.3131
2167.00,0.3130
2166.00,0.3129
2165.00,0.3128
2164.00,0.3127
2163.00,0.3126
2162.00,0.3125
2161.00,0.3124
2160.00,0.3124
2159.00,0.3123
2158.00,0.3122
2157.00,0.3121
2156.00,0.3120
2155.00,0.3118
2154.00,0.3117
2153.00,0.3115
2152.00,0.3113
2151.00,0.3112
2150.00,0.3109
2149.00,0.3106
2148.00,0.3103
2147.00,0.3098
2146.00,0.3093
2145.00,0.3089
2144.00,0.3084
2143.00,0.3079
2142.00,0.3075
2141.00,0.3070
2140.00,0.3065
2139.00,0.3061
2138.00,0.3057
2137.00,0.3054
2136.00,0.3050
2135.00,0.3047
2134.00,0.3044
2133.00,0.3041
2132.00,0.3039
2131.00,0.3036
2130.00,0.3035
2129.00,0.3033
2128.00,0.3032
2127.00,0.3031
2126.00,0.3029
2125.00,0.3028
2124.00,0.3027
2123.00,0.3027
2122.00,0.3026
2121.00,0.3026
2120.00,0.3025
2119.00,0.3025
2118.00,0.3024
2117.00,0.3023
2116.00,0.3023
2115.00,0.3022
2114.00,0.3022
2113.00,0.3022
2112.00,0.3021
2111.00,0.3020
2110.00,0.3019
2109.00,0.3018
2108.00,0.3017
2107.00,0.3016
2106.00,0.3016
2105.00,0.3015
2104.00,0.3014
2103.00,0.3013
2102.00,0.3012
2101.00,0.3011
2100.00,0.3010
2099.00,0.3009
2098.00,0.3009
2097.00,0.3008
2096.00,0.3007
2095.00,0.3007
2094.00,0.3006
2093.00,0.3005
2092.00,0.3004
2091.00,0.3003
2090.00,0.3002
2089.00,0.3002
2088.00,0.3002
2087.00,0.3002
2086.00,0.3002
2085.00,0.3002
2084.00,0.3002
2083.00,0.3002
2082.00,0.3002
2081.00,0.3002
2080.00,0.3003
2079.00,0.3002
2078.00,0.3002
2077.00,0.3003
2076.00,0.3004
2075.00,0.3005
2074.00,0.3006
2073.00,0.3007
2072.00,0.3008
2071.00,0.3008
2070.00,0.3009
2069.00,0.3010
2068.00,0.3012
2067.00,0.3013
2066.00,0.3014
2065.00,0.3015
2064.00,0.3016
2063.00,0.3016
2062.00,0.3017
2061.00,0.3019
2060.00,0.3020
2059.00,0.3021
2058.00,0.3022
2057.00,0.3023
2056.00,0.3025
2055.00,0.3026
2054.00,0.3028
2053.00,0.3029
2052.00,0.3031
2051.00,0.3033
2050.00,0.3035
2049.00,0.3038
2048.00,0.3041
2047.00,0.3043
2046.00,0.3045
2045.00,0.3047
2044.00,0.3049
2043.00,0.3052
2042.00,0.3054
2041.00,0.3055
2040.00,0.3057
2039.00,0.3058
2038.00,0.3059
2037.00,0.3060
2036.00,0.3061
2035.00,0.3061
2034.00,0.3061
2033.00,0.3062
2032.00,0.3063
2031.00,0.3063
2030.00,0.3063
2029.00,0.3062
2028.00,0.3061
2027.00,0.3060
2026.00,0.3058
2025.00,0.3057
2024.00,0.3055
2023.00,0.3053
2022.00,0.3050
2021.00,0.3047
2020.00,0.3042
2019.00,0.3037
2018.00,0.3031
2017.00,0.3025
2016.00,0.3018
2015.00,0.3011
2014.00,0.3004
2013.00,0.2998
2012.00,0.2992
2011.00,0.2987
2010.00,0.2981
2009.00,0.2977
2008.00,0.2974
2007.00,0.2970
2006.00,0.2967
2005.00,0.2963
2004.00,0.2960
2003.00,0.2957
2002.00,0.2955
2001.00,0.2953
2000.00,0.2952
1999.00,0.2950
1998.00,0.2949
1997.00,0.2948
1996.00,0.2947
1995.00,0.2946
1994.00,0.2944
1993.00,0.2943
1992.00,0.2942
1991.00,0.2941
1990.00,0.2941
1989.00,0.2941
1988.00,0.2941
1987.00,0.2941
1986.00,0.2940
1985.00,0.2939
1984.00,0.2939
1983.00,0.2938
1982.00,0.2937
1981.00,0.2937
1980.00,0.2936
1979.00,0.2936
1978.00,0.2935
1977.00,0.2935
1976.00,0.2935
1975.00,0.2935
1974.00,0.2935
1973.00,0.2935
1972.00,0.2936
1971.00,0.2936
1970.00,0.2936
1969.00,0.2936
1968.00,0.2936
1967.00,0.2937
1966.00,0.2938
1965.00,0.2939
1964.00,0.2941
1963.00,0.2943
1962.00,0.2944
1961.00,0.2946
1960.00,0.2948
1959.00,0.2950
1958.00,0.2951
1957.00,0.2954
1956.00,0.2956
1955.00,0.2958
1954.00,0.2960
1953.00,0.2961
1952.00,0.2963
1951.00,0.2965
1950.00,0.2966
1949.00,0.2968
1948.00,0.2970
1947.00,0.2972
1946.00,0.2974
1945.00,0.2976
1944.00,0.2978
1943.00,0.2980
1942.00,0.2981
1941.00,0.2983
1940.00,0.2984
1939.00,0.2984
1938.00,0.2983
1937.00,0.2981
1936.00,0.2978
1935.00,0.2975
1934.00,0.2971
1933.00,0.2968
1932.00,0.2966
1931.00,0.2964
1930.00,0.2962
1929.00,0.2961
1928.00,0.2961
1927.00,0.2960
1926.00,0.2960
1925.00,0.2960
1924.00,0.2961
1923.00,0.2962
1922.00,0.2963
1921.00,0.2965
1920.00,0.2968
1919.00,0.2971
1918.00,0.2974
1917.00,0.2976
1916.00,0.2978
1915.00,0.2980
1914.00,0.2982
1913.00,0.2984
1912.00,0.2985
1911.00,0.2986
1910.00,0.2986
1909.00,0.2986
1908.00,0.2986
1907.00,0.2987
1906.00,0.2988
1905.00,0.2989
1904.00,0.2989
1903.00,0.2990
1902.00,0.2990
1901.00,0.2990
1900.00,0.2991
1899.00,0.2991
1898.00,0.2991
1897.00,0.2991
1896.00,0.2992
1895.00,0.2992
1894.00,0.2993
1893.00,0.2994
1892.00,0.2994
1891.00,0.2995
1890.00,0.2995
1889.00,0.2995
1888.00,0.2996
1887.00,0.2997
1886.00,0.2998
1885.00,0.2999
1884.00,0.2999
1883.00,0.2999
1882.00,0.2999
1881.00,0.2999
1880.00,0.3000
1879.00,0.3000
1878.00,0.3000
1877.00,0.3000
1876.00,0.3000
1875.00,0.3000
1874.00,0.3000
1873.00,0.3000
1872.00,0.3000
1871.00,0.3000
1870.00,0.3001
1869.00,0.3000
1868.00,0.2999
1867.00,0.2998
1866.00,0.2996
1865.00,0.2996
1864.00,0.2995
1863.00,0.2993
1862.00,0.2991
1861.00,0.2988
1860.00,0.2985
1859.00,0.2982
1858.00,0.2978
1857.00,0.2975
1856.00,0.2972
1855.00,0.2969
1854.00,0.2966
1853.00,0.2964
1852.00,0.2962
1851.00,0.2960
1850.00,0.2958
1849.00,0.2956
1848.00,0.2953
1847.00,0.2950
1846.00,0.2947
1845.00,0.2946
1844.00,0.2945
1843.00,0.2944
1842.00,0.2943
1841.00,0.2944
1840.00,0.2945
1839.00,0.2945
1838.00,0.2945
1837.00,0.2945
1836.00,0.2945
1835.00,0.2946
1834.00,0.2946
1833.00,0.2946
1832.00,0.2947
1831.00,0.2948
1830.00,0.2948
1829.00,0.2948
1828.00,0.2948
1827.00,0.2948
1826.00,0.2949
1825.00,0.2951
1824.00,0.2952
1823.00,0.2952
1822.00,0.2953
1821.00,0.2955
1820.00,0.2957
1819.00,0.2957
1818.00,0.2957
1817.00,0.2958
1816.00,0.2959
1815.00,0.2960
1814.00,0.2961
1813.00,0.2962
1812.00,0.2962
1811.00,0.2963
1810.00,0.2963
1809.00,0.2964
1808.00,0.2965
1807.00,0.2966
1806.00,0.2968
1805.00,0.2969
1804.00,0.2970
1803.00,0.2971
1802.00,0.2972
1801.00,0.2974
1800.00,0.2976
1799.00,0.2978
1798.00,0.2979
1797.00,0.2980
1796.00,0.2980
1795.00,0.2980
1794.00,0.2980
1793.00,0.2979
1792.00,0.2979
1791.00,0.2978
1790.00,0.2978
1789.00,0.2980
1788.00,0.2982
1787.00,0.2983
1786.00,0.2984
1785.00,0.2985
1784.00,0.2986
1783.00,0.2987
1782.00,0.2988
1781.00,0.2990
1780.00,0.2992
1779.00,0.2993
1778.00,0.2994
1777.00,0.2997
1776.00,0.2998
1775.00,0.2999
1774.00,0.2999
1773.00,0.2999
1772.00,0.2998
1771.00,0.2996
1770.00,0.2996
1769.00,0.2998
1768.00,0.3002
1767.00,0.3004
1766.00,0.3006
1765.00,0.3009
1764.00,0.3013
1763.00,0.3017
1762.00,0.3020
1761.00,0.3024
1760.00,0.3028
1759.00,0.3033
1758.00,0.3040
1757.00,0.3049
1756.00,0.3057
1755.00,0.3064
1754.00,0.3072
1753.00,0.3082
1752.00,0.3092
1751.00,0.3101
1750.00,0.3110
1749.00,0.3121
1748.00,0.3134
1747.00,0.3147
1746.00,0.3162
1745.00,0.3180
1744.00,0.3201
1743.00,0.3224
1742.00,0.3249
1741.00,0.3280
1740.00,0.3314
1739.00,0.3346
1738.00,0.3371
1737.00,0.3390
1736.00,0.3405
1735.00,0.3414
1734.00,0.3412
1733.00,0.3402
1732.00,0.3391
1731.00,0.3383
1730.00,0.3376
1729.00,0.3373
1728.00,0.3375
1727.00,0.3382
1726.00,0.3395
1725.00,0.3409
1724.00,0.3419
1723.00,0.3418
1722.00,0.3406
1721.00,0.3388
1720.00,0.3368
1719.00,0.3345
1718.00,0.3322
1717.00,0.3303
1716.00,0.3293
1715.00,0.3291
1714.00,0.3291
1713.00,0.3293
1712.00,0.3294
1711.00,0.3294
1710.00,0.3292
1709.00,0.3291
1708.00,0.3289
1707.00,0.3287
1706.00,0.3284
1705.00,0.3281
1704.00,0.3277
1703.00,0.3272
1702.00,0.3271
1701.00,0.3271
1700.00,0.3268
1699.00,0.3261
1698.00,0.3255
1697.00,0.3253
1696.00,0.3250
1695.00,0.3245
1694.00,0.3241
1693.00,0.3243
1692.00,0.3247
1691.00,0.3252
1690.00,0.3255
1689.00,0.3258
1688.00,0.3261
1687.00,0.3263
1686.00,0.3264
1685.00,0.3267
1684.00,0.3271
1683.00,0.3274
1682.00,0.3279
1681.00,0.3287
1680.00,0.3296
1679.00,0.3302
1678.00,0.3306
1677.00,0.3312
1676.00,0.3321
1675.00,0.3328
1674.00,0.3331
1673.00,0.3336
1672.00,0.3342
1671.00,0.3347
1670.00,0.3350
1669.00,0.3354
1668.00,0.3358
1667.00,0.3362
1666.00,0.3366
1665.00,0.3371
1664.00,0.3377
1663.00,0.3379
1662.00,0.3379
1661.00,0.3381
1660.00,0.3385
1659.00,0.3389
1658.00,0.3392
1657.00,0.3396
1656.00,0.3399
1655.00,0.3402
1654.00,0.3406
1653.00,0.3410
1652.00,0.3412
1651.00,0.3417
1650.00,0.3425
1649.00,0.3436
1648.00,0.3447
1647.00,0.3455
1646.00,0.3462
1645.00,0.3472
1644.00,0.3486
1643.00,0.3500
1642.00,0.3515
1641.00,0.3531
1640.00,0.3548
1639.00,0.3563
1638.00,0.3578
1637.00,0.3597
1636.00,0.3622
1635.00,0.3646
1634.00,0.3667
1633.00,0.3688
1632.00,0.3711
1631.00,0.3732
1630.00,0.3752
1629.00,0.3775
1628.00,0.3800
1627.00,0.3821
1626.00,0.3842
1625.00,0.3867
1624.00,0.3898
1623.00,0.3931
1622.00,0.3965
1621.00,0.4002
1620.00,0.4043
1619.00,0.4088
1618.00,0.4140
1617.00,0.4209
1616.00,0.4290
1615.00,0.4368
1614.00,0.4443
1613.00,0.4526
1612.00,0.4621
1611.00,0.4728
1610.00,0.4844
1609.00,0.4977
1608.00,0.5127
1607.00,0.5289
1606.00,0.5461
1605.00,0.5653
1604.00,0.5873
1603.00,0.6117
1602.00,0.6385
1601.00,0.6693
1600.00,0.7052
1599.00,0.7469
1598.00,0.7959
1597.00,0.8565
1596.00,0.9332
1595.00,1.0282
1594.00,1.1425
1593.00,1.2812
1592.00,1.4533
1591.00,1.6618
1590.00,1.9009
1589.00,2.1805
1588.00,2.5543
1587.00,3.0762
1586.00,3.3613
1585.00,3.3839
1584.00,3.6778
1583.00,3.7236
1582.00,3.2046
1581.00,2.8598
1580.00,2.7143
1579.00,2.5239
1578.00,2.2479
1577.00,2.0009
1576.00,1.8091
1575.00,1.6628
1574.00,1.5540
1573.00,1.4768
1572.00,1.4155
1571.00,1.3488
1570.00,1.2681
1569.00,1.1886
1568.00,1.1233
1567.00,1.0683
1566.00,1.0175
1565.00,0.9726
1564.00,0.9370
1563.00,0.9099
1562.00,0.8871
1561.00,0.8634
1560.00,0.8297
1559.00,0.7799
1558.00,0.7314
1557.00,0.6996
1556.00,0.6783
1555.00,0.6586
1554.00,0.6387
1553.00,0.6209
1552.00,0.6066
1551.00,0.5939
1550.00,0.5809
1549.00,0.5684
1548.00,0.5579
1547.00,0.5490
1546.00,0.5405
1545.00,0.5323
1544.00,0.5251
1543.00,0.5191
1542.00,0.5130
1541.00,0.5059
1540.00,0.4977
1539.00,0.4895
1538.00,0.4828
1537.00,0.4782
1536.00,0.4746
1535.00,0.4706
1534.00,0.4655
1533.00,0.4603
1532.00,0.4564
1531.00,0.4537
1530.00,0.4515
1529.00,0.4497
1528.00,0.4483
1527.00,0.4470
1526.00,0.4459
1525.00,0.4453
1524.00,0.4455
1523.00,0.4459
1522.00,0.4464
1521.00,0.4475
1520.00,0.4493
1519.00,0.4513
1518.00,0.4537
1517.00,0.4569
1516.00,0.4605
1515.00,0.4636
1514.00,0.4663
1513.00,0.4693
1512.00,0.4727
1511.00,0.4760
1510.00,0.4793
1509.00,0.4832
1508.00,0.4884
1507.00,0.4954
1506.00,0.5034
1505.00,0.5112
1504.00,0.5181
1503.00,0.5243
1502.00,0.5306
1501.00,0.5379
1500.00,0.5466
1499.00,0.5566
1498.00,0.5694
1497.00,0.5874
1496.00,0.6096
1495.00,0.6317
1494.00,0.6501
1493.00,0.6651
1492.00,0.6775
1491.00,0.6886
1490.00,0.7013
1489.00,0.7183
1488.00,0.7398
1487.00,0.7647
1486.00,0.7928
1485.00,0.8248
1484.00,0.8605
1483.00,0.9005
1482.00,0.9468
1481.00,1.0008
1480.00,1.0606
1479.00,1.1253
1478.00,1.1999
1477.00,1.2922
1476.00,1.4031
1475.00,1.5290
1474.00,1.6760
1473.00,1.8655
1472.00,2.1100
1471.00,2.3888
1470.00,2.6806
1469.00,3.0063
1468.00,3.3645
1467.00,3.5927
1466.00,3.7822
1465.00,4.1067
1464.00,4.2594
1463.00,4.0652
1462.00,4.1421
1461.00,4.2333
1460.00,3.7129
1459.00,3.6505
1458.00,3.6699
1457.00,3.7556
1456.00,3.9526
1455.00,3.7018
1454.00,3.4685
1453.00,3.3605
1452.00,3.2087
1451.00,3.0212
1450.00,2.9036
1449.00,2.8399
1448.00,2.7560
1447.00,2.6439
1446.00,2.5534
1445.00,2.4883
1444.00,2.4193
1443.00,2.3418
1442.00,2.2767
1441.00,2.2297
1440.00,2.1862
1439.00,2.1374
1438.00,2.0866
1437.00,2.0314
1436.00,1.9632
1435.00,1.8873
1434.00,1.8133
1433.00,1.7378
1432.00,1.6532
1431.00,1.5615
1430.00,1.4726
1429.00,1.3935
1428.00,1.3272
1427.00,1.2737
1426.00,1.2311
1425.00,1.1962
1424.00,1.1675
1423.00,1.1447
1422.00,1.1259
1421.00,1.1066
1420.00,1.0823
1419.00,1.0531
1418.00,1.0244
1417.00,0.9997
1416.00,0.9778
1415.00,0.9565
1414.00,0.9346
1413.00,0.9112
1412.00,0.8860
1411.00,0.8598
1410.00,0.8341
1409.00,0.8099
1408.00,0.7882
1407.00,0.7693
1406.00,0.7525
1405.00,0.7364
1404.00,0.7200
1403.00,0.7034
1402.00,0.6868
1401.00,0.6698
1400.00,0.6531
1399.00,0.6387
1398.00,0.6284
1397.00,0.6221
1396.00,0.6197
1395.00,0.6216
1394.00,0.6280
1393.00,0.6390
1392.00,0.6553
1391.00,0.6789
1390.00,0.7116
1389.00,0.7568
1388.00,0.8197
1387.00,0.9025
1386.00,1.0007
1385.00,1.1072
1384.00,1.2210
1383.00,1.3472
1382.00,1.4903
1381.00,1.6531
1380.00,1.8375
1379.00,2.0329
1378.00,2.1917
1377.00,2.2432
1376.00,2.1692
1375.00,2.0099
1374.00,1.8227
1373.00,1.6553
1372.00,1.5254
1371.00,1.4300
1370.00,1.3623
1369.00,1.3176
1368.00,1.2902
1367.00,1.2693
1366.00,1.2412
1365.00,1.1969
1364.00,1.1375
1363.00,1.0729
1362.00,1.0148
1361.00,0.9698
1360.00,0.9374
1359.00,0.9142
1358.00,0.8968
1357.00,0.8833
1356.00,0.8731
1355.00,0.8657
1354.00,0.8608
1353.00,0.8578
1352.00,0.8562
1351.00,0.8555
1350.00,0.8547
1349.00,0.8534
1348.00,0.8512
1347.00,0.8481
1346.00,0.8443
1345.00,0.8398
1344.00,0.8349
1343.00,0.8296
1342.00,0.8236
1341.00,0.8162
1340.00,0.8073
1339.00,0.7977
1338.00,0.7881
1337.00,0.7788
1336.00,0.7689
1335.00,0.7573
1334.00,0.7434
1333.00,0.7274
1332.00,0.7106
1331.00,0.6945
1330.00,0.6803
1329.00,0.6685
1328.00,0.6594
1327.00,0.6535
1326.00,0.6510
1325.00,0.6521
1324.00,0.6570
1323.00,0.6650
1322.00,0.6745
1321.00,0.6831
1320.00,0.6886
1319.00,0.6899
1318.00,0.6878
1317.00,0.6839
1316.00,0.6804
1315.00,0.6787
1314.00,0.6794
1313.00,0.6822
1312.00,0.6867
1311.00,0.6922
1310.00,0.6987
1309.00,0.7062
1308.00,0.7148
1307.00,0.7245
1306.00,0.7343
1305.00,0.7425
1304.00,0.7470
1303.00,0.7466
1302.00,0.7415
1301.00,0.7330
1300.00,0.7228
1299.00,0.7124
1298.00,0.7023
1297.00,0.6924
1296.00,0.6828
1295.00,0.6740
1294.00,0.6660
1293.00,0.6587
1292.00,0.6519
1291.00,0.6455
1290.00,0.6396
1289.00,0.6340
1288.00,0.6292
1287.00,0.6255
1286.00,0.6233
1285.00,0.6222
1284.00,0.6218
1283.00,0.6212
1282.00,0.6196
1281.00,0.6166
1280.00,0.6128
1279.00,0.6088
1278.00,0.6052
1277.00,0.6024
1276.00,0.6002
1275.00,0.5988
1274.00,0.5980
1273.00,0.5979
1272.00,0.5985
1271.00,0.6000
1270.00,0.6023
1269.00,0.6048
1268.00,0.6065
1267.00,0.6055
1266.00,0.6009
1265.00,0.5929
1264.00,0.5834
1263.00,0.5744
1262.00,0.5673
1261.00,0.5621
1260.00,0.5586
1259.00,0.5562
1258.00,0.5545
1257.00,0.5529
1256.00,0.5513
1255.00,0.5495
1254.00,0.5478
1253.00,0.5464
1252.00,0.5458
1251.00,0.5462
1250.00,0.5472
1249.00,0.5482
1248.00,0.5485
1247.00,0.5478
1246.00,0.5460
1245.00,0.5431
1244.00,0.5394
1243.00,0.5353
1242.00,0.5315
1241.00,0.5281
1240.00,0.5257
1239.00,0.5243
1238.00,0.5243
1237.00,0.5256
1236.00,0.5281
1235.00,0.5318
1234.00,0.5362
1233.00,0.5407
1232.00,0.5448
1231.00,0.5488
1230.00,0.5530
1229.00,0.5575
1228.00,0.5617
1227.00,0.5645
1226.00,0.5643
1225.00,0.5602
1224.00,0.5529
1223.00,0.5444
1222.00,0.5369
1221.00,0.5313
1220.00,0.5281
1219.00,0.5272
1218.00,0.5282
1217.00,0.5309
1216.00,0.5349
1215.00,0.5398
1214.00,0.5446
1213.00,0.5477
1212.00,0.5485
1211.00,0.5469
1210.00,0.5438
1209.00,0.5401
1208.00,0.5362
1207.00,0.5323
1206.00,0.5283
1205.00,0.5242
1204.00,0.5199
1203.00,0.5156
1202.00,0.5110
1201.00,0.5064
1200.00,0.5019
1199.00,0.4982
1198.00,0.4955
1197.00,0.4938
1196.00,0.4929
1195.00,0.4927
1194.00,0.4930
1193.00,0.4935
1192.00,0.4940
1191.00,0.4943
1190.00,0.4942
1189.00,0.4935
1188.00,0.4924
1187.00,0.4909
1186.00,0.4895
1185.00,0.4886
1184.00,0.4883
1183.00,0.4887
1182.00,0.4896
1181.00,0.4905
1180.00,0.4912
1179.00,0.4917
1178.00,0.4922
1177.00,0.4927
1176.00,0.4933
1175.00,0.4945
1174.00,0.4965
1173.00,0.4991
1172.00,0.5020
1171.00,0.5046
1170.00,0.5062
1169.00,0.5061
1168.00,0.5047
1167.00,0.5027
1166.00,0.5009
1165.00,0.4999
1164.00,0.5000
1163.00,0.5011
1162.00,0.5032
1161.00,0.5060
1160.00,0.5090
1159.00,0.5121
1158.00,0.5150
1157.00,0.5174
1156.00,0.5191
1155.00,0.5201
1154.00,0.5204
1153.00,0.5200
1152.00,0.5192
1151.00,0.5183
1150.00,0.5172
1149.00,0.5160
1148.00,0.5147
1147.00,0.5136
1146.00,0.5128
1145.00,0.5124
1144.00,0.5125
1143.00,0.5133
1142.00,0.5148
1141.00,0.5171
1140.00,0.5201
1139.00,0.5238
1138.00,0.5284
1137.00,0.5338
1136.00,0.5397
1135.00,0.5455
1134.00,0.5497
1133.00,0.5507
1132.00,0.5479
1131.00,0.5421
1130.00,0.5349
1129.00,0.5277
1128.00,0.5218
1127.00,0.5176
1126.00,0.5151
1125.00,0.5140
1124.00,0.5134
1123.00,0.5131
1122.00,0.5127
1121.00,0.5120
1120.00,0.5109
1119.00,0.5091
1118.00,0.5058
1117.00,0.5005
1116.00,0.4933
1115.00,0.4850
1114.00,0.4765
1113.00,0.4686
1112.00,0.4618
1111.00,0.4564
1110.00,0.4525
1109.00,0.4500
1108.00,0.4487
1107.00,0.4486
1106.00,0.4495
1105.00,0.4512
1104.00,0.4532
1103.00,0.4551
1102.00,0.4566
1101.00,0.4572
1100.00,0.4570
1099.00,0.4562
1098.00,0.4551
1097.00,0.4541
1096.00,0.4533
1095.00,0.4527
1094.00,0.4525
1093.00,0.4526
1092.00,0.4530
1091.00,0.4540
1090.00,0.4555
1089.00,0.4576
1088.00,0.4607
1087.00,0.4648
1086.00,0.4699
1085.00,0.4758
1084.00,0.4824
1083.00,0.4897
1082.00,0.4973
1081.00,0.5045
1080.00,0.5104
1079.00,0.5139
1078.00,0.5143
1077.00,0.5117
1076.00,0.5068
1075.00,0.5008
1074.00,0.4946
1073.00,0.4889
1072.00,0.4843
1071.00,0.4810
1070.00,0.4793
1069.00,0.4787
1068.00,0.4789
1067.00,0.4795
1066.00,0.4799
1065.00,0.4795
1064.00,0.4787
1063.00,0.4779
1062.00,0.4774
1061.00,0.4775
1060.00,0.4775
1059.00,0.4773
1058.00,0.4763
1057.00,0.4742
1056.00,0.4710
1055.00,0.4671
1054.00,0.4628
1053.00,0.4588
1052.00,0.4557
1051.00,0.4539
1050.00,0.4532
1049.00,0.4533
1048.00,0.4535
1047.00,0.4536
1046.00,0.4534
1045.00,0.4529
1044.00,0.4522
1043.00,0.4517
1042.00,0.4516
1041.00,0.4521
1040.00,0.4531
1039.00,0.4547
1038.00,0.4569
1037.00,0.4595
1036.00,0.4628
1035.00,0.4672
1034.00,0.4724
1033.00,0.4780
1032.00,0.4832
1031.00,0.4876
1030.00,0.4908
1029.00,0.4926
1028.00,0.4930
1027.00,0.4917
1026.00,0.4887
1025.00,0.4839
1024.00,0.4780
1023.00,0.4715
1022.00,0.4653
1021.00,0.4596
1020.00,0.4545
1019.00,0.4500
1018.00,0.4460
1017.00,0.4424
1016.00,0.4392
1015.00,0.4363
1014.00,0.4338
1013.00,0.4318
1012.00,0.4303
1011.00,0.4296
1010.00,0.4297
1009.00,0.4305
1008.00,0.4319
1007.00,0.4337
1006.00,0.4358
1005.00,0.4379
1004.00,0.4396
1003.00,0.4409
1002.00,0.4418
1001.00,0.4423
1000.00,0.4424
999.00,0.4421
998.00,0.4413
997.00,0.4399
996.00,0.4381
995.00,0.4361
994.00,0.4344
993.00,0.4330
992.00,0.4320
991.00,0.4314
990.00,0.4311
989.00,0.4309
988.00,0.4310
987.00,0.4315
986.00,0.4326
985.00,0.4343
984.00,0.4365
983.00,0.4389
982.00,0.4412
981.00,0.4434
980.00,0.4452
979.00,0.4470
978.00,0.4488
977.00,0.4505
976.00,0.4521
975.00,0.4534
974.00,0.4544
973.00,0.4553
972.00,0.4561
971.00,0.4571
970.00,0.4581
969.00,0.4591
968.00,0.4600
967.00,0.4607
966.00,0.4608
965.00,0.4600
964.00,0.4583
963.00,0.4560
962.00,0.4533
961.00,0.4506
960.00,0.4478
959.00,0.4452
958.00,0.4429
957.00,0.4408
956.00,0.4389
955.00,0.4372
954.00,0.4357
953.00,0.4343
952.00,0.4329
951.00,0.4318
950.00,0.4310
949.00,0.4306
948.00,0.4304
947.00,0.4306
946.00,0.4311
945.00,0.4317
944.00,0.4325
943.00,0.4333
942.00,0.4342
941.00,0.4348
940.00,0.4353
939.00,0.4357
938.00,0.4363
937.00,0.4369
936.00,0.4375
935.00,0.4381
934.00,0.4386
933.00,0.4388
932.00,0.4386
931.00,0.4379
930.00,0.4368
929.00,0.4354
928.00,0.4344
927.00,0.4345
926.00,0.4364
925.00,0.4402
924.00,0.4456
923.00,0.4519
922.00,0.4577
921.00,0.4615
920.00,0.4617
919.00,0.4579
918.00,0.4505
917.00,0.4406
916.00,0.4299
915.00,0.4197
914.00,0.4110
913.00,0.4040
912.00,0.3987
911.00,0.3949
910.00,0.3921
909.00,0.3899
908.00,0.3879
907.00,0.3861
906.00,0.3845
905.00,0.3830
904.00,0.3819
903.00,0.3812
902.00,0.3810
901.00,0.3813
900.00,0.3820
899.00,0.3833
898.00,0.3851
897.00,0.3872
896.00,0.3894
895.00,0.3917
894.00,0.3941
893.00,0.3966
892.00,0.3990
891.00,0.4009
890.00,0.4017
889.00,0.4011
888.00,0.3990
887.00,0.3959
886.00,0.3924
885.00,0.3889
884.00,0.3859
883.00,0.3837
882.00,0.3822
881.00,0.3814
880.00,0.3812
879.00,0.3815
878.00,0.3823
877.00,0.3831
876.00,0.3839
875.00,0.3848
874.00,0.3858
873.00,0.3870
872.00,0.3883
871.00,0.3897
870.00,0.3913
869.00,0.3933
868.00,0.3957
867.00,0.3988
866.00,0.4026
865.00,0.4065
864.00,0.4099
863.00,0.4122
862.00,0.4124
861.00,0.4101
860.00,0.4057
859.00,0.4002
858.00,0.3945
857.00,0.3894
856.00,0.3853
855.00,0.3824
854.00,0.3805
853.00,0.3793
852.00,0.3787
851.00,0.3785
850.00,0.3787
849.00,0.3790
848.00,0.3794
847.00,0.3801
846.00,0.3812
845.00,0.3829
844.00,0.3855
843.00,0.3895
842.00,0.3954
841.00,0.4028
840.00,0.4104
839.00,0.4164
838.00,0.4192
837.00,0.4179
836.00,0.4129
835.00,0.4054
834.00,0.3968
833.00,0.3885
832.00,0.3814
831.00,0.3760
830.00,0.3725
829.00,0.3704
828.00,0.3693
827.00,0.3690
826.00,0.3693
825.00,0.3699
824.00,0.3709
823.00,0.3722
822.00,0.3736
821.00,0.3751
820.00,0.3766
819.00,0.3783
818.00,0.3801
817.00,0.3818
816.00,0.3830
815.00,0.3837
814.00,0.3835
813.00,0.3824
812.00,0.3806
811.00,0.3784
810.00,0.3762
809.00,0.3743
808.00,0.3725
807.00,0.3711
806.00,0.3699
805.00,0.3689
804.00,0.3678
803.00,0.3668
802.00,0.3660
801.00,0.3654
800.00,0.3652
799.00,0.3654
798.00,0.3658
797.00,0.3663
796.00,0.3666
795.00,0.3667
794.00,0.3668
793.00,0.3667
792.00,0.3665
791.00,0.3664
790.00,0.3665
789.00,0.3667
788.00,0.3671
787.00,0.3679
786.00,0.3693
785.00,0.3713
784.00,0.3738
783.00,0.3768
782.00,0.3799
781.00,0.3829
780.00,0.3859
779.00,0.3889
778.00,0.3923
777.00,0.3961
776.00,0.4002
775.00,0.4046
774.00,0.4092
773.00,0.4138
772.00,0.4183
771.00,0.4227
770.00,0.4272
769.00,0.4318
768.00,0.4366
767.00,0.4416
766.00,0.4467
765.00,0.4518
764.00,0.4566
763.00,0.4616
762.00,0.4667
761.00,0.4715
760.00,0.4753
759.00,0.4777
758.00,0.4784
757.00,0.4779
756.00,0.4769
755.00,0.4764
754.00,0.4769
753.00,0.4785
752.00,0.4809
751.00,0.4841
750.00,0.4876
749.00,0.4915
748.00,0.4957
747.00,0.5006
746.00,0.5063
745.00,0.5128
744.00,0.5202
743.00,0.5287
742.00,0.5383
741.00,0.5486
740.00,0.5590
739.00,0.5690
738.00,0.5785
737.00,0.5873
736.00,0.5956
735.00,0.6032
734.00,0.6106
733.00,0.6180
732.00,0.6264
731.00,0.6366
730.00,0.6493
729.00,0.6648
728.00,0.6831
727.00,0.7051
726.00,0.7312
725.00,0.7607
724.00,0.7908
723.00,0.8165
722.00,0.8308
721.00,0.8267
720.00,0.8013
719.00,0.7592
718.00,0.7092
717.00,0.6593
716.00,0.6143
715.00,0.5761
714.00,0.5445
713.00,0.5186
712.00,0.4978
711.00,0.4821
710.00,0.4715
709.00,0.4661
708.00,0.4658
707.00,0.4707
706.00,0.4810
705.00,0.4967
704.00,0.5176
703.00,0.5430
702.00,0.5710
701.00,0.5976
700.00,0.6174
699.00,0.6241
698.00,0.6131
697.00,0.5844
696.00,0.5442
695.00,0.5015
694.00,0.4630
693.00,0.4318
692.00,0.4078
691.00,0.3900
690.00,0.3767
689.00,0.3664
688.00,0.3580
687.00,0.3514
686.00,0.3461
685.00,0.3419
684.00,0.3383
683.00,0.3355
682.00,0.3335
681.00,0.3320
680.00,0.3308
679.00,0.3298
678.00,0.3291
677.00,0.3285
676.00,0.3283
675.00,0.3284
674.00,0.3287
673.00,0.3291
672.00,0.3294
671.00,0.3301
670.00,0.3311
669.00,0.3324
668.00,0.3331
667.00,0.3332
666.00,0.3340
665.00,0.3353
664.00,0.3371
663.00,0.3394
662.00,0.3425
661.00,0.3461
660.00,0.3499
659.00,0.3536
658.00,0.3571
657.00,0.3604
656.00,0.3633
655.00,0.3659
654.00,0.3680
653.00,0.3694
652.00,0.3699
651.00,0.3695
650.00,0.3683
649.00,0.3667
648.00,0.3647
647.00,0.3628
646.00,0.3612
645.00,0.3599
644.00,0.3591
643.00,0.3587
642.00,0.3588
641.00,0.3590
640.00,0.3595
639.00,0.3602
638.00,0.3612
637.00,0.3623
636.00,0.3632
635.00,0.3640
634.00,0.3650
633.00,0.3663
632.00,0.3678
631.00,0.3696
630.00,0.3715
629.00,0.3734
628.00,0.3752
627.00,0.3772
626.00,0.3793
625.00,0.3816
624.00,0.3840
623.00,0.3862
622.00,0.3880
621.00,0.3892
620.00,0.3898
619.00,0.3902
618.00,0.3904
617.00,0.3904
616.00,0.3901
615.00,0.3897
614.00,0.3892
613.00,0.3887
612.00,0.3879
611.00,0.3871
610.00,0.3863
609.00,0.3857
608.00,0.3853
607.00,0.3852
606.00,0.3854
605.00,0.3860
604.00,0.3874
603.00,0.3900
602.00,0.3935
601.00,0.3978
600.00,0.4026
599.00,0.4074
598.00,0.4115
597.00,0.4137
596.00,0.4138
595.00,0.4126
594.00,0.4110
593.00,0.4091
592.00,0.4073
591.00,0.4058
590.00,0.4049
589.00,0.4044
588.00,0.4040
587.00,0.4038
586.00,0.4037
585.00,0.4038
584.00,0.4042
583.00,0.4050
582.00,0.4060
581.00,0.4070
580.00,0.4079
579.00,0.4087
578.00,0.4094
577.00,0.4098
576.00,0.4099
575.00,0.4100
574.00,0.4102
573.00,0.4107
572.00,0.4113
571.00,0.4123
570.00,0.4135
569.00,0.4145
568.00,0.4152
567.00,0.4158
566.00,0.4164
565.00,0.4167
564.00,0.4164
563.00,0.4159
562.00,0.4154
561.00,0.4152
560.00,0.4151
559.00,0.4154
558.00,0.4160
557.00,0.4168
556.00,0.4178
555.00,0.4192
554.00,0.4212
553.00,0.4238
552.00,0.4268
551.00,0.4303
550.00,0.4344
