Created as New Dataset,
cm-1,A
4000.00,0.3767
3999.00,0.3767
3998.00,0.3768
3997.00,0.3768
3996.00,0.3768
3995.00,0.3767
3994.00,0.3765
3993.00,0.3762
3992.00,0.3759
3991.00,0.3756
3990.00,0.3752
3989.00,0.3748
3988.00,0.3743
3987.00,0.3738
3986.00,0.3734
3985.00,0.3729
3984.00,0.3725
3983.00,0.3721
3982.00,0.3718
3981.00,0.3714
3980.00,0.3710
3979.00,0.3706
3978.00,0.3702
3977.00,0.3699
3976.00,0.3696
3975.00,0.3693
3974.00,0.3691
3973.00,0.3688
3972.00,0.3685
3971.00,0.3681
3970.00,0.3676
3969.00,0.3672
3968.00,0.3667
3967.00,0.3662
3966.00,0.3657
3965.00,0.3651
3964.00,0.3646
3963.00,0.3640
3962.00,0.3634
3961.00,0.3628
3960.00,0.3623
3959.00,0.3617
3958.00,0.3612
3957.00,0.3607
3956.00,0.3602
3955.00,0.3598
3954.00,0.3593
3953.00,0.3590
3952.00,0.3586
3951.00,0.3583
3950.00,0.3580
3949.00,0.3578
3948.00,0.3575
3947.00,0.3573
3946.00,0.3572
3945.00,0.3570
3944.00,0.3567
3943.00,0.3565
3942.00,0.3564
3941.00,0.3562
3940.00,0.3561
3939.00,0.3560
3938.00,0.3558
3937.00,0.3557
3936.00,0.3556
3935.00,0.3556
3934.00,0.3556
3933.00,0.3556
3932.00,0.3556
3931.00,0.3556
3930.00,0.3556
3929.00,0.3556
3928.00,0.3556
3927.00,0.3556
3926.00,0.3556
3925.00,0.3555
3924.00,0.3554
3923.00,0.3554
3922.00,0.3554
3921.00,0.3554
3920.00,0.3554
3919.00,0.3554
3918.00,0.3554
3917.00,0.3553
3916.00,0.3551
3915.00,0.3549
3914.00,0.3547
3913.00,0.3545
3912.00,0.3543
3911.00,0.3542
3910.00,0.3541
3909.00,0.3540
3908.00,0.3540
3907.00,0.3541
3906.00,0.3543
3905.00,0.3545
3904.00,0.3546
3903.00,0.3547
3902.00,0.3548
3901.00,0.3548
3900.00,0.3548
3899.00,0.3547
3898.00,0.3544
3897.00,0.3542
3896.00,0.3539
3895.00,0.3537
3894.00,0.3535
3893.00,0.3533
3892.00,0.3530
3891.00,0.3527
3890.00,0.3525
3889.00,0.3525
3888.00,0.3525
3887.00,0.3524
3886.00,0.3523
3885.00,0.3523
3884.00,0.3522
3883.00,0.3521
3882.00,0.3520
3881.00,0.3519
3880.00,0.3516
3879.00,0.3513
3878.00,0.3510
3877.00,0.3508
3876.00,0.3506
3875.00,0.3506
3874.00,0.3506
3873.00,0.3506
3872.00,0.3507
3871.00,0.3508
3870.00,0.3509
3869.00,0.3510
3868.00,0.3510
3867.00,0.3510
3866.00,0.3510
3865.00,0.3509
3864.00,0.3509
3863.00,0.3508
3862.00,0.3506
3861.00,0.3505
3860.00,0.3503
3859.00,0.3503
3858.00,0.3504
3857.00,0.3506
3856.00,0.3507
3855.00,0.3507
3854.00,0.3505
3853.00,0.3506
3852.00,0.3508
3851.00,0.3508
3850.00,0.3505
3849.00,0.3501
3848.00,0.3497
3847.00,0.3494
3846.00,0.3490
3845.00,0.3488
3844.00,0.3486
3843.00,0.3485
3842.00,0.3484
3841.00,0.3485
3840.00,0.3485
3839.00,0.3486
3838.00,0.3486
3837.00,0.3486
3836.00,0.3486
3835.00,0.3484
3834.00,0.3482
3833.00,0.3479
3832.00,0.3476
3831.00,0.3472
3830.00,0.3468
3829.00,0.3465
3828.00,0.3462
3827.00,0.3460
3826.00,0.3459
3825.00,0.3460
3824.00,0.3461
3823.00,0.3461
3822.00,0.3461
3821.00,0.3462
3820.00,0.3463
3819.00,0.3463
3818.00,0.3462
3817.00,0.3460
3816.00,0.3458
3815.00,0.3454
3814.00,0.3448
3813.00,0.3443
3812.00,0.3440
3811.00,0.3437
3810.00,0.3435
3809.00,0.3433
3808.00,0.3429
3807.00,0.3427
3806.00,0.3425
3805.00,0.3425
3804.00,0.3426
3803.00,0.3425
3802.00,0.3424
3801.00,0.3423
3800.00,0.3421
3799.00,0.3419
3798.00,0.3417
3797.00,0.3414
3796.00,0.3410
3795.00,0.3406
3794.00,0.3402
3793.00,0.3398
3792.00,0.3395
3791.00,0.3392
3790.00,0.3391
3789.00,0.3390
3788.00,0.3389
3787.00,0.3389
3786.00,0.3390
3785.00,0.3390
3784.00,0.3391
3783.00,0.3392
3782.00,0.3393
3781.00,0.3393
3780.00,0.3393
3779.00,0.3394
3778.00,0.3394
3777.00,0.3394
3776.00,0.3393
3775.00,0.3393
3774.00,0.3393
3773.00,0.3393
3772.00,0.3393
3771.00,0.3392
3770.00,0.3392
3769.00,0.3392
3768.00,0.3392
3767.00,0.3392
3766.00,0.3391
3765.00,0.3390
3764.00,0.3388
3763.00,0.3386
3762.00,0.3385
3761.00,0.3383
3760.00,0.3382
3759.00,0.3381
3758.00,0.3381
3757.00,0.3381
3756.00,0.3382
3755.00,0.3383
3754.00,0.3384
3753.00,0.3384
3752.00,0.3385
3751.00,0.3387
3750.00,0.3391
3749.00,0.3396
3748.00,0.3399
3747.00,0.3401
3746.00,0.3402
3745.00,0.3400
3744.00,0.3398
3743.00,0.3394
3742.00,0.3390
3741.00,0.3386
3740.00,0.3384
3739.00,0.3382
3738.00,0.3381
3737.00,0.3379
3736.00,0.3378
3735.00,0.3377
3734.00,0.3377
3733.00,0.3376
3732.00,0.3374
3731.00,0.3371
3730.00,0.3367
3729.00,0.3363
3728.00,0.3360
3727.00,0.3356
3726.00,0.3353
3725.00,0.3351
3724.00,0.3350
3723.00,0.3349
3722.00,0.3348
3721.00,0.3347
3720.00,0.3345
3719.00,0.3343
3718.00,0.3342
3717.00,0.3342
3716.00,0.3343
3715.00,0.3345
3714.00,0.3348
3713.00,0.3351
3712.00,0.3354
3711.00,0.3357
3710.00,0.3359
3709.00,0.3361
3708.00,0.3362
3707.00,0.3362
3706.00,0.3361
3705.00,0.3361
3704.00,0.3361
3703.00,0.3361
3702.00,0.3361
3701.00,0.3361
3700.00,0.3361
3699.00,0.3361
3698.00,0.3361
3697.00,0.3362
3696.00,0.3363
3695.00,0.3364
3694.00,0.3365
3693.00,0.3368
3692.00,0.3370
3691.00,0.3373
3690.00,0.3376
3689.00,0.3379
3688.00,0.3382
3687.00,0.3383
3686.00,0.3383
3685.00,0.3381
3684.00,0.3379
3683.00,0.3378
3682.00,0.3377
3681.00,0.3378
3680.00,0.3381
3679.00,0.3384
3678.00,0.3387
3677.00,0.3390
3676.00,0.3394
3675.00,0.3399
3674.00,0.3403
3673.00,0.3405
3672.00,0.3406
3671.00,0.3407
3670.00,0.3407
3669.00,0.3407
3668.00,0.3406
3667.00,0.3404
3666.00,0.3402
3665.00,0.3401
3664.00,0.3401
3663.00,0.3402
3662.00,0.3403
3661.00,0.3405
3660.00,0.3408
3659.00,0.3412
3658.00,0.3416
3657.00,0.3421
3656.00,0.3427
3655.00,0.3434
3654.00,0.3440
3653.00,0.3447
3652.00,0.3454
3651.00,0.3460
3650.00,0.3467
3649.00,0.3474
3648.00,0.3481
3647.00,0.3486
3646.00,0.3491
3645.00,0.3494
3644.00,0.3497
3643.00,0.3502
3642.00,0.3508
3641.00,0.3516
3640.00,0.3525
3639.00,0.3536
3638.00,0.3548
3637.00,0.3562
3636.00,0.3576
3635.00,0.3593
3634.00,0.3611
3633.00,0.3631
3632.00,0.3654
3631.00,0.3682
3630.00,0.3718
3629.00,0.3762
3628.00,0.3805
3627.00,0.3839
3626.00,0.3860
3625.00,0.3869
3624.00,0.3867
3623.00,0.3854
3622.00,0.3832
3621.00,0.3802
3620.00,0.3767
3619.00,0.3731
3618.00,0.3701
3617.00,0.3677
3616.00,0.3659
3615.00,0.3646
3614.00,0.3637
3613.00,0.3632
3612.00,0.3630
3611.00,0.3630
3610.00,0.3632
3609.00,0.3634
3608.00,0.3637
3607.00,0.3639
3606.00,0.3639
3605.00,0.3639
3604.00,0.3638
3603.00,0.3637
3602.00,0.3634
3601.00,0.3630
3600.00,0.3626
3599.00,0.3620
3598.00,0.3613
3597.00,0.3605
3596.00,0.3597
3595.00,0.3589
3594.00,0.3581
3593.00,0.3574
3592.00,0.3569
3591.00,0.3565
3590.00,0.3561
3589.00,0.3557
3588.00,0.3554
3587.00,0.3550
3586.00,0.3545
3585.00,0.3541
3584.00,0.3537
3583.00,0.3533
3582.00,0.3529
3581.00,0.3525
3580.00,0.3520
3579.00,0.3515
3578.00,0.3511
3577.00,0.3509
3576.00,0.3508
3575.00,0.3507
3574.00,0.3507
3573.00,0.3509
3572.00,0.3511
3571.00,0.3514
3570.00,0.3518
3569.00,0.3523
3568.00,0.3528
3567.00,0.3532
3566.00,0.3537
3565.00,0.3540
3564.00,0.3543
3563.00,0.3546
3562.00,0.3547
3561.00,0.3549
3560.00,0.3551
3559.00,0.3554
3558.00,0.3557
3557.00,0.3561
3556.00,0.3566
3555.00,0.3572
3554.00,0.3577
3553.00,0.3584
3552.00,0.3590
3551.00,0.3597
3550.00,0.3604
3549.00,0.3612
3548.00,0.3619
3547.00,0.3627
3546.00,0.3635
3545.00,0.3643
3544.00,0.3651
3543.00,0.3659
3542.00,0.3667
3541.00,0.3674
3540.00,0.3682
3539.00,0.3690
3538.00,0.3698
3537.00,0.3707
3536.00,0.3716
3535.00,0.3725
3534.00,0.3734
3533.00,0.3743
3532.00,0.3752
3531.00,0.3762
3530.00,0.3772
3529.00,0.3783
3528.00,0.3793
3527.00,0.3803
3526.00,0.3814
3525.00,0.3825
3524.00,0.3836
3523.00,0.3846
3522.00,0.3857
3521.00,0.3868
3520.00,0.3879
3519.00,0.3890
3518.00,0.3900
3517.00,0.3910
3516.00,0.3921
3515.00,0.3932
3514.00,0.3944
3513.00,0.3957
3512.00,0.3970
3511.00,0.3984
3510.00,0.3998
3509.00,0.4012
3508.00,0.4026
3507.00,0.4039
3506.00,0.4052
3505.00,0.4066
3504.00,0.4080
3503.00,0.4094
3502.00,0.4108
3501.00,0.4121
3500.00,0.4135
3499.00,0.4149
3498.00,0.4163
3497.00,0.4178
3496.00,0.4193
3495.00,0.4208
3494.00,0.4223
3493.00,0.4238
3492.00,0.4253
3491.00,0.4268
3490.00,0.4284
3489.00,0.4299
3488.00,0.4315
3487.00,0.4332
3486.00,0.4349
3485.00,0.4365
3484.00,0.4381
3483.00,0.4398
3482.00,0.4416
3481.00,0.4435
3480.00,0.4453
3479.00,0.4471
3478.00,0.4488
3477.00,0.4506
3476.00,0.4524
3475.00,0.4542
3474.00,0.4561
3473.00,0.4580
3472.00,0.4599
3471.00,0.4619
3470.00,0.4640
3469.00,0.4660
3468.00,0.4681
3467.00,0.4701
3466.00,0.4721
3465.00,0.4740
3464.00,0.4761
3463.00,0.4781
3462.00,0.4803
3461.00,0.4825
3460.00,0.4847
3459.00,0.4870
3458.00,0.4894
3457.00,0.4918
3456.00,0.4943
3455.00,0.4968
3454.00,0.4993
3453.00,0.5019
3452.00,0.5045
3451.00,0.5072
3450.00,0.5100
3449.00,0.5130
3448.00,0.5161
3447.00,0.5192
3446.00,0.5225
3445.00,0.5260
3444.00,0.5295
3443.00,0.5331
3442.00,0.5367
3441.00,0.5402
3440.00,0.5436
3439.00,0.5469
3438.00,0.5501
3437.00,0.5532
3436.00,0.5561
3435.00,0.5588
3434.00,0.5613
3433.00,0.5636
3432.00,0.5658
3431.00,0.5679
3430.00,0.5699
3429.00,0.5719
3428.00,0.5737
3427.00,0.5756
3426.00,0.5774
3425.00,0.5792
3424.00,0.5810
3423.00,0.5828
3422.00,0.5846
3421.00,0.5865
3420.00,0.5884
3419.00,0.5904
3418.00,0.5924
3417.00,0.5943
3416.00,0.5962
3415.00,0.5981
3414.00,0.6001
3413.00,0.6021
3412.00,0.6041
3411.00,0.6059
3410.00,0.6078
3409.00,0.6098
3408.00,0.6117
3407.00,0.6136
3406.00,0.6155
3405.00,0.6173
3404.00,0.6192
3403.00,0.6211
3402.00,0.6229
3401.00,0.6246
3400.00,0.6263
3399.00,0.6280
3398.00,0.6296
3397.00,0.6312
3396.00,0.6328
3395.00,0.6344
3394.00,0.6360
3393.00,0.6376
3392.00,0.6391
3391.00,0.6405
3390.00,0.6418
3389.00,0.6433
3388.00,0.6447
3387.00,0.6462
3386.00,0.6476
3385.00,0.6489
3384.00,0.6502
3383.00,0.6515
3382.00,0.6528
3381.00,0.6541
3380.00,0.6555
3379.00,0.6569
3378.00,0.6583
3377.00,0.6597
3376.00,0.6610
3375.00,0.6622
3374.00,0.6633
3373.00,0.6642
3372.00,0.6653
3371.00,0.6666
3370.00,0.6680
3369.00,0.6693
3368.00,0.6706
3367.00,0.6717
3366.00,0.6728
3365.00,0.6739
3364.00,0.6751
3363.00,0.6762
3362.00,0.6774
3361.00,0.6784
3360.00,0.6795
3359.00,0.6806
3358.00,0.6817
3357.00,0.6828
3356.00,0.6838
3355.00,0.6847
3354.00,0.6857
3353.00,0.6866
3352.00,0.6875
3351.00,0.6882
3350.00,0.6888
3349.00,0.6895
3348.00,0.6902
3347.00,0.6909
3346.00,0.6916
3345.00,0.6920
3344.00,0.6923
3343.00,0.6925
3342.00,0.6926
3341.00,0.6928
3340.00,0.6931
3339.00,0.6932
3338.00,0.6932
3337.00,0.6931
3336.00,0.6928
3335.00,0.6925
3334.00,0.6922
3333.00,0.6918
3332.00,0.6915
3331.00,0.6910
3330.00,0.6905
3329.00,0.6898
3328.00,0.6890
3327.00,0.6882
3326.00,0.6875
3325.00,0.6867
3324.00,0.6859
3323.00,0.6850
3322.00,0.6839
3321.00,0.6828
3320.00,0.6817
3319.00,0.6806
3318.00,0.6795
3317.00,0.6783
3316.00,0.6772
3315.00,0.6761
3314.00,0.6751
3313.00,0.6740
3312.00,0.6729
3311.00,0.6718
3310.00,0.6708
3309.00,0.6697
3308.00,0.6687
3307.00,0.6677
3306.00,0.6667
3305.00,0.6657
3304.00,0.6646
3303.00,0.6635
3302.00,0.6624
3301.00,0.6615
3300.00,0.6607
3299.00,0.6599
3298.00,0.6592
3297.00,0.6586
3296.00,0.6580
3295.00,0.6575
3294.00,0.6570
3293.00,0.6564
3292.00,0.6558
3291.00,0.6552
3290.00,0.6548
3289.00,0.6543
3288.00,0.6539
3287.00,0.6534
3286.00,0.6529
3285.00,0.6524
3284.00,0.6521
3283.00,0.6518
3282.00,0.6516
3281.00,0.6513
3280.00,0.6510
3279.00,0.6507
3278.00,0.6505
3277.00,0.6502
3276.00,0.6499
3275.00,0.6495
3274.00,0.6490
3273.00,0.6486
3272.00,0.6483
3271.00,0.6479
3270.00,0.6477
3269.00,0.6473
3268.00,0.6468
3267.00,0.6462
3266.00,0.6455
3265.00,0.6448
3264.00,0.6442
3263.00,0.6436
3262.00,0.6429
3261.00,0.6422
3260.00,0.6415
3259.00,0.6408
3258.00,0.6402
3257.00,0.6395
3256.00,0.6387
3255.00,0.6378
3254.00,0.6369
3253.00,0.6360
3252.00,0.6351
3251.00,0.6341
3250.00,0.6332
3249.00,0.6321
3248.00,0.6310
3247.00,0.6298
3246.00,0.6286
3245.00,0.6274
3244.00,0.6261
3243.00,0.6247
3242.00,0.6231
3241.00,0.6216
3240.00,0.6200
3239.00,0.6184
3238.00,0.6169
3237.00,0.6152
3236.00,0.6135
3235.00,0.6118
3234.00,0.6101
3233.00,0.6084
3232.00,0.6067
3231.00,0.6049
3230.00,0.6031
3229.00,0.6012
3228.00,0.5993
3227.00,0.5975
3226.00,0.5957
3225.00,0.5939
3224.00,0.5921
3223.00,0.5904
3222.00,0.5886
3221.00,0.5868
3220.00,0.5850
3219.00,0.5832
3218.00,0.5815
3217.00,0.5798
3216.00,0.5780
3215.00,0.5763
3214.00,0.5745
3213.00,0.5727
3212.00,0.5711
3211.00,0.5695
3210.00,0.5679
3209.00,0.5664
3208.00,0.5649
3207.00,0.5634
3206.00,0.5619
3205.00,0.5603
3204.00,0.5586
3203.00,0.5570
3202.00,0.5553
3201.00,0.5537
3200.00,0.5521
3199.00,0.5505
3198.00,0.5489
3197.00,0.5472
3196.00,0.5455
3195.00,0.5438
3194.00,0.5421
3193.00,0.5404
3192.00,0.5388
3191.00,0.5370
3190.00,0.5353
3189.00,0.5336
3188.00,0.5319
3187.00,0.5303
3186.00,0.5286
3185.00,0.5269
3184.00,0.5252
3183.00,0.5234
3182.00,0.5216
3181.00,0.5200
3180.00,0.5184
3179.00,0.5169
3178.00,0.5154
3177.00,0.5139
3176.00,0.5124
3175.00,0.5109
3174.00,0.5094
3173.00,0.5079
3172.00,0.5065
3171.00,0.5050
3170.00,0.5035
3169.00,0.5020
3168.00,0.5004
3167.00,0.4989
3166.00,0.4974
3165.00,0.4959
3164.00,0.4944
3163.00,0.4930
3162.00,0.4916
3161.00,0.4904
3160.00,0.4892
3159.00,0.4879
3158.00,0.4866
3157.00,0.4853
3156.00,0.4841
3155.00,0.4829
3154.00,0.4818
3153.00,0.4807
3152.00,0.4797
3151.00,0.4786
3150.00,0.4775
3149.00,0.4765
3148.00,0.4755
3147.00,0.4745
3146.00,0.4735
3145.00,0.4726
3144.00,0.4718
3143.00,0.4710
3142.00,0.4702
3141.00,0.4694
3140.00,0.4687
3139.00,0.4679
3138.00,0.4672
3137.00,0.4666
3136.00,0.4659
3135.00,0.4653
3134.00,0.4646
3133.00,0.4639
3132.00,0.4632
3131.00,0.4625
3130.00,0.4619
3129.00,0.4613
3128.00,0.4608
3127.00,0.4602
3126.00,0.4597
3125.00,0.4592
3124.00,0.4587
3123.00,0.4584
3122.00,0.4580
3121.00,0.4577
3120.00,0.4574
3119.00,0.4571
3118.00,0.4570
3117.00,0.4571
3116.00,0.4572
3115.00,0.4574
3114.00,0.4576
3113.00,0.4578
3112.00,0.4581
3111.00,0.4585
3110.00,0.4590
3109.00,0.4595
3108.00,0.4601
3107.00,0.4607
3106.00,0.4614
3105.00,0.4621
3104.00,0.4628
3103.00,0.4635
3102.00,0.4643
3101.00,0.4650
3100.00,0.4658
3099.00,0.4666
3098.00,0.4674
3097.00,0.4681
3096.00,0.4688
3095.00,0.4695
3094.00,0.4702
3093.00,0.4709
3092.00,0.4717
3091.00,0.4725
3090.00,0.4734
3089.00,0.4744
3088.00,0.4755
3087.00,0.4767
3086.00,0.4780
3085.00,0.4793
3084.00,0.4807
3083.00,0.4822
3082.00,0.4838
3081.00,0.4854
3080.00,0.4872
3079.00,0.4890
3078.00,0.4908
3077.00,0.4928
3076.00,0.4950
3075.00,0.4972
3074.00,0.4996
3073.00,0.5022
3072.00,0.5049
3071.00,0.5077
3070.00,0.5107
3069.00,0.5138
3068.00,0.5170
3067.00,0.5202
3066.00,0.5235
3065.00,0.5269
3064.00,0.5304
3063.00,0.5339
3062.00,0.5375
3061.00,0.5411
3060.00,0.5446
3059.00,0.5481
3058.00,0.5516
3057.00,0.5551
3056.00,0.5584
3055.00,0.5617
3054.00,0.5647
3053.00,0.5676
3052.00,0.5704
3051.00,0.5730
3050.00,0.5755
3049.00,0.5781
3048.00,0.5808
3047.00,0.5836
3046.00,0.5865
3045.00,0.5895
3044.00,0.5927
3043.00,0.5960
3042.00,0.5996
3041.00,0.6035
3040.00,0.6076
3039.00,0.6120
3038.00,0.6167
3037.00,0.6216
3036.00,0.6268
3035.00,0.6323
3034.00,0.6379
3033.00,0.6437
3032.00,0.6496
3031.00,0.6555
3030.00,0.6614
3029.00,0.6673
3028.00,0.6731
3027.00,0.6789
3026.00,0.6847
3025.00,0.6906
3024.00,0.6965
3023.00,0.7027
3022.00,0.7092
3021.00,0.7158
3020.00,0.7226
3019.00,0.7296
3018.00,0.7369
3017.00,0.7445
3016.00,0.7525
3015.00,0.7610
3014.00,0.7701
3013.00,0.7798
3012.00,0.7900
3011.00,0.8007
3010.00,0.8121
3009.00,0.8241
3008.00,0.8366
3007.00,0.8498
3006.00,0.8639
3005.00,0.8788
3004.00,0.8946
3003.00,0.9114
3002.00,0.9291
3001.00,0.9479
3000.00,0.9676
2999.00,0.9884
2998.00,1.0104
2997.00,1.0337
2996.00,1.0585
2995.00,1.0850
2994.00,1.1133
2993.00,1.1435
2992.00,1.1759
2991.00,1.2106
2990.00,1.2480
2989.00,1.2883
2988.00,1.3318
2987.00,1.3789
2986.00,1.4306
2985.00,1.4876
2984.00,1.5504
2983.00,1.6196
2982.00,1.6957
2981.00,1.7799
2980.00,1.8736
2979.00,1.9782
2978.00,2.0945
2977.00,2.2221
2976.00,2.3596
2975.00,2.5063
2974.00,2.6626
2973.00,2.8272
2972.00,2.9956
2971.00,3.1607
2970.00,3.3080
2969.00,3.4155
2968.00,3.4837
2967.00,3.5562
2966.00,3.6704
2965.00,3.8121
2964.00,3.9206
2963.00,3.9799
2962.00,3.9842
2961.00,3.9078
2960.00,3.8407
2959.00,3.8378
2958.00,3.8567
2957.00,3.8124
2956.00,3.7618
2955.00,3.8084
2954.00,3.9899
2953.00,4.3196
2952.00,4.7881
2951.00,4.7811
2950.00,4.4507
2949.00,4.3809
2948.00,4.6025
2947.00,4.8254
2946.00,4.4026
2945.00,4.1117
2944.00,4.0162
2943.00,4.0135
2942.00,4.0395
2941.00,4.0646
2940.00,3.9910
2939.00,3.8554
2938.00,3.7688
2937.00,3.7794
2936.00,3.8491
2935.00,3.8995
2934.00,3.9521
2933.00,4.1026
2932.00,4.3397
2931.00,4.5190
2930.00,4.4701
2929.00,4.2698
2928.00,4.1548
2927.00,4.0868
2926.00,4.1381
2925.00,4.3044
2924.00,4.3893
2923.00,4.2340
2922.00,4.0170
2921.00,3.8900
2920.00,3.8713
2919.00,3.9365
2918.00,4.0765
2917.00,4.1315
2916.00,4.0265
2915.00,3.9611
2914.00,4.0506
2913.00,4.3236
2912.00,4.4704
2911.00,4.2748
2910.00,4.1667
2909.00,4.1592
2908.00,4.3307
2907.00,4.5667
2906.00,4.1892
2905.00,3.9934
2904.00,3.9577
2903.00,4.2028
2902.00,4.4298
2901.00,4.2750
2900.00,4.1378
2899.00,4.0784
2898.00,4.1917
2897.00,4.5257
2896.00,4.7106
2895.00,4.3208
2894.00,4.0979
2893.00,4.0203
2892.00,3.9938
2891.00,3.9905
2890.00,4.0543
2889.00,4.0926
2888.00,4.0611
2887.00,4.0798
2886.00,4.1395
2885.00,4.1691
2884.00,4.2361
2883.00,4.4826
2882.00,4.6462
2881.00,4.3720
2880.00,4.1849
2879.00,4.1293
2878.00,4.0665
2877.00,3.9456
2876.00,3.8520
2875.00,3.8217
2874.00,3.8224
2873.00,3.8075
2872.00,3.7757
2871.00,3.7545
2870.00,3.7603
2869.00,3.7986
2868.00,3.8923
2867.00,4.0387
2866.00,4.1321
2865.00,4.1430
2864.00,4.1157
2863.00,4.0822
2862.00,4.0276
2861.00,3.9770
2860.00,3.9622
2859.00,3.9539
2858.00,3.9598
2857.00,4.0000
2856.00,4.0845
2855.00,4.1801
2854.00,4.2937
2853.00,4.4456
2852.00,4.4661
2851.00,4.3127
2850.00,4.2020
2849.00,4.1926
2848.00,4.0781
2847.00,3.8596
2846.00,3.6901
2845.00,3.6238
2844.00,3.6505
2843.00,3.7148
2842.00,3.7155
2841.00,3.6134
2840.00,3.4604
2839.00,3.2800
2838.00,3.0776
2837.00,2.8726
2836.00,2.6836
2835.00,2.5151
2834.00,2.3644
2833.00,2.2278
2832.00,2.1035
2831.00,1.9914
2830.00,1.8908
2829.00,1.8007
2828.00,1.7203
2827.00,1.6486
2826.00,1.5841
2825.00,1.5253
2824.00,1.4712
2823.00,1.4215
2822.00,1.3759
2821.00,1.3341
2820.00,1.2957
2819.00,1.2602
2818.00,1.2271
2817.00,1.1961
2816.00,1.1671
2815.00,1.1398
2814.00,1.1143
2813.00,1.0902
2812.00,1.0673
2811.00,1.0454
2810.00,1.0245
2809.00,1.0043
2808.00,0.9849
2807.00,0.9661
2806.00,0.9477
2805.00,0.9298
2804.00,0.9122
2803.00,0.8952
2802.00,0.8788
2801.00,0.8629
2800.00,0.8476
2799.00,0.8327
2798.00,0.8184
2797.00,0.8048
2796.00,0.7917
2795.00,0.7793
2794.00,0.7676
2793.00,0.7564
2792.00,0.7457
2791.00,0.7356
2790.00,0.7260
2789.00,0.7168
2788.00,0.7079
2787.00,0.6994
2786.00,0.6909
2785.00,0.6825
2784.00,0.6741
2783.00,0.6657
2782.00,0.6574
2781.00,0.6493
2780.00,0.6413
2779.00,0.6335
2778.00,0.6260
2777.00,0.6187
2776.00,0.6117
2775.00,0.6050
2774.00,0.5988
2773.00,0.5931
2772.00,0.5878
2771.00,0.5830
2770.00,0.5786
2769.00,0.5745
2768.00,0.5709
2767.00,0.5677
2766.00,0.5649
2765.00,0.5624
2764.00,0.5602
2763.00,0.5583
2762.00,0.5565
2761.00,0.5550
2760.00,0.5537
2759.00,0.5526
2758.00,0.5516
2757.00,0.5509
2756.00,0.5503
2755.00,0.5500
2754.00,0.5500
2753.00,0.5502
2752.00,0.5505
2751.00,0.5510
2750.00,0.5516
2749.00,0.5524
2748.00,0.5534
2747.00,0.5546
2746.00,0.5560
2745.00,0.5576
2744.00,0.5593
2743.00,0.5612
2742.00,0.5634
2741.00,0.5658
2740.00,0.5685
2739.00,0.5715
2738.00,0.5750
2737.00,0.5788
2736.00,0.5832
2735.00,0.5880
2734.00,0.5929
2733.00,0.5974
2732.00,0.6009
2731.00,0.6028
2730.00,0.6029
2729.00,0.6009
2728.00,0.5971
2727.00,0.5921
2726.00,0.5865
2725.00,0.5810
2724.00,0.5758
2723.00,0.5713
2722.00,0.5676
2721.00,0.5645
2720.00,0.5620
2719.00,0.5599
2718.00,0.5581
2717.00,0.5564
2716.00,0.5546
2715.00,0.5526
2714.00,0.5503
2713.00,0.5478
2712.00,0.5452
2711.00,0.5425
2710.00,0.5399
2709.00,0.5376
2708.00,0.5355
2707.00,0.5336
2706.00,0.5320
2705.00,0.5305
2704.00,0.5294
2703.00,0.5285
2702.00,0.5278
2701.00,0.5273
2700.00,0.5271
2699.00,0.5271
2698.00,0.5274
2697.00,0.5280
2696.00,0.5288
2695.00,0.5298
2694.00,0.5310
2693.00,0.5324
2692.00,0.5338
2691.00,0.5352
2690.00,0.5367
2689.00,0.5381
2688.00,0.5394
2687.00,0.5405
2686.00,0.5414
2685.00,0.5422
2684.00,0.5429
2683.00,0.5435
2682.00,0.5439
2681.00,0.5444
2680.00,0.5449
2679.00,0.5453
2678.00,0.5456
2677.00,0.5460
2676.00,0.5463
2675.00,0.5466
2674.00,0.5469
2673.00,0.5470
2672.00,0.5469
2671.00,0.5466
2670.00,0.5458
2669.00,0.5447
2668.00,0.5432
2667.00,0.5412
2666.00,0.5389
2665.00,0.5363
2664.00,0.5335
2663.00,0.5307
2662.00,0.5278
2661.00,0.5250
2660.00,0.5223
2659.00,0.5198
2658.00,0.5173
2657.00,0.5149
2656.00,0.5126
2655.00,0.5104
2654.00,0.5082
2653.00,0.5061
2652.00,0.5040
2651.00,0.5020
2650.00,0.5000
2649.00,0.4981
2648.00,0.4963
2647.00,0.4946
2646.00,0.4930
2645.00,0.4914
2644.00,0.4899
2643.00,0.4885
2642.00,0.4872
2641.00,0.4860
2640.00,0.4849
2639.00,0.4838
2638.00,0.4827
2637.00,0.4815
2636.00,0.4804
2635.00,0.4793
2634.00,0.4782
2633.00,0.4770
2632.00,0.4758
2631.00,0.4744
2630.00,0.4730
2629.00,0.4716
2628.00,0.4702
2627.00,0.4687
2626.00,0.4673
2625.00,0.4659
2624.00,0.4646
2623.00,0.4633
2622.00,0.4621
2621.00,0.4610
2620.00,0.4598
2619.00,0.4587
2618.00,0.4575
2617.00,0.4564
2616.00,0.4553
2615.00,0.4543
2614.00,0.4532
2613.00,0.4521
2612.00,0.4509
2611.00,0.4498
2610.00,0.4486
2609.00,0.4475
2608.00,0.4463
2607.00,0.4453
2606.00,0.4443
2605.00,0.4435
2604.00,0.4427
2603.00,0.4420
2602.00,0.4412
2601.00,0.4403
2600.00,0.4393
2599.00,0.4383
2598.00,0.4372
2597.00,0.4360
2596.00,0.4347
2595.00,0.4334
2594.00,0.4322
2593.00,0.4310
2592.00,0.4298
2591.00,0.4287
2590.00,0.4277
2589.00,0.4266
2588.00,0.4254
2587.00,0.4243
2586.00,0.4231
2585.00,0.4219
2584.00,0.4206
2583.00,0.4192
2582.00,0.4177
2581.00,0.4161
2580.00,0.4146
2579.00,0.4131
2578.00,0.4116
2577.00,0.4101
2576.00,0.4087
2575.00,0.4073
2574.00,0.4059
2573.00,0.4046
2572.00,0.4034
2571.00,0.4021
2570.00,0.4009
2569.00,0.3998
2568.00,0.3986
2567.00,0.3974
2566.00,0.3963
2565.00,0.3952
2564.00,0.3942
2563.00,0.3932
2562.00,0.3922
2561.00,0.3912
2560.00,0.3903
2559.00,0.3893
2558.00,0.3883
2557.00,0.3873
2556.00,0.3863
2555.00,0.3852
2554.00,0.3842
2553.00,0.3832
2552.00,0.3822
2551.00,0.3814
2550.00,0.3806
2549.00,0.3798
2548.00,0.3790
2547.00,0.3783
2546.00,0.3776
2545.00,0.3769
2544.00,0.3764
2543.00,0.3758
2542.00,0.3753
2541.00,0.3747
2540.00,0.3742
2539.00,0.3736
2538.00,0.3730
2537.00,0.3724
2536.00,0.3719
2535.00,0.3712
2534.00,0.3705
2533.00,0.3697
2532.00,0.3688
2531.00,0.3678
2530.00,0.3667
2529.00,0.3655
2528.00,0.3642
2527.00,0.3629
2526.00,0.3616
2525.00,0.3603
2524.00,0.3589
2523.00,0.3576
2522.00,0.3563
2521.00,0.3550
2520.00,0.3538
2519.00,0.3527
2518.00,0.3515
2517.00,0.3504
2516.00,0.3494
2515.00,0.3483
2514.00,0.3473
2513.00,0.3463
2512.00,0.3453
2511.00,0.3444
2510.00,0.3435
2509.00,0.3426
2508.00,0.3418
2507.00,0.3410
2506.00,0.3403
2505.00,0.3398
2504.00,0.3393
2503.00,0.3389
2502.00,0.3384
2501.00,0.3379
2500.00,0.3375
2499.00,0.3371
2498.00,0.3368
2497.00,0.3365
2496.00,0.3362
2495.00,0.3358
2494.00,0.3354
2493.00,0.3350
2492.00,0.3346
2491.00,0.3341
2490.00,0.3337
2489.00,0.3332
2488.00,0.3328
2487.00,0.3323
2486.00,0.3318
2485.00,0.3314
2484.00,0.3309
2483.00,0.3304
2482.00,0.3298
2481.00,0.3293
2480.00,0.3287
2479.00,0.3280
2478.00,0.3274
2477.00,0.3267
2476.00,0.3260
2475.00,0.3252
2474.00,0.3245
2473.00,0.3238
2472.00,0.3232
2471.00,0.3225
2470.00,0.3218
2469.00,0.3212
2468.00,0.3206
2467.00,0.3201
2466.00,0.3196
2465.00,0.3191
2464.00,0.3187
2463.00,0.3182
2462.00,0.3178
2461.00,0.3175
2460.00,0.3172
2459.00,0.3170
2458.00,0.3168
2457.00,0.3166
2456.00,0.3164
2455.00,0.3163
2454.00,0.3163
2453.00,0.3162
2452.00,0.3162
2451.00,0.3162
2450.00,0.3162
2449.00,0.3162
2448.00,0.3162
2447.00,0.3162
2446.00,0.3162
2445.00,0.3162
2444.00,0.3162
2443.00,0.3163
2442.00,0.3163
2441.00,0.3165
2440.00,0.3166
2439.00,0.3168
2438.00,0.3169
2437.00,0.3170
2436.00,0.3170
2435.00,0.3170
2434.00,0.3170
2433.00,0.3170
2432.00,0.3171
2431.00,0.3171
2430.00,0.3171
2429.00,0.3172
2428.00,0.3173
2427.00,0.3174
2426.00,0.3174
2425.00,0.3174
2424.00,0.3175
2423.00,0.3175
2422.00,0.3175
2421.00,0.3175
2420.00,0.3175
2419.00,0.3175
2418.00,0.3175
2417.00,0.3175
2416.00,0.3175
2415.00,0.3176
2414.00,0.3176
2413.00,0.3177
2412.00,0.3177
2411.00,0.3178
2410.00,0.3178
2409.00,0.3178
2408.00,0.3178
2407.00,0.3179
2406.00,0.3179
2405.00,0.3179
2404.00,0.3179
2403.00,0.3179
2402.00,0.3179
2401.00,0.3180
2400.00,0.3181
2399.00,0.3181
2398.00,0.3182
2397.00,0.3183
2396.00,0.3185
2395.00,0.3186
2394.00,0.3187
2393.00,0.3189
2392.00,0.3191
2391.00,0.3193
2390.00,0.3196
2389.00,0.3199
2388.00,0.3201
2387.00,0.3205
2386.00,0.3208
2385.00,0.3213
2384.00,0.3218
2383.00,0.3223
2382.00,0.3229
2381.00,0.3235
2380.00,0.3241
2379.00,0.3246
2378.00,0.3251
2377.00,0.3254
2376.00,0.3256
2375.00,0.3257
2374.00,0.3258
2373.00,0.3258
2372.00,0.3257
2371.00,0.3258
2370.00,0.3258
2369.00,0.3260
2368.00,0.3262
2367.00,0.3263
2366.00,0.3265
2365.00,0.3266
2364.00,0.3268
2363.00,0.3269
2362.00,0.3270
2361.00,0.3271
2360.00,0.3272
2359.00,0.3271
2358.00,0.3271
2357.00,0.3271
2356.00,0.3270
2355.00,0.3271
2354.00,0.3272
2353.00,0.3274
2352.00,0.3275
2351.00,0.3274
2350.00,0.3273
2349.00,0.3272
2348.00,0.3272
2347.00,0.3272
2346.00,0.3272
2345.00,0.3272
2344.00,0.3270
2343.00,0.3268
2342.00,0.3266
2341.00,0.3265
2340.00,0.3264
2339.00,0.3263
2338.00,0.3263
2337.00,0.3261
2336.00,0.3260
2335.00,0.3258
2334.00,0.3257
2333.00,0.3257
2332.00,0.3255
2331.00,0.3253
2330.00,0.3249
2329.00,0.3245
2328.00,0.3241
2327.00,0.3236
2326.00,0.3232
2325.00,0.3229
2324.00,0.3226
2323.00,0.3223
2322.00,0.3220
2321.00,0.3215
2320.00,0.3210
2319.00,0.3205
2318.00,0.3201
2317.00,0.3197
2316.00,0.3195
2315.00,0.3192
2314.00,0.3190
2313.00,0.3187
2312.00,0.3184
2311.00,0.3180
2310.00,0.3174
2309.00,0.3169
2308.00,0.3163
2307.00,0.3157
2306.00,0.3150
2305.00,0.3144
2304.00,0.3138
2303.00,0.3132
2302.00,0.3127
2301.00,0.3121
2300.00,0.3116
2299.00,0.3110
2298.00,0.3104
2297.00,0.3099
2296.00,0.3094
2295.00,0.3089
2294.00,0.3084
2293.00,0.3079
2292.00,0.3074
2291.00,0.3069
2290.00,0.3063
2289.00,0.3057
2288.00,0.3052
2287.00,0.3047
2286.00,0.3041
2285.00,0.3037
2284.00,0.3033
2283.00,0.3029
2282.00,0.3026
2281.00,0.3024
2280.00,0.3022
2279.00,0.3020
2278.00,0.3017
2277.00,0.3015
2276.00,0.3013
2275.00,0.3012
2274.00,0.3010
2273.00,0.3010
2272.00,0.3009
2271.00,0.3008
2270.00,0.3008
2269.00,0.3007
2268.00,0.3007
2267.00,0.3006
2266.00,0.3005
2265.00,0.3005
2264.00,0.3004
2263.00,0.3002
2262.00,0.3000
2261.00,0.2998
2260.00,0.2995
2259.00,0.2992
2258.00,0.2989
2257.00,0.2987
2256.00,0.2984
2255.00,0.2980
2254.00,0.2977
2253.00,0.2973
2252.00,0.2970
2251.00,0.2966
2250.00,0.2963
2249.00,0.2960
2248.00,0.2957
2247.00,0.2953
2246.00,0.2950
2245.00,0.2946
2244.00,0.2944
2243.00,0.2941
2242.00,0.2939
2241.00,0.2937
2240.00,0.2935
2239.00,0.2933
2238.00,0.2932
2237.00,0.2931
2236.00,0.2929
2235.00,0.2927
2234.00,0.2925
2233.00,0.2924
2232.00,0.2923
2231.00,0.2922
2230.00,0.2921
2229.00,0.2921
2228.00,0.2920
2227.00,0.2919
2226.00,0.2918
2225.00,0.2916
2224.00,0.2915
2223.00,0.2913
2222.00,0.2912
2221.00,0.2911
2220.00,0.2910
2219.00,0.2908
2218.00,0.2907
2217.00,0.2905
2216.00,0.2903
2215.00,0.2902
2214.00,0.2900
2213.00,0.2899
2212.00,0.2898
2211.00,0.2897
2210.00,0.2896
2209.00,0.2895
2208.00,0.2894
2207.00,0.2894
2206.00,0.2895
2205.00,0.2896
2204.00,0.2897
2203.00,0.2899
2202.00,0.2900
2201.00,0.2902
2200.00,0.2904
2199.00,0.2905
2198.00,0.2906
2197.00,0.2908
2196.00,0.2910
2195.00,0.2912
2194.00,0.2914
2193.00,0.2917
2192.00,0.2919
2191.00,0.2922
2190.00,0.2924
2189.00,0.2925
2188.00,0.2927
2187.00,0.2928
2186.00,0.2928
2185.00,0.2929
2184.00,0.2929
2183.00,0.2929
2182.00,0.2928
2181.00,0.2928
2180.00,0.2927
2179.00,0.2926
2178.00,0.2925
2177.00,0.2924
2176.00,0.2923
2175.00,0.2923
2174.00,0.2923
2173.00,0.2923
2172.00,0.2923
2171.00,0.2923
2170.00,0.2923
2169.00,0.2923
2168.00,0.2924
2167.00,0.2925
2166.00,0.2926
2165.00,0.2927
2164.00,0.2928
2163.00,0.2929
2162.00,0.2929
2161.00,0.2930
2160.00,0.2931
2159.00,0.2932
2158.00,0.2933
2157.00,0.2933
2156.00,0.2934
2155.00,0.2934
2154.00,0.2935
2153.00,0.2935
2152.00,0.2935
2151.00,0.2935
2150.00,0.2933
2149.00,0.2931
2148.00,0.2927
2147.00,0.2921
2146.00,0.2914
2145.00,0.2907
2144.00,0.2900
2143.00,0.2892
2142.00,0.2884
2141.00,0.2876
2140.00,0.2869
2139.00,0.2862
2138.00,0.2856
2137.00,0.2850
2136.00,0.2845
2135.00,0.2841
2134.00,0.2836
2133.00,0.2833
2132.00,0.2830
2131.00,0.2828
2130.00,0.2825
2129.00,0.2824
2128.00,0.2823
2127.00,0.2822
2126.00,0.2821
2125.00,0.2820
2124.00,0.2819
2123.00,0.2819
2122.00,0.2818
2121.00,0.2818
2120.00,0.2818
2119.00,0.2818
2118.00,0.2817
2117.00,0.2817
2116.00,0.2816
2115.00,0.2815
2114.00,0.2813
2113.00,0.2812
2112.00,0.2811
2111.00,0.2809
2110.00,0.2807
2109.00,0.2805
2108.00,0.2803
2107.00,0.2802
2106.00,0.2800
2105.00,0.2798
2104.00,0.2797
2103.00,0.2796
2102.00,0.2795
2101.00,0.2794
2100.00,0.2793
2099.00,0.2791
2098.00,0.2789
2097.00,0.2788
2096.00,0.2787
2095.00,0.2786
2094.00,0.2784
2093.00,0.2783
2092.00,0.2783
2091.00,0.2782
2090.00,0.2781
2089.00,0.2781
2088.00,0.2781
2087.00,0.2781
2086.00,0.2781
2085.00,0.2781
2084.00,0.2782
2083.00,0.2783
2082.00,0.2783
2081.00,0.2784
2080.00,0.2785
2079.00,0.2785
2078.00,0.2786
2077.00,0.2786
2076.00,0.2787
2075.00,0.2788
2074.00,0.2789
2073.00,0.2790
2072.00,0.2792
2071.00,0.2792
2070.00,0.2793
2069.00,0.2794
2068.00,0.2796
2067.00,0.2797
2066.00,0.2798
2065.00,0.2799
2064.00,0.2801
2063.00,0.2803
2062.00,0.2804
2061.00,0.2805
2060.00,0.2807
2059.00,0.2809
2058.00,0.2811
2057.00,0.2814
2056.00,0.2817
2055.00,0.2820
2054.00,0.2823
2053.00,0.2828
2052.00,0.2832
2051.00,0.2836
2050.00,0.2840
2049.00,0.2845
2048.00,0.2850
2047.00,0.2855
2046.00,0.2859
2045.00,0.2864
2044.00,0.2868
2043.00,0.2871
2042.00,0.2873
2041.00,0.2875
2040.00,0.2878
2039.00,0.2880
2038.00,0.2881
2037.00,0.2883
2036.00,0.2884
2035.00,0.2885
2034.00,0.2887
2033.00,0.2889
2032.00,0.2892
2031.00,0.2896
2030.00,0.2899
2029.00,0.2903
2028.00,0.2906
2027.00,0.2909
2026.00,0.2911
2025.00,0.2912
2024.00,0.2912
2023.00,0.2910
2022.00,0.2905
2021.00,0.2899
2020.00,0.2891
2019.00,0.2881
2018.00,0.2871
2017.00,0.2859
2016.00,0.2848
2015.00,0.2835
2014.00,0.2823
2013.00,0.2812
2012.00,0.2802
2011.00,0.2793
2010.00,0.2784
2009.00,0.2777
2008.00,0.2771
2007.00,0.2765
2006.00,0.2760
2005.00,0.2756
2004.00,0.2753
2003.00,0.2750
2002.00,0.2748
2001.00,0.2745
2000.00,0.2743
1999.00,0.2742
1998.00,0.2740
1997.00,0.2739
1996.00,0.2737
1995.00,0.2735
1994.00,0.2734
1993.00,0.2733
1992.00,0.2732
1991.00,0.2731
1990.00,0.2730
1989.00,0.2729
1988.00,0.2728
1987.00,0.2727
1986.00,0.2726
1985.00,0.2725
1984.00,0.2724
1983.00,0.2723
1982.00,0.2721
1981.00,0.2719
1980.00,0.2717
1979.00,0.2715
1978.00,0.2714
1977.00,0.2714
1976.00,0.2714
1975.00,0.2713
1974.00,0.2713
1973.00,0.2712
1972.00,0.2711
1971.00,0.2710
1970.00,0.2709
1969.00,0.2708
1968.00,0.2708
1967.00,0.2709
1966.00,0.2710
1965.00,0.2711
1964.00,0.2712
1963.00,0.2712
1962.00,0.2712
1961.00,0.2713
1960.00,0.2714
1959.00,0.2714
1958.00,0.2715
1957.00,0.2716
1956.00,0.2718
1955.00,0.2718
1954.00,0.2719
1953.00,0.2720
1952.00,0.2721
1951.00,0.2722
1950.00,0.2723
1949.00,0.2724
1948.00,0.2725
1947.00,0.2724
1946.00,0.2723
1945.00,0.2722
1944.00,0.2723
1943.00,0.2725
1942.00,0.2727
1941.00,0.2730
1940.00,0.2732
1939.00,0.2733
1938.00,0.2733
1937.00,0.2734
1936.00,0.2734
1935.00,0.2735
1934.00,0.2735
1933.00,0.2736
1932.00,0.2737
1931.00,0.2738
1930.00,0.2739
1929.00,0.2741
1928.00,0.2743
1927.00,0.2744
1926.00,0.2745
1925.00,0.2747
1924.00,0.2750
1923.00,0.2753
1922.00,0.2755
1921.00,0.2757
1920.00,0.2760
1919.00,0.2763
1918.00,0.2766
1917.00,0.2770
1916.00,0.2773
1915.00,0.2775
1914.00,0.2775
1913.00,0.2774
1912.00,0.2773
1911.00,0.2772
1910.00,0.2772
1909.00,0.2772
1908.00,0.2772
1907.00,0.2771
1906.00,0.2770
1905.00,0.2769
1904.00,0.2769
1903.00,0.2768
1902.00,0.2767
1901.00,0.2767
1900.00,0.2767
1899.00,0.2767
1898.00,0.2767
1897.00,0.2767
1896.00,0.2768
1895.00,0.2768
1894.00,0.2768
1893.00,0.2768
1892.00,0.2767
1891.00,0.2766
1890.00,0.2767
1889.00,0.2768
1888.00,0.2771
1887.00,0.2773
1886.00,0.2775
1885.00,0.2776
1884.00,0.2777
1883.00,0.2777
1882.00,0.2777
1881.00,0.2777
1880.00,0.2778
1879.00,0.2779
1878.00,0.2779
1877.00,0.2780
1876.00,0.2781
1875.00,0.2781
1874.00,0.2780
1873.00,0.2779
1872.00,0.2777
1871.00,0.2775
1870.00,0.2773
1869.00,0.2774
1868.00,0.2777
1867.00,0.2779
1866.00,0.2781
1865.00,0.2781
1864.00,0.2780
1863.00,0.2778
1862.00,0.2776
1861.00,0.2774
1860.00,0.2773
1859.00,0.2770
1858.00,0.2767
1857.00,0.2765
1856.00,0.2763
1855.00,0.2761
1854.00,0.2759
1853.00,0.2758
1852.00,0.2756
1851.00,0.2753
1850.00,0.2751
1849.00,0.2749
1848.00,0.2746
1847.00,0.2743
1846.00,0.2742
1845.00,0.2743
1844.00,0.2746
1843.00,0.2749
1842.00,0.2751
1841.00,0.2752
1840.00,0.2753
1839.00,0.2752
1838.00,0.2752
1837.00,0.2752
1836.00,0.2752
1835.00,0.2751
1834.00,0.2748
1833.00,0.2744
1832.00,0.2741
1831.00,0.2738
1830.00,0.2738
1829.00,0.2740
1828.00,0.2743
1827.00,0.2744
1826.00,0.2745
1825.00,0.2746
1824.00,0.2749
1823.00,0.2751
1822.00,0.2752
1821.00,0.2753
1820.00,0.2754
1819.00,0.2754
1818.00,0.2754
1817.00,0.2754
1816.00,0.2755
1815.00,0.2754
1814.00,0.2753
1813.00,0.2752
1812.00,0.2752
1811.00,0.2753
1810.00,0.2755
1809.00,0.2759
1808.00,0.2762
1807.00,0.2763
1806.00,0.2763
1805.00,0.2764
1804.00,0.2765
1803.00,0.2766
1802.00,0.2767
1801.00,0.2770
1800.00,0.2774
1799.00,0.2779
1798.00,0.2784
1797.00,0.2787
1796.00,0.2789
1795.00,0.2789
1794.00,0.2790
1793.00,0.2795
1792.00,0.2803
1791.00,0.2812
1790.00,0.2819
1789.00,0.2825
1788.00,0.2830
1787.00,0.2833
1786.00,0.2836
1785.00,0.2841
1784.00,0.2847
1783.00,0.2851
1782.00,0.2856
1781.00,0.2861
1780.00,0.2867
1779.00,0.2871
1778.00,0.2874
1777.00,0.2875
1776.00,0.2875
1775.00,0.2874
1774.00,0.2875
1773.00,0.2877
1772.00,0.2881
1771.00,0.2886
1770.00,0.2892
1769.00,0.2900
1768.00,0.2906
1767.00,0.2908
1766.00,0.2907
1765.00,0.2907
1764.00,0.2907
1763.00,0.2908
1762.00,0.2911
1761.00,0.2917
1760.00,0.2923
1759.00,0.2927
1758.00,0.2933
1757.00,0.2939
1756.00,0.2946
1755.00,0.2952
1754.00,0.2957
1753.00,0.2963
1752.00,0.2968
1751.00,0.2970
1750.00,0.2974
1749.00,0.2980
1748.00,0.2989
1747.00,0.2996
1746.00,0.3002
1745.00,0.3006
1744.00,0.3007
1743.00,0.3007
1742.00,0.3007
1741.00,0.3009
1740.00,0.3013
1739.00,0.3016
1738.00,0.3016
1737.00,0.3017
1736.00,0.3022
1735.00,0.3028
1734.00,0.3037
1733.00,0.3047
1732.00,0.3053
1731.00,0.3057
1730.00,0.3061
1729.00,0.3068
1728.00,0.3076
1727.00,0.3083
1726.00,0.3088
1725.00,0.3094
1724.00,0.3102
1723.00,0.3107
1722.00,0.3111
1721.00,0.3115
1720.00,0.3123
1719.00,0.3134
1718.00,0.3150
1717.00,0.3171
1716.00,0.3192
1715.00,0.3209
1714.00,0.3226
1713.00,0.3243
1712.00,0.3260
1711.00,0.3275
1710.00,0.3290
1709.00,0.3306
1708.00,0.3321
1707.00,0.3338
1706.00,0.3358
1705.00,0.3378
1704.00,0.3392
1703.00,0.3398
1702.00,0.3398
1701.00,0.3394
1700.00,0.3388
1699.00,0.3384
1698.00,0.3384
1697.00,0.3388
1696.00,0.3391
1695.00,0.3388
1694.00,0.3382
1693.00,0.3379
1692.00,0.3378
1691.00,0.3379
1690.00,0.3380
1689.00,0.3383
1688.00,0.3388
1687.00,0.3394
1686.00,0.3399
1685.00,0.3406
1684.00,0.3418
1683.00,0.3433
1682.00,0.3446
1681.00,0.3458
1680.00,0.3468
1679.00,0.3474
1678.00,0.3478
1677.00,0.3486
1676.00,0.3498
1675.00,0.3512
1674.00,0.3525
1673.00,0.3536
1672.00,0.3546
1671.00,0.3558
1670.00,0.3576
1669.00,0.3601
1668.00,0.3627
1667.00,0.3644
1666.00,0.3656
1665.00,0.3666
1664.00,0.3680
1663.00,0.3697
1662.00,0.3718
1661.00,0.3741
1660.00,0.3762
1659.00,0.3777
1658.00,0.3788
1657.00,0.3797
1656.00,0.3808
1655.00,0.3823
1654.00,0.3852
1653.00,0.3906
1652.00,0.3954
1651.00,0.3971
1650.00,0.3974
1649.00,0.3984
1648.00,0.4010
1647.00,0.4050
1646.00,0.4098
1645.00,0.4144
1644.00,0.4180
1643.00,0.4208
1642.00,0.4235
1641.00,0.4264
1640.00,0.4291
1639.00,0.4316
1638.00,0.4343
1637.00,0.4384
1636.00,0.4445
1635.00,0.4515
1634.00,0.4578
1633.00,0.4631
1632.00,0.4680
1631.00,0.4727
1630.00,0.4778
1629.00,0.4841
1628.00,0.4914
1627.00,0.4988
1626.00,0.5061
1625.00,0.5142
1624.00,0.5240
1623.00,0.5352
1622.00,0.5469
1621.00,0.5581
1620.00,0.5690
1619.00,0.5804
1618.00,0.5942
1617.00,0.6122
1616.00,0.6330
1615.00,0.6529
1614.00,0.6716
1613.00,0.6916
1612.00,0.7146
1611.00,0.7397
1610.00,0.7656
1609.00,0.7918
1608.00,0.8178
1607.00,0.8421
1606.00,0.8654
1605.00,0.8907
1604.00,0.9210
1603.00,0.9566
1602.00,0.9970
1601.00,1.0424
1600.00,1.0913
1599.00,1.1397
1598.00,1.1863
1597.00,1.2360
1596.00,1.2947
1595.00,1.3640
1594.00,1.4447
1593.00,1.5431
1592.00,1.6665
1591.00,1.8136
1590.00,1.9796
1589.00,2.1772
1588.00,2.4329
1587.00,2.7396
1586.00,2.9884
1585.00,3.2200
1584.00,3.7326
1583.00,4.4667
1582.00,3.9457
1581.00,3.8318
1580.00,3.9342
1579.00,3.8880
1578.00,3.8612
1577.00,3.6676
1576.00,3.9482
1575.00,4.3448
1574.00,3.6449
1573.00,3.3834
1572.00,3.3972
1571.00,3.2255
1570.00,2.8745
1569.00,2.6785
1568.00,2.6089
1567.00,2.5799
1566.00,2.5576
1565.00,2.6018
1564.00,2.7455
1563.00,2.9618
1562.00,3.0710
1561.00,3.2122
1560.00,3.6204
1559.00,3.7911
1558.00,3.8680
1557.00,3.5115
1556.00,3.5630
1555.00,3.3108
1554.00,2.8502
1553.00,2.5627
1552.00,2.3282
1551.00,2.0899
1550.00,1.8663
1549.00,1.6920
1548.00,1.5625
1547.00,1.4561
1546.00,1.3596
1545.00,1.2742
1544.00,1.2034
1543.00,1.1436
1542.00,1.0885
1541.00,1.0346
1540.00,0.9823
1539.00,0.9373
1538.00,0.9044
1537.00,0.8823
1536.00,0.8659
1535.00,0.8505
1534.00,0.8354
1533.00,0.8250
1532.00,0.8219
1531.00,0.8241
1530.00,0.8299
1529.00,0.8400
1528.00,0.8543
1527.00,0.8707
1526.00,0.8868
1525.00,0.9020
1524.00,0.9165
1523.00,0.9313
1522.00,0.9491
1521.00,0.9711
1520.00,0.9928
1519.00,1.0080
1518.00,1.0151
1517.00,1.0131
1516.00,0.9997
1515.00,0.9747
1514.00,0.9411
1513.00,0.9032
1512.00,0.8650
1511.00,0.8304
1510.00,0.8017
1509.00,0.7786
1508.00,0.7598
1507.00,0.7445
1506.00,0.7352
1505.00,0.7335
1504.00,0.7369
1503.00,0.7421
1502.00,0.7479
1501.00,0.7538
1500.00,0.7590
1499.00,0.7620
1498.00,0.7620
1497.00,0.7604
1496.00,0.7590
1495.00,0.7581
1494.00,0.7582
1493.00,0.7611
1492.00,0.7679
1491.00,0.7787
1490.00,0.7938
1489.00,0.8137
1488.00,0.8378
1487.00,0.8641
1486.00,0.8915
1485.00,0.9205
1484.00,0.9509
1483.00,0.9822
1482.00,1.0153
1481.00,1.0517
1480.00,1.0915
1479.00,1.1348
1478.00,1.1855
1477.00,1.2505
1476.00,1.3342
1475.00,1.4380
1474.00,1.5723
1473.00,1.7634
1472.00,2.0360
1471.00,2.3808
1470.00,2.7443
1469.00,3.0751
1468.00,3.3601
1467.00,3.5489
1466.00,3.6114
1465.00,3.7124
1464.00,3.9946
1463.00,4.1240
1462.00,3.9006
1461.00,3.8152
1460.00,3.9402
1459.00,3.9575
1458.00,3.9647
1457.00,4.1130
1456.00,3.8812
1455.00,4.0029
1454.00,4.1554
1453.00,3.9455
1452.00,3.9151
1451.00,3.7449
1450.00,3.5902
1449.00,3.5617
1448.00,3.6192
1447.00,3.6651
1446.00,3.6585
1445.00,3.6584
1444.00,3.6572
1443.00,3.5165
1442.00,3.3253
1441.00,3.1986
1440.00,3.0912
1439.00,2.9440
1438.00,2.7708
1437.00,2.5989
1436.00,2.4293
1435.00,2.2655
1434.00,2.1155
1433.00,1.9783
1432.00,1.8486
1431.00,1.7267
1430.00,1.6189
1429.00,1.5314
1428.00,1.4664
1427.00,1.4217
1426.00,1.3938
1425.00,1.3803
1424.00,1.3796
1423.00,1.3874
1422.00,1.3979
1421.00,1.4075
1420.00,1.4168
1419.00,1.4281
1418.00,1.4441
1417.00,1.4671
1416.00,1.4972
1415.00,1.5296
1414.00,1.5549
1413.00,1.5636
1412.00,1.5510
1411.00,1.5209
1410.00,1.4832
1409.00,1.4461
1408.00,1.4111
1407.00,1.3750
1406.00,1.3344
1405.00,1.2900
1404.00,1.2473
1403.00,1.2120
1402.00,1.1875
1401.00,1.1759
1400.00,1.1800
1399.00,1.2014
1398.00,1.2352
1397.00,1.2693
1396.00,1.2862
1395.00,1.2684
1394.00,1.2148
1393.00,1.1440
1392.00,1.0745
1391.00,1.0151
1390.00,0.9691
1389.00,0.9376
1388.00,0.9219
1387.00,0.9228
1386.00,0.9400
1385.00,0.9733
1384.00,1.0250
1383.00,1.1000
1382.00,1.2021
1381.00,1.3322
1380.00,1.4827
1379.00,1.6243
1378.00,1.6987
1377.00,1.6699
1376.00,1.5711
1375.00,1.4549
1374.00,1.3546
1373.00,1.2841
1372.00,1.2418
1371.00,1.2182
1370.00,1.2034
1369.00,1.1912
1368.00,1.1782
1367.00,1.1624
1366.00,1.1428
1365.00,1.1189
1364.00,1.0905
1363.00,1.0587
1362.00,1.0271
1361.00,0.9994
1360.00,0.9771
1359.00,0.9598
1358.00,0.9468
1357.00,0.9381
1356.00,0.9337
1355.00,0.9328
1354.00,0.9342
1353.00,0.9366
1352.00,0.9389
1351.00,0.9404
1350.00,0.9414
1349.00,0.9437
1348.00,0.9499
1347.00,0.9629
1346.00,0.9854
1345.00,1.0188
1344.00,1.0611
1343.00,1.1040
1342.00,1.1333
1341.00,1.1341
1340.00,1.1018
1339.00,1.0467
1338.00,0.9848
1337.00,0.9268
1336.00,0.8762
1335.00,0.8336
1334.00,0.7983
1333.00,0.7697
1332.00,0.7474
1331.00,0.7308
1330.00,0.7201
1329.00,0.7158
1328.00,0.7186
1327.00,0.7293
1326.00,0.7475
1325.00,0.7696
1324.00,0.7890
1323.00,0.7990
1322.00,0.7971
1321.00,0.7871
1320.00,0.7753
1319.00,0.7664
1318.00,0.7618
1317.00,0.7610
1316.00,0.7634
1315.00,0.7683
1314.00,0.7752
1313.00,0.7838
1312.00,0.7935
1311.00,0.8037
1310.00,0.8139
1309.00,0.8240
1308.00,0.8346
1307.00,0.8459
1306.00,0.8582
1305.00,0.8704
1304.00,0.8798
1303.00,0.8828
1302.00,0.8774
1301.00,0.8655
1300.00,0.8519
1299.00,0.8414
1298.00,0.8358
1297.00,0.8332
1296.00,0.8290
1295.00,0.8189
1294.00,0.8024
1293.00,0.7830
1292.00,0.7647
1291.00,0.7496
1290.00,0.7374
1289.00,0.7268
1288.00,0.7169
1287.00,0.7066
1286.00,0.6952
1285.00,0.6827
1284.00,0.6695
1283.00,0.6561
1282.00,0.6435
1281.00,0.6322
1280.00,0.6228
1279.00,0.6155
1278.00,0.6099
1277.00,0.6059
1276.00,0.6033
1275.00,0.6022
1274.00,0.6027
1273.00,0.6048
1272.00,0.6084
1271.00,0.6128
1270.00,0.6166
1269.00,0.6181
1268.00,0.6158
1267.00,0.6096
1266.00,0.6007
1265.00,0.5907
1264.00,0.5815
1263.00,0.5744
1262.00,0.5697
1261.00,0.5671
1260.00,0.5666
1259.00,0.5675
1258.00,0.5690
1257.00,0.5701
1256.00,0.5703
1255.00,0.5694
1254.00,0.5674
1253.00,0.5645
1252.00,0.5609
1251.00,0.5570
1250.00,0.5529
1249.00,0.5486
1248.00,0.5441
1247.00,0.5397
1246.00,0.5354
1245.00,0.5311
1244.00,0.5264
1243.00,0.5213
1242.00,0.5152
1241.00,0.5083
1240.00,0.5013
1239.00,0.4949
1238.00,0.4898
1237.00,0.4860
1236.00,0.4838
1235.00,0.4831
1234.00,0.4841
1233.00,0.4868
1232.00,0.4913
1231.00,0.4978
1230.00,0.5060
1229.00,0.5147
1228.00,0.5232
1227.00,0.5310
1226.00,0.5378
1225.00,0.5435
1224.00,0.5482
1223.00,0.5520
1222.00,0.5546
1221.00,0.5551
1220.00,0.5529
1219.00,0.5484
1218.00,0.5432
1217.00,0.5402
1216.00,0.5423
1215.00,0.5510
1214.00,0.5643
1213.00,0.5763
1212.00,0.5791
1211.00,0.5682
1210.00,0.5459
1209.00,0.5197
1208.00,0.4968
1207.00,0.4803
1206.00,0.4701
1205.00,0.4642
1204.00,0.4608
1203.00,0.4588
1202.00,0.4576
1201.00,0.4574
1200.00,0.4585
1199.00,0.4613
1198.00,0.4654
1197.00,0.4706
1196.00,0.4767
1195.00,0.4840
1194.00,0.4925
1193.00,0.5019
1192.00,0.5112
1191.00,0.5190
1190.00,0.5233
1189.00,0.5229
1188.00,0.5180
1187.00,0.5106
1186.00,0.5025
1185.00,0.4953
1184.00,0.4893
1183.00,0.4845
1182.00,0.4807
1181.00,0.4773
1180.00,0.4740
1179.00,0.4705
1178.00,0.4664
1177.00,0.4614
1176.00,0.4554
1175.00,0.4487
1174.00,0.4416
1173.00,0.4346
1172.00,0.4281
1171.00,0.4224
1170.00,0.4176
1169.00,0.4135
1168.00,0.4099
1167.00,0.4069
1166.00,0.4043
1165.00,0.4021
1164.00,0.4003
1163.00,0.3991
1162.00,0.3987
1161.00,0.3994
1160.00,0.4012
1159.00,0.4046
1158.00,0.4099
1157.00,0.4180
1156.00,0.4302
1155.00,0.4488
1154.00,0.4751
1153.00,0.5068
1152.00,0.5363
1151.00,0.5537
1150.00,0.5549
1149.00,0.5446
1148.00,0.5315
1147.00,0.5213
1146.00,0.5154
1145.00,0.5132
1144.00,0.5146
1143.00,0.5196
1142.00,0.5280
1141.00,0.5399
1140.00,0.5556
1139.00,0.5746
1138.00,0.5947
1137.00,0.6131
1136.00,0.6268
1135.00,0.6338
1134.00,0.6334
1133.00,0.6257
1132.00,0.6116
1131.00,0.5929
1130.00,0.5718
1129.00,0.5513
1128.00,0.5340
1127.00,0.5214
1126.00,0.5136
1125.00,0.5101
1124.00,0.5102
1123.00,0.5128
1122.00,0.5166
1121.00,0.5210
1120.00,0.5261
1119.00,0.5325
1118.00,0.5408
1117.00,0.5516
1116.00,0.5642
1115.00,0.5759
1114.00,0.5822
1113.00,0.5796
1112.00,0.5678
1111.00,0.5498
1110.00,0.5299
1109.00,0.5113
1108.00,0.4957
1107.00,0.4839
1106.00,0.4758
1105.00,0.4707
1104.00,0.4681
1103.00,0.4673
1102.00,0.4674
1101.00,0.4680
1100.00,0.4690
1099.00,0.4699
1098.00,0.4701
1097.00,0.4693
1096.00,0.4678
1095.00,0.4660
1094.00,0.4643
1093.00,0.4629
1092.00,0.4623
1091.00,0.4632
1090.00,0.4657
1089.00,0.4702
1088.00,0.4767
1087.00,0.4854
1086.00,0.4959
1085.00,0.5081
1084.00,0.5218
1083.00,0.5369
1082.00,0.5526
1081.00,0.5679
1080.00,0.5819
1079.00,0.5935
1078.00,0.6015
1077.00,0.6052
1076.00,0.6043
1075.00,0.5995
1074.00,0.5917
1073.00,0.5822
1072.00,0.5723
1071.00,0.5629
1070.00,0.5545
1069.00,0.5472
1068.00,0.5412
1067.00,0.5366
1066.00,0.5335
1065.00,0.5318
1064.00,0.5313
1063.00,0.5321
1062.00,0.5338
1061.00,0.5359
1060.00,0.5381
1059.00,0.5399
1058.00,0.5406
1057.00,0.5402
1056.00,0.5388
1055.00,0.5372
1054.00,0.5358
1053.00,0.5351
1052.00,0.5356
1051.00,0.5378
1050.00,0.5414
1049.00,0.5459
1048.00,0.5507
1047.00,0.5554
1046.00,0.5593
1045.00,0.5624
1044.00,0.5647
1043.00,0.5666
1042.00,0.5684
1041.00,0.5704
1040.00,0.5727
1039.00,0.5753
1038.00,0.5778
1037.00,0.5801
1036.00,0.5825
1035.00,0.5856
1034.00,0.5900
1033.00,0.5964
1032.00,0.6053
1031.00,0.6162
1030.00,0.6282
1029.00,0.6394
1028.00,0.6483
1027.00,0.6534
1026.00,0.6540
1025.00,0.6507
1024.00,0.6449
1023.00,0.6385
1022.00,0.6329
1021.00,0.6290
1020.00,0.6274
1019.00,0.6280
1018.00,0.6304
1017.00,0.6342
1016.00,0.6392
1015.00,0.6451
1014.00,0.6512
1013.00,0.6570
1012.00,0.6624
1011.00,0.6676
1010.00,0.6733
1009.00,0.6798
1008.00,0.6869
1007.00,0.6944
1006.00,0.7016
1005.00,0.7082
1004.00,0.7141
1003.00,0.7192
1002.00,0.7229
1001.00,0.7247
1000.00,0.7240
999.00,0.7205
998.00,0.7138
997.00,0.7044
996.00,0.6927
995.00,0.6798
994.00,0.6662
993.00,0.6524
992.00,0.6384
991.00,0.6242
990.00,0.6099
989.00,0.5957
988.00,0.5822
987.00,0.5696
986.00,0.5579
985.00,0.5467
984.00,0.5361
983.00,0.5259
982.00,0.5161
981.00,0.5064
980.00,0.4968
979.00,0.4873
978.00,0.4781
977.00,0.4694
976.00,0.4614
975.00,0.4543
974.00,0.4481
973.00,0.4429
972.00,0.4389
971.00,0.4362
970.00,0.4345
969.00,0.4337
968.00,0.4335
967.00,0.4338
966.00,0.4340
965.00,0.4336
964.00,0.4320
963.00,0.4291
962.00,0.4249
961.00,0.4198
960.00,0.4148
959.00,0.4106
958.00,0.4076
957.00,0.4056
956.00,0.4042
955.00,0.4031
954.00,0.4022
953.00,0.4013
952.00,0.4006
951.00,0.4003
950.00,0.4009
949.00,0.4024
948.00,0.4053
947.00,0.4093
946.00,0.4141
945.00,0.4190
944.00,0.4233
943.00,0.4265
942.00,0.4282
941.00,0.4284
940.00,0.4276
939.00,0.4263
938.00,0.4249
937.00,0.4236
936.00,0.4225
935.00,0.4219
934.00,0.4222
933.00,0.4236
932.00,0.4268
931.00,0.4325
930.00,0.4414
929.00,0.4538
928.00,0.4694
927.00,0.4870
926.00,0.5042
925.00,0.5183
924.00,0.5280
923.00,0.5338
922.00,0.5376
921.00,0.5415
920.00,0.5475
919.00,0.5572
918.00,0.5698
917.00,0.5798
916.00,0.5778
915.00,0.5580
914.00,0.5242
913.00,0.4868
912.00,0.4545
911.00,0.4307
910.00,0.4143
909.00,0.4029
908.00,0.3947
907.00,0.3887
906.00,0.3842
905.00,0.3809
904.00,0.3786
903.00,0.3774
902.00,0.3773
901.00,0.3779
900.00,0.3792
899.00,0.3813
898.00,0.3841
897.00,0.3878
896.00,0.3927
895.00,0.3989
894.00,0.4063
893.00,0.4148
892.00,0.4235
891.00,0.4316
890.00,0.4376
889.00,0.4406
888.00,0.4401
887.00,0.4365
886.00,0.4304
885.00,0.4231
884.00,0.4159
883.00,0.4101
882.00,0.4060
881.00,0.4037
880.00,0.4027
879.00,0.4027
878.00,0.4032
877.00,0.4038
876.00,0.4048
875.00,0.4062
874.00,0.4079
873.00,0.4098
872.00,0.4122
871.00,0.4153
870.00,0.4192
869.00,0.4240
868.00,0.4302
867.00,0.4380
866.00,0.4478
865.00,0.4592
864.00,0.4715
863.00,0.4829
862.00,0.4916
861.00,0.4954
860.00,0.4938
859.00,0.4873
858.00,0.4776
857.00,0.4671
856.00,0.4575
855.00,0.4502
854.00,0.4452
853.00,0.4425
852.00,0.4415
851.00,0.4418
850.00,0.4430
849.00,0.4448
848.00,0.4471
847.00,0.4500
846.00,0.4534
845.00,0.4573
844.00,0.4621
843.00,0.4684
842.00,0.4770
841.00,0.4887
840.00,0.5037
839.00,0.5212
838.00,0.5387
837.00,0.5528
836.00,0.5598
835.00,0.5572
834.00,0.5459
833.00,0.5294
832.00,0.5121
831.00,0.4973
830.00,0.4864
829.00,0.4797
828.00,0.4772
827.00,0.4784
826.00,0.4826
825.00,0.4891
824.00,0.4969
823.00,0.5047
822.00,0.5103
821.00,0.5123
820.00,0.5100
819.00,0.5041
818.00,0.4958
817.00,0.4867
816.00,0.4779
815.00,0.4705
814.00,0.4647
813.00,0.4605
812.00,0.4576
811.00,0.4555
810.00,0.4536
809.00,0.4515
808.00,0.4491
807.00,0.4467
806.00,0.4443
805.00,0.4419
804.00,0.4400
803.00,0.4389
802.00,0.4388
801.00,0.4396
800.00,0.4413
799.00,0.4435
798.00,0.4458
797.00,0.4482
796.00,0.4506
795.00,0.4532
794.00,0.4558
793.00,0.4582
792.00,0.4604
791.00,0.4625
790.00,0.4642
789.00,0.4652
788.00,0.4657
787.00,0.4661
786.00,0.4671
785.00,0.4697
784.00,0.4741
783.00,0.4800
782.00,0.4861
781.00,0.4902
780.00,0.4907
779.00,0.4866
778.00,0.4787
777.00,0.4689
776.00,0.4592
775.00,0.4513
774.00,0.4461
773.00,0.4438
772.00,0.4443
771.00,0.4473
770.00,0.4522
769.00,0.4586
768.00,0.4664
767.00,0.4752
766.00,0.4845
765.00,0.4939
764.00,0.5030
763.00,0.5120
762.00,0.5209
761.00,0.5296
760.00,0.5379
759.00,0.5459
758.00,0.5541
757.00,0.5641
756.00,0.5768
755.00,0.5913
754.00,0.6046
753.00,0.6133
752.00,0.6170
751.00,0.6189
750.00,0.6237
749.00,0.6350
748.00,0.6546
747.00,0.6818
746.00,0.7139
745.00,0.7451
744.00,0.7669
743.00,0.7717
742.00,0.7585
741.00,0.7345
740.00,0.7099
739.00,0.6920
738.00,0.6834
737.00,0.6834
736.00,0.6903
735.00,0.7026
734.00,0.7197
733.00,0.7417
732.00,0.7693
731.00,0.8037
730.00,0.8461
729.00,0.8982
728.00,0.9618
727.00,1.0380
726.00,1.1263
725.00,1.2224
724.00,1.3165
723.00,1.3909
722.00,1.4213
721.00,1.3912
720.00,1.3096
719.00,1.2048
718.00,1.1009
717.00,1.0099
716.00,0.9349
715.00,0.8746
714.00,0.8259
713.00,0.7859
712.00,0.7521
711.00,0.7235
710.00,0.6991
709.00,0.6781
708.00,0.6600
707.00,0.6443
706.00,0.6304
705.00,0.6181
704.00,0.6071
703.00,0.5971
702.00,0.5879
701.00,0.5792
700.00,0.5708
699.00,0.5629
698.00,0.5551
697.00,0.5476
696.00,0.5405
695.00,0.5342
694.00,0.5288
693.00,0.5245
692.00,0.5213
691.00,0.5191
690.00,0.5174
689.00,0.5159
688.00,0.5150
687.00,0.5151
686.00,0.5165
685.00,0.5190
684.00,0.5226
683.00,0.5272
682.00,0.5329
681.00,0.5397
680.00,0.5478
679.00,0.5571
678.00,0.5674
677.00,0.5780
676.00,0.5880
675.00,0.5965
674.00,0.6023
673.00,0.6052
672.00,0.6054
671.00,0.6037
670.00,0.6004
669.00,0.5949
668.00,0.5867
667.00,0.5788
666.00,0.5746
665.00,0.5733
664.00,0.5730
663.00,0.5724
662.00,0.5712
661.00,0.5690
660.00,0.5658
659.00,0.5618
658.00,0.5574
657.00,0.5530
656.00,0.5488
655.00,0.5452
654.00,0.5421
653.00,0.5396
652.00,0.5381
651.00,0.5380
650.00,0.5392
649.00,0.5412
648.00,0.5433
647.00,0.5457
646.00,0.5481
645.00,0.5500
644.00,0.5510
643.00,0.5509
642.00,0.5496
641.00,0.5472
640.00,0.5434
639.00,0.5382
638.00,0.5321
637.00,0.5254
636.00,0.5185
635.00,0.5120
634.00,0.5067
633.00,0.5028
632.00,0.5004
631.00,0.4992
630.00,0.4992
629.00,0.5002
628.00,0.5024
627.00,0.5058
626.00,0.5105
625.00,0.5163
624.00,0.5232
623.00,0.5309
622.00,0.5393
621.00,0.5479
620.00,0.5564
619.00,0.5647
618.00,0.5716
617.00,0.5761
616.00,0.5774
615.00,0.5756
614.00,0.5713
613.00,0.5655
612.00,0.5589
611.00,0.5524
610.00,0.5467
609.00,0.5419
608.00,0.5385
607.00,0.5367
606.00,0.5365
605.00,0.5377
604.00,0.5400
603.00,0.5430
602.00,0.5461
601.00,0.5485
600.00,0.5499
599.00,0.5502
598.00,0.5494
597.00,0.5478
596.00,0.5456
595.00,0.5438
594.00,0.5425
593.00,0.5418
592.00,0.5416
591.00,0.5419
590.00,0.5431
589.00,0.5451
588.00,0.5475
587.00,0.5505
586.00,0.5540
585.00,0.5581
584.00,0.5625
583.00,0.5665
582.00,0.5698
581.00,0.5726
580.00,0.5758
579.00,0.5801
578.00,0.5857
577.00,0.5925
576.00,0.6003
575.00,0.6090
574.00,0.6191
573.00,0.6314
572.00,0.6460
571.00,0.6624
570.00,0.6798
569.00,0.6981
568.00,0.7182
567.00,0.7398
566.00,0.7623
565.00,0.7857
564.00,0.8101
563.00,0.8345
562.00,0.8562
561.00,0.8731
560.00,0.8842
559.00,0.8887
558.00,0.8856
557.00,0.8755
556.00,0.8601
555.00,0.8415
554.00,0.8215
553.00,0.8018
552.00,0.7839
551.00,0.7686
550.00,0.7563
