Created as New Dataset,
cm-1,A
4000.00,0.3781
3999.00,0.3777
3998.00,0.3774
3997.00,0.3770
3996.00,0.3767
3995.00,0.3764
3994.00,0.3761
3993.00,0.3759
3992.00,0.3757
3991.00,0.3755
3990.00,0.3752
3989.00,0.3749
3988.00,0.3746
3987.00,0.3743
3986.00,0.3740
3985.00,0.3737
3984.00,0.3733
3983.00,0.3730
3982.00,0.3727
3981.00,0.3725
3980.00,0.3722
3979.00,0.3719
3978.00,0.3716
3977.00,0.3713
3976.00,0.3709
3975.00,0.3705
3974.00,0.3702
3973.00,0.3699
3972.00,0.3696
3971.00,0.3694
3970.00,0.3691
3969.00,0.3688
3968.00,0.3685
3967.00,0.3682
3966.00,0.3680
3965.00,0.3678
3964.00,0.3676
3963.00,0.3674
3962.00,0.3672
3961.00,0.3669
3960.00,0.3667
3959.00,0.3665
3958.00,0.3664
3957.00,0.3663
3956.00,0.3663
3955.00,0.3662
3954.00,0.3662
3953.00,0.3661
3952.00,0.3659
3951.00,0.3657
3950.00,0.3655
3949.00,0.3654
3948.00,0.3653
3947.00,0.3653
3946.00,0.3652
3945.00,0.3651
3944.00,0.3650
3943.00,0.3649
3942.00,0.3648
3941.00,0.3647
3940.00,0.3646
3939.00,0.3645
3938.00,0.3645
3937.00,0.3644
3936.00,0.3643
3935.00,0.3643
3934.00,0.3642
3933.00,0.3641
3932.00,0.3640
3931.00,0.3639
3930.00,0.3639
3929.00,0.3638
3928.00,0.3637
3927.00,0.3635
3926.00,0.3634
3925.00,0.3633
3924.00,0.3632
3923.00,0.3631
3922.00,0.3631
3921.00,0.3630
3920.00,0.3630
3919.00,0.3631
3918.00,0.3631
3917.00,0.3632
3916.00,0.3632
3915.00,0.3633
3914.00,0.3633
3913.00,0.3633
3912.00,0.3633
3911.00,0.3634
3910.00,0.3635
3909.00,0.3634
3908.00,0.3634
3907.00,0.3632
3906.00,0.3631
3905.00,0.3630
3904.00,0.3630
3903.00,0.3631
3902.00,0.3632
3901.00,0.3631
3900.00,0.3630
3899.00,0.3629
3898.00,0.3628
3897.00,0.3627
3896.00,0.3626
3895.00,0.3625
3894.00,0.3624
3893.00,0.3622
3892.00,0.3620
3891.00,0.3618
3890.00,0.3617
3889.00,0.3616
3888.00,0.3614
3887.00,0.3613
3886.00,0.3614
3885.00,0.3615
3884.00,0.3615
3883.00,0.3613
3882.00,0.3611
3881.00,0.3610
3880.00,0.3611
3879.00,0.3612
3878.00,0.3611
3877.00,0.3610
3876.00,0.3609
3875.00,0.3609
3874.00,0.3609
3873.00,0.3609
3872.00,0.3607
3871.00,0.3604
3870.00,0.3603
3869.00,0.3604
3868.00,0.3604
3867.00,0.3602
3866.00,0.3599
3865.00,0.3598
3864.00,0.3597
3863.00,0.3596
3862.00,0.3594
3861.00,0.3593
3860.00,0.3593
3859.00,0.3593
3858.00,0.3592
3857.00,0.3592
3856.00,0.3590
3855.00,0.3588
3854.00,0.3587
3853.00,0.3587
3852.00,0.3587
3851.00,0.3585
3850.00,0.3583
3849.00,0.3582
3848.00,0.3583
3847.00,0.3583
3846.00,0.3582
3845.00,0.3580
3844.00,0.3579
3843.00,0.3578
3842.00,0.3577
3841.00,0.3577
3840.00,0.3577
3839.00,0.3578
3838.00,0.3578
3837.00,0.3579
3836.00,0.3579
3835.00,0.3577
3834.00,0.3576
3833.00,0.3574
3832.00,0.3574
3831.00,0.3574
3830.00,0.3573
3829.00,0.3572
3828.00,0.3570
3827.00,0.3569
3826.00,0.3568
3825.00,0.3568
3824.00,0.3566
3823.00,0.3564
3822.00,0.3562
3821.00,0.3563
3820.00,0.3563
3819.00,0.3562
3818.00,0.3559
3817.00,0.3556
3816.00,0.3555
3815.00,0.3554
3814.00,0.3552
3813.00,0.3549
3812.00,0.3546
3811.00,0.3544
3810.00,0.3543
3809.00,0.3540
3808.00,0.3537
3807.00,0.3535
3806.00,0.3535
3805.00,0.3534
3804.00,0.3532
3803.00,0.3529
3802.00,0.3529
3801.00,0.3530
3800.00,0.3530
3799.00,0.3528
3798.00,0.3524
3797.00,0.3522
3796.00,0.3522
3795.00,0.3522
3794.00,0.3521
3793.00,0.3519
3792.00,0.3517
3791.00,0.3515
3790.00,0.3513
3789.00,0.3512
3788.00,0.3510
3787.00,0.3508
3786.00,0.3506
3785.00,0.3504
3784.00,0.3503
3783.00,0.3501
3782.00,0.3500
3781.00,0.3498
3780.00,0.3496
3779.00,0.3494
3778.00,0.3493
3777.00,0.3491
3776.00,0.3489
3775.00,0.3487
3774.00,0.3486
3773.00,0.3484
3772.00,0.3483
3771.00,0.3481
3770.00,0.3479
3769.00,0.3478
3768.00,0.3476
3767.00,0.3474
3766.00,0.3473
3765.00,0.3472
3764.00,0.3472
3763.00,0.3471
3762.00,0.3470
3761.00,0.3468
3760.00,0.3467
3759.00,0.3465
3758.00,0.3463
3757.00,0.3462
3756.00,0.3461
3755.00,0.3459
3754.00,0.3458
3753.00,0.3457
3752.00,0.3455
3751.00,0.3454
3750.00,0.3453
3749.00,0.3452
3748.00,0.3451
3747.00,0.3449
3746.00,0.3447
3745.00,0.3446
3744.00,0.3447
3743.00,0.3447
3742.00,0.3444
3741.00,0.3440
3740.00,0.3438
3739.00,0.3437
3738.00,0.3436
3737.00,0.3435
3736.00,0.3433
3735.00,0.3433
3734.00,0.3432
3733.00,0.3431
3732.00,0.3431
3731.00,0.3430
3730.00,0.3429
3729.00,0.3427
3728.00,0.3425
3727.00,0.3424
3726.00,0.3422
3725.00,0.3420
3724.00,0.3417
3723.00,0.3415
3722.00,0.3415
3721.00,0.3414
3720.00,0.3414
3719.00,0.3412
3718.00,0.3410
3717.00,0.3409
3716.00,0.3408
3715.00,0.3407
3714.00,0.3406
3713.00,0.3405
3712.00,0.3404
3711.00,0.3402
3710.00,0.3402
3709.00,0.3402
3708.00,0.3402
3707.00,0.3402
3706.00,0.3402
3705.00,0.3401
3704.00,0.3399
3703.00,0.3398
3702.00,0.3398
3701.00,0.3397
3700.00,0.3397
3699.00,0.3396
3698.00,0.3396
3697.00,0.3396
3696.00,0.3397
3695.00,0.3398
3694.00,0.3398
3693.00,0.3399
3692.00,0.3399
3691.00,0.3398
3690.00,0.3398
3689.00,0.3397
3688.00,0.3398
3687.00,0.3399
3686.00,0.3399
3685.00,0.3399
3684.00,0.3399
3683.00,0.3398
3682.00,0.3397
3681.00,0.3395
3680.00,0.3394
3679.00,0.3393
3678.00,0.3391
3677.00,0.3388
3676.00,0.3387
3675.00,0.3389
3674.00,0.3391
3673.00,0.3390
3672.00,0.3389
3671.00,0.3389
3670.00,0.3390
3669.00,0.3391
3668.00,0.3390
3667.00,0.3389
3666.00,0.3388
3665.00,0.3388
3664.00,0.3389
3663.00,0.3389
3662.00,0.3390
3661.00,0.3390
3660.00,0.3391
3659.00,0.3392
3658.00,0.3393
3657.00,0.3394
3656.00,0.3395
3655.00,0.3397
3654.00,0.3398
3653.00,0.3399
3652.00,0.3400
3651.00,0.3402
3650.00,0.3404
3649.00,0.3405
3648.00,0.3405
3647.00,0.3406
3646.00,0.3406
3645.00,0.3407
3644.00,0.3408
3643.00,0.3408
3642.00,0.3409
3641.00,0.3410
3640.00,0.3410
3639.00,0.3411
3638.00,0.3412
3637.00,0.3413
3636.00,0.3414
3635.00,0.3415
3634.00,0.3416
3633.00,0.3419
3632.00,0.3422
3631.00,0.3424
3630.00,0.3425
3629.00,0.3428
3628.00,0.3431
3627.00,0.3434
3626.00,0.3436
3625.00,0.3438
3624.00,0.3441
3623.00,0.3444
3622.00,0.3446
3621.00,0.3446
3620.00,0.3445
3619.00,0.3444
3618.00,0.3443
3617.00,0.3443
3616.00,0.3442
3615.00,0.3442
3614.00,0.3442
3613.00,0.3443
3612.00,0.3444
3611.00,0.3443
3610.00,0.3442
3609.00,0.3442
3608.00,0.3442
3607.00,0.3443
3606.00,0.3442
3605.00,0.3441
3604.00,0.3439
3603.00,0.3436
3602.00,0.3433
3601.00,0.3429
3600.00,0.3424
3599.00,0.3419
3598.00,0.3413
3597.00,0.3407
3596.00,0.3402
3595.00,0.3397
3594.00,0.3392
3593.00,0.3388
3592.00,0.3385
3591.00,0.3383
3590.00,0.3381
3589.00,0.3378
3588.00,0.3376
3587.00,0.3375
3586.00,0.3373
3585.00,0.3372
3584.00,0.3372
3583.00,0.3372
3582.00,0.3373
3581.00,0.3373
3580.00,0.3374
3579.00,0.3373
3578.00,0.3373
3577.00,0.3373
3576.00,0.3374
3575.00,0.3375
3574.00,0.3376
3573.00,0.3377
3572.00,0.3378
3571.00,0.3379
3570.00,0.3380
3569.00,0.3381
3568.00,0.3382
3567.00,0.3384
3566.00,0.3386
3565.00,0.3388
3564.00,0.3390
3563.00,0.3392
3562.00,0.3394
3561.00,0.3396
3560.00,0.3398
3559.00,0.3400
3558.00,0.3403
3557.00,0.3405
3556.00,0.3408
3555.00,0.3410
3554.00,0.3413
3553.00,0.3416
3552.00,0.3420
3551.00,0.3424
3550.00,0.3429
3549.00,0.3433
3548.00,0.3437
3547.00,0.3441
3546.00,0.3445
3545.00,0.3449
3544.00,0.3453
3543.00,0.3457
3542.00,0.3461
3541.00,0.3465
3540.00,0.3469
3539.00,0.3473
3538.00,0.3476
3537.00,0.3479
3536.00,0.3483
3535.00,0.3486
3534.00,0.3488
3533.00,0.3489
3532.00,0.3491
3531.00,0.3492
3530.00,0.3495
3529.00,0.3498
3528.00,0.3501
3527.00,0.3504
3526.00,0.3507
3525.00,0.3510
3524.00,0.3514
3523.00,0.3517
3522.00,0.3520
3521.00,0.3523
3520.00,0.3526
3519.00,0.3529
3518.00,0.3533
3517.00,0.3536
3516.00,0.3540
3515.00,0.3543
3514.00,0.3547
3513.00,0.3552
3512.00,0.3557
3511.00,0.3562
3510.00,0.3567
3509.00,0.3572
3508.00,0.3576
3507.00,0.3581
3506.00,0.3586
3505.00,0.3591
3504.00,0.3596
3503.00,0.3601
3502.00,0.3606
3501.00,0.3610
3500.00,0.3615
3499.00,0.3619
3498.00,0.3624
3497.00,0.3630
3496.00,0.3636
3495.00,0.3642
3494.00,0.3648
3493.00,0.3655
3492.00,0.3661
3491.00,0.3668
3490.00,0.3675
3489.00,0.3682
3488.00,0.3688
3487.00,0.3694
3486.00,0.3700
3485.00,0.3706
3484.00,0.3712
3483.00,0.3718
3482.00,0.3723
3481.00,0.3728
3480.00,0.3733
3479.00,0.3738
3478.00,0.3742
3477.00,0.3747
3476.00,0.3751
3475.00,0.3755
3474.00,0.3760
3473.00,0.3765
3472.00,0.3770
3471.00,0.3776
3470.00,0.3780
3469.00,0.3785
3468.00,0.3789
3467.00,0.3794
3466.00,0.3799
3465.00,0.3804
3464.00,0.3809
3463.00,0.3814
3462.00,0.3819
3461.00,0.3825
3460.00,0.3831
3459.00,0.3837
3458.00,0.3842
3457.00,0.3848
3456.00,0.3853
3455.00,0.3859
3454.00,0.3866
3453.00,0.3872
3452.00,0.3879
3451.00,0.3884
3450.00,0.3890
3449.00,0.3895
3448.00,0.3901
3447.00,0.3907
3446.00,0.3914
3445.00,0.3920
3444.00,0.3927
3443.00,0.3934
3442.00,0.3940
3441.00,0.3947
3440.00,0.3954
3439.00,0.3961
3438.00,0.3968
3437.00,0.3975
3436.00,0.3981
3435.00,0.3987
3434.00,0.3994
3433.00,0.4001
3432.00,0.4008
3431.00,0.4015
3430.00,0.4021
3429.00,0.4028
3428.00,0.4036
3427.00,0.4043
3426.00,0.4051
3425.00,0.4058
3424.00,0.4065
3423.00,0.4072
3422.00,0.4078
3421.00,0.4085
3420.00,0.4092
3419.00,0.4100
3418.00,0.4108
3417.00,0.4117
3416.00,0.4125
3415.00,0.4134
3414.00,0.4143
3413.00,0.4152
3412.00,0.4160
3411.00,0.4169
3410.00,0.4176
3409.00,0.4184
3408.00,0.4193
3407.00,0.4202
3406.00,0.4211
3405.00,0.4220
3404.00,0.4229
3403.00,0.4238
3402.00,0.4247
3401.00,0.4256
3400.00,0.4266
3399.00,0.4276
3398.00,0.4285
3397.00,0.4294
3396.00,0.4303
3395.00,0.4312
3394.00,0.4321
3393.00,0.4331
3392.00,0.4341
3391.00,0.4351
3390.00,0.4362
3389.00,0.4373
3388.00,0.4384
3387.00,0.4394
3386.00,0.4404
3385.00,0.4414
3384.00,0.4424
3383.00,0.4434
3382.00,0.4444
3381.00,0.4455
3380.00,0.4467
3379.00,0.4479
3378.00,0.4490
3377.00,0.4501
3376.00,0.4512
3375.00,0.4523
3374.00,0.4535
3373.00,0.4547
3372.00,0.4560
3371.00,0.4573
3370.00,0.4586
3369.00,0.4598
3368.00,0.4611
3367.00,0.4624
3366.00,0.4637
3365.00,0.4651
3364.00,0.4666
3363.00,0.4681
3362.00,0.4696
3361.00,0.4710
3360.00,0.4724
3359.00,0.4738
3358.00,0.4752
3357.00,0.4766
3356.00,0.4781
3355.00,0.4796
3354.00,0.4811
3353.00,0.4827
3352.00,0.4843
3351.00,0.4858
3350.00,0.4873
3349.00,0.4887
3348.00,0.4902
3347.00,0.4917
3346.00,0.4931
3345.00,0.4945
3344.00,0.4958
3343.00,0.4970
3342.00,0.4982
3341.00,0.4994
3340.00,0.5006
3339.00,0.5019
3338.00,0.5031
3337.00,0.5042
3336.00,0.5051
3335.00,0.5059
3334.00,0.5066
3333.00,0.5073
3332.00,0.5079
3331.00,0.5085
3330.00,0.5090
3329.00,0.5095
3328.00,0.5099
3327.00,0.5102
3326.00,0.5104
3325.00,0.5105
3324.00,0.5104
3323.00,0.5104
3322.00,0.5102
3321.00,0.5101
3320.00,0.5098
3319.00,0.5095
3318.00,0.5091
3317.00,0.5086
3316.00,0.5080
3315.00,0.5074
3314.00,0.5068
3313.00,0.5061
3312.00,0.5054
3311.00,0.5046
3310.00,0.5039
3309.00,0.5031
3308.00,0.5024
3307.00,0.5017
3306.00,0.5009
3305.00,0.5002
3304.00,0.4994
3303.00,0.4985
3302.00,0.4976
3301.00,0.4968
3300.00,0.4961
3299.00,0.4954
3298.00,0.4948
3297.00,0.4942
3296.00,0.4936
3295.00,0.4930
3294.00,0.4925
3293.00,0.4921
3292.00,0.4917
3291.00,0.4913
3290.00,0.4909
3289.00,0.4907
3288.00,0.4904
3287.00,0.4902
3286.00,0.4900
3285.00,0.4898
3284.00,0.4897
3283.00,0.4896
3282.00,0.4895
3281.00,0.4895
3280.00,0.4895
3279.00,0.4896
3278.00,0.4898
3277.00,0.4900
3276.00,0.4902
3275.00,0.4904
3274.00,0.4906
3273.00,0.4909
3272.00,0.4912
3271.00,0.4915
3270.00,0.4919
3269.00,0.4923
3268.00,0.4927
3267.00,0.4931
3266.00,0.4936
3265.00,0.4941
3264.00,0.4946
3263.00,0.4951
3262.00,0.4956
3261.00,0.4962
3260.00,0.4968
3259.00,0.4973
3258.00,0.4978
3257.00,0.4983
3256.00,0.4988
3255.00,0.4994
3254.00,0.4999
3253.00,0.5004
3252.00,0.5010
3251.00,0.5015
3250.00,0.5019
3249.00,0.5023
3248.00,0.5027
3247.00,0.5031
3246.00,0.5035
3245.00,0.5040
3244.00,0.5045
3243.00,0.5049
3242.00,0.5053
3241.00,0.5056
3240.00,0.5058
3239.00,0.5060
3238.00,0.5061
3237.00,0.5063
3236.00,0.5066
3235.00,0.5068
3234.00,0.5070
3233.00,0.5072
3232.00,0.5073
3231.00,0.5074
3230.00,0.5075
3229.00,0.5075
3228.00,0.5076
3227.00,0.5076
3226.00,0.5076
3225.00,0.5076
3224.00,0.5076
3223.00,0.5075
3222.00,0.5075
3221.00,0.5075
3220.00,0.5075
3219.00,0.5075
3218.00,0.5074
3217.00,0.5072
3216.00,0.5071
3215.00,0.5069
3214.00,0.5068
3213.00,0.5066
3212.00,0.5064
3211.00,0.5062
3210.00,0.5061
3209.00,0.5059
3208.00,0.5058
3207.00,0.5056
3206.00,0.5054
3205.00,0.5053
3204.00,0.5051
3203.00,0.5048
3202.00,0.5046
3201.00,0.5043
3200.00,0.5040
3199.00,0.5037
3198.00,0.5034
3197.00,0.5031
3196.00,0.5029
3195.00,0.5026
3194.00,0.5023
3193.00,0.5020
3192.00,0.5017
3191.00,0.5014
3190.00,0.5011
3189.00,0.5009
3188.00,0.5005
3187.00,0.5001
3186.00,0.4996
3185.00,0.4991
3184.00,0.4986
3183.00,0.4980
3182.00,0.4975
3181.00,0.4970
3180.00,0.4964
3179.00,0.4958
3178.00,0.4952
3177.00,0.4946
3176.00,0.4940
3175.00,0.4933
3174.00,0.4926
3173.00,0.4919
3172.00,0.4912
3171.00,0.4905
3170.00,0.4898
3169.00,0.4890
3168.00,0.4883
3167.00,0.4877
3166.00,0.4870
3165.00,0.4862
3164.00,0.4855
3163.00,0.4847
3162.00,0.4839
3161.00,0.4832
3160.00,0.4825
3159.00,0.4818
3158.00,0.4811
3157.00,0.4805
3156.00,0.4798
3155.00,0.4791
3154.00,0.4784
3153.00,0.4778
3152.00,0.4772
3151.00,0.4766
3150.00,0.4760
3149.00,0.4754
3148.00,0.4748
3147.00,0.4742
3146.00,0.4736
3145.00,0.4730
3144.00,0.4724
3143.00,0.4718
3142.00,0.4713
3141.00,0.4707
3140.00,0.4701
3139.00,0.4695
3138.00,0.4690
3137.00,0.4686
3136.00,0.4683
3135.00,0.4680
3134.00,0.4676
3133.00,0.4673
3132.00,0.4671
3131.00,0.4668
3130.00,0.4667
3129.00,0.4666
3128.00,0.4666
3127.00,0.4666
3126.00,0.4666
3125.00,0.4667
3124.00,0.4669
3123.00,0.4671
3122.00,0.4673
3121.00,0.4676
3120.00,0.4678
3119.00,0.4680
3118.00,0.4683
3117.00,0.4687
3116.00,0.4691
3115.00,0.4695
3114.00,0.4700
3113.00,0.4705
3112.00,0.4710
3111.00,0.4715
3110.00,0.4721
3109.00,0.4728
3108.00,0.4735
3107.00,0.4744
3106.00,0.4752
3105.00,0.4760
3104.00,0.4767
3103.00,0.4774
3102.00,0.4782
3101.00,0.4790
3100.00,0.4799
3099.00,0.4808
3098.00,0.4819
3097.00,0.4831
3096.00,0.4844
3095.00,0.4859
3094.00,0.4874
3093.00,0.4891
3092.00,0.4910
3091.00,0.4931
3090.00,0.4953
3089.00,0.4977
3088.00,0.5003
3087.00,0.5029
3086.00,0.5057
3085.00,0.5085
3084.00,0.5113
3083.00,0.5142
3082.00,0.5173
3081.00,0.5205
3080.00,0.5239
3079.00,0.5275
3078.00,0.5313
3077.00,0.5354
3076.00,0.5396
3075.00,0.5439
3074.00,0.5482
3073.00,0.5524
3072.00,0.5567
3071.00,0.5609
3070.00,0.5652
3069.00,0.5696
3068.00,0.5740
3067.00,0.5784
3066.00,0.5828
3065.00,0.5870
3064.00,0.5910
3063.00,0.5947
3062.00,0.5980
3061.00,0.6012
3060.00,0.6040
3059.00,0.6067
3058.00,0.6094
3057.00,0.6120
3056.00,0.6148
3055.00,0.6177
3054.00,0.6209
3053.00,0.6243
3052.00,0.6279
3051.00,0.6317
3050.00,0.6357
3049.00,0.6398
3048.00,0.6441
3047.00,0.6486
3046.00,0.6533
3045.00,0.6581
3044.00,0.6628
3043.00,0.6674
3042.00,0.6720
3041.00,0.6765
3040.00,0.6811
3039.00,0.6858
3038.00,0.6906
3037.00,0.6957
3036.00,0.7011
3035.00,0.7071
3034.00,0.7135
3033.00,0.7205
3032.00,0.7278
3031.00,0.7357
3030.00,0.7440
3029.00,0.7527
3028.00,0.7617
3027.00,0.7708
3026.00,0.7802
3025.00,0.7899
3024.00,0.8000
3023.00,0.8105
3022.00,0.8214
3021.00,0.8326
3020.00,0.8441
3019.00,0.8560
3018.00,0.8679
3017.00,0.8799
3016.00,0.8918
3015.00,0.9037
3014.00,0.9159
3013.00,0.9284
3012.00,0.9414
3011.00,0.9548
3010.00,0.9688
3009.00,0.9833
3008.00,0.9983
3007.00,1.0139
3006.00,1.0301
3005.00,1.0470
3004.00,1.0643
3003.00,1.0822
3002.00,1.1005
3001.00,1.1196
3000.00,1.1395
2999.00,1.1605
2998.00,1.1830
2997.00,1.2072
2996.00,1.2337
2995.00,1.2631
2994.00,1.2962
2993.00,1.3336
2992.00,1.3755
2991.00,1.4226
2990.00,1.4752
2989.00,1.5338
2988.00,1.5988
2987.00,1.6707
2986.00,1.7504
2985.00,1.8389
2984.00,1.9367
2983.00,2.0447
2982.00,2.1636
2981.00,2.2935
2980.00,2.4347
2979.00,2.5888
2978.00,2.7605
2977.00,2.9552
2976.00,3.1768
2975.00,3.4216
2974.00,3.6518
2973.00,3.7550
2972.00,3.7515
2971.00,3.7533
2970.00,3.8869
2969.00,4.1544
2968.00,4.0038
2967.00,3.7366
2966.00,3.5749
2965.00,3.5728
2964.00,3.6442
2963.00,3.7486
2962.00,3.9533
2961.00,4.0810
2960.00,4.0245
2959.00,4.0005
2958.00,4.1427
2957.00,4.4549
2956.00,4.3849
2955.00,4.2873
2954.00,4.4417
2953.00,4.2506
2952.00,3.9474
2951.00,3.7560
2950.00,3.7263
2949.00,3.7772
2948.00,3.8588
2947.00,4.0202
2946.00,4.0926
2945.00,3.9703
2944.00,3.8682
2943.00,3.9167
2942.00,4.1233
2941.00,4.1836
2940.00,3.9908
2939.00,3.8240
2938.00,3.7888
2937.00,3.8617
2936.00,4.0349
2935.00,4.2904
2934.00,4.2134
2933.00,3.9784
2932.00,3.8447
2931.00,3.8220
2930.00,3.7855
2929.00,3.7030
2928.00,3.6517
2927.00,3.6693
2926.00,3.7685
2925.00,3.9458
2924.00,4.2684
2923.00,4.6507
2922.00,4.4706
2921.00,4.2453
2920.00,4.2007
2919.00,4.2210
2918.00,4.0973
2917.00,4.0280
2916.00,4.0763
2915.00,4.1813
2914.00,4.2126
2913.00,4.1137
2912.00,3.9471
2911.00,3.8053
2910.00,3.7609
2909.00,3.8112
2908.00,3.8888
2907.00,3.9073
2906.00,3.8743
2905.00,3.8345
2904.00,3.8120
2903.00,3.8544
2902.00,3.9980
2901.00,4.1299
2900.00,4.1202
2899.00,4.0945
2898.00,4.2328
2897.00,4.6307
2896.00,4.9081
2895.00,4.7172
2894.00,4.5534
2893.00,4.5175
2892.00,4.4617
2891.00,4.3058
2890.00,4.2231
2889.00,4.2575
2888.00,4.4244
2887.00,4.7871
2886.00,4.7582
2885.00,4.4245
2884.00,4.2535
2883.00,4.2456
2882.00,4.3221
2881.00,4.2589
2880.00,4.2538
2879.00,4.3655
2878.00,4.2216
2877.00,3.9776
2876.00,3.8191
2875.00,3.8104
2874.00,3.8829
2873.00,3.9521
2872.00,4.0213
2871.00,4.0729
2870.00,4.2486
2869.00,4.6926
2868.00,4.5700
2867.00,4.3428
2866.00,4.2568
2865.00,4.3021
2864.00,4.2514
2863.00,4.1002
2862.00,4.0553
2861.00,3.9563
2860.00,3.7858
2859.00,3.6655
2858.00,3.6602
2857.00,3.7903
2856.00,4.0123
2855.00,4.2406
2854.00,4.3948
2853.00,4.6004
2852.00,4.6915
2851.00,4.4184
2850.00,4.1143
2849.00,3.9527
2848.00,3.9185
2847.00,4.0156
2846.00,4.3200
2845.00,4.5221
2844.00,4.2497
2843.00,4.0215
2842.00,3.9560
2841.00,3.9718
2840.00,3.9191
2839.00,3.7111
2838.00,3.4285
2837.00,3.1672
2836.00,2.9452
2835.00,2.7537
2834.00,2.5803
2833.00,2.4184
2832.00,2.2695
2831.00,2.1363
2830.00,2.0180
2829.00,1.9122
2828.00,1.8171
2827.00,1.7313
2826.00,1.6540
2825.00,1.5839
2824.00,1.5203
2823.00,1.4624
2822.00,1.4097
2821.00,1.3612
2820.00,1.3165
2819.00,1.2752
2818.00,1.2369
2817.00,1.2014
2816.00,1.1684
2815.00,1.1376
2814.00,1.1089
2813.00,1.0817
2812.00,1.0560
2811.00,1.0314
2810.00,1.0080
2809.00,0.9858
2808.00,0.9648
2807.00,0.9451
2806.00,0.9265
2805.00,0.9089
2804.00,0.8922
2803.00,0.8764
2802.00,0.8613
2801.00,0.8468
2800.00,0.8329
2799.00,0.8198
2798.00,0.8073
2797.00,0.7953
2796.00,0.7839
2795.00,0.7728
2794.00,0.7621
2793.00,0.7516
2792.00,0.7413
2791.00,0.7313
2790.00,0.7214
2789.00,0.7118
2788.00,0.7024
2787.00,0.6932
2786.00,0.6842
2785.00,0.6754
2784.00,0.6668
2783.00,0.6584
2782.00,0.6505
2781.00,0.6429
2780.00,0.6356
2779.00,0.6287
2778.00,0.6221
2777.00,0.6158
2776.00,0.6099
2775.00,0.6043
2774.00,0.5990
2773.00,0.5941
2772.00,0.5895
2771.00,0.5852
2770.00,0.5813
2769.00,0.5777
2768.00,0.5744
2767.00,0.5716
2766.00,0.5690
2765.00,0.5667
2764.00,0.5646
2763.00,0.5629
2762.00,0.5614
2761.00,0.5600
2760.00,0.5587
2759.00,0.5575
2758.00,0.5563
2757.00,0.5552
2756.00,0.5541
2755.00,0.5530
2754.00,0.5521
2753.00,0.5513
2752.00,0.5508
2751.00,0.5506
2750.00,0.5505
2749.00,0.5506
2748.00,0.5509
2747.00,0.5514
2746.00,0.5522
2745.00,0.5533
2744.00,0.5547
2743.00,0.5564
2742.00,0.5584
2741.00,0.5608
2740.00,0.5636
2739.00,0.5668
2738.00,0.5705
2737.00,0.5748
2736.00,0.5795
2735.00,0.5846
2734.00,0.5899
2733.00,0.5950
2732.00,0.5998
2731.00,0.6039
2730.00,0.6070
2729.00,0.6090
2728.00,0.6099
2727.00,0.6097
2726.00,0.6088
2725.00,0.6074
2724.00,0.6055
2723.00,0.6033
2722.00,0.6007
2721.00,0.5978
2720.00,0.5946
2719.00,0.5911
2718.00,0.5873
2717.00,0.5831
2716.00,0.5788
2715.00,0.5742
2714.00,0.5697
2713.00,0.5652
2712.00,0.5611
2711.00,0.5572
2710.00,0.5538
2709.00,0.5508
2708.00,0.5482
2707.00,0.5460
2706.00,0.5441
2705.00,0.5425
2704.00,0.5413
2703.00,0.5403
2702.00,0.5397
2701.00,0.5392
2700.00,0.5390
2699.00,0.5391
2698.00,0.5393
2697.00,0.5397
2696.00,0.5401
2695.00,0.5406
2694.00,0.5412
2693.00,0.5420
2692.00,0.5430
2691.00,0.5440
2690.00,0.5450
2689.00,0.5460
2688.00,0.5468
2687.00,0.5476
2686.00,0.5483
2685.00,0.5489
2684.00,0.5495
2683.00,0.5500
2682.00,0.5505
2681.00,0.5509
2680.00,0.5513
2679.00,0.5516
2678.00,0.5520
2677.00,0.5524
2676.00,0.5528
2675.00,0.5531
2674.00,0.5535
2673.00,0.5538
2672.00,0.5539
2671.00,0.5539
2670.00,0.5537
2669.00,0.5531
2668.00,0.5523
2667.00,0.5512
2666.00,0.5499
2665.00,0.5483
2664.00,0.5466
2663.00,0.5447
2662.00,0.5427
2661.00,0.5406
2660.00,0.5385
2659.00,0.5364
2658.00,0.5345
2657.00,0.5325
2656.00,0.5305
2655.00,0.5285
2654.00,0.5266
2653.00,0.5249
2652.00,0.5233
2651.00,0.5218
2650.00,0.5203
2649.00,0.5190
2648.00,0.5176
2647.00,0.5163
2646.00,0.5151
2645.00,0.5139
2644.00,0.5127
2643.00,0.5116
2642.00,0.5105
2641.00,0.5095
2640.00,0.5085
2639.00,0.5076
2638.00,0.5066
2637.00,0.5056
2636.00,0.5047
2635.00,0.5037
2634.00,0.5029
2633.00,0.5021
2632.00,0.5012
2631.00,0.5003
2630.00,0.4994
2629.00,0.4985
2628.00,0.4977
2627.00,0.4969
2626.00,0.4960
2625.00,0.4951
2624.00,0.4942
2623.00,0.4933
2622.00,0.4925
2621.00,0.4917
2620.00,0.4909
2619.00,0.4901
2618.00,0.4893
2617.00,0.4885
2616.00,0.4878
2615.00,0.4870
2614.00,0.4861
2613.00,0.4852
2612.00,0.4843
2611.00,0.4834
2610.00,0.4826
2609.00,0.4817
2608.00,0.4808
2607.00,0.4798
2606.00,0.4788
2605.00,0.4777
2604.00,0.4767
2603.00,0.4756
2602.00,0.4744
2601.00,0.4731
2600.00,0.4718
2599.00,0.4705
2598.00,0.4691
2597.00,0.4677
2596.00,0.4662
2595.00,0.4648
2594.00,0.4633
2593.00,0.4617
2592.00,0.4601
2591.00,0.4586
2590.00,0.4570
2589.00,0.4555
2588.00,0.4539
2587.00,0.4524
2586.00,0.4508
2585.00,0.4493
2584.00,0.4478
2583.00,0.4462
2582.00,0.4445
2581.00,0.4428
2580.00,0.4411
2579.00,0.4395
2578.00,0.4378
2577.00,0.4361
2576.00,0.4345
2575.00,0.4328
2574.00,0.4313
2573.00,0.4297
2572.00,0.4282
2571.00,0.4266
2570.00,0.4251
2569.00,0.4237
2568.00,0.4222
2567.00,0.4207
2566.00,0.4191
2565.00,0.4176
2564.00,0.4161
2563.00,0.4147
2562.00,0.4133
2561.00,0.4119
2560.00,0.4106
2559.00,0.4093
2558.00,0.4081
2557.00,0.4068
2556.00,0.4057
2555.00,0.4046
2554.00,0.4034
2553.00,0.4023
2552.00,0.4013
2551.00,0.4002
2550.00,0.3993
2549.00,0.3984
2548.00,0.3976
2547.00,0.3968
2546.00,0.3961
2545.00,0.3954
2544.00,0.3947
2543.00,0.3940
2542.00,0.3932
2541.00,0.3924
2540.00,0.3916
2539.00,0.3908
2538.00,0.3901
2537.00,0.3893
2536.00,0.3887
2535.00,0.3881
2534.00,0.3874
2533.00,0.3867
2532.00,0.3859
2531.00,0.3850
2530.00,0.3841
2529.00,0.3832
2528.00,0.3823
2527.00,0.3813
2526.00,0.3802
2525.00,0.3792
2524.00,0.3781
2523.00,0.3771
2522.00,0.3761
2521.00,0.3751
2520.00,0.3742
2519.00,0.3734
2518.00,0.3725
2517.00,0.3718
2516.00,0.3710
2515.00,0.3702
2514.00,0.3694
2513.00,0.3688
2512.00,0.3682
2511.00,0.3676
2510.00,0.3670
2509.00,0.3664
2508.00,0.3659
2507.00,0.3654
2506.00,0.3648
2505.00,0.3644
2504.00,0.3639
2503.00,0.3635
2502.00,0.3630
2501.00,0.3626
2500.00,0.3621
2499.00,0.3616
2498.00,0.3611
2497.00,0.3606
2496.00,0.3601
2495.00,0.3596
2494.00,0.3591
2493.00,0.3586
2492.00,0.3580
2491.00,0.3575
2490.00,0.3570
2489.00,0.3565
2488.00,0.3560
2487.00,0.3556
2486.00,0.3551
2485.00,0.3547
2484.00,0.3543
2483.00,0.3540
2482.00,0.3537
2481.00,0.3533
2480.00,0.3531
2479.00,0.3528
2478.00,0.3525
2477.00,0.3522
2476.00,0.3520
2475.00,0.3518
2474.00,0.3516
2473.00,0.3515
2472.00,0.3513
2471.00,0.3511
2470.00,0.3510
2469.00,0.3508
2468.00,0.3506
2467.00,0.3503
2466.00,0.3501
2465.00,0.3498
2464.00,0.3496
2463.00,0.3493
2462.00,0.3491
2461.00,0.3488
2460.00,0.3485
2459.00,0.3482
2458.00,0.3480
2457.00,0.3477
2456.00,0.3475
2455.00,0.3473
2454.00,0.3470
2453.00,0.3468
2452.00,0.3466
2451.00,0.3465
2450.00,0.3463
2449.00,0.3462
2448.00,0.3461
2447.00,0.3461
2446.00,0.3460
2445.00,0.3460
2444.00,0.3460
2443.00,0.3461
2442.00,0.3461
2441.00,0.3462
2440.00,0.3463
2439.00,0.3464
2438.00,0.3465
2437.00,0.3467
2436.00,0.3468
2435.00,0.3469
2434.00,0.3470
2433.00,0.3471
2432.00,0.3472
2431.00,0.3473
2430.00,0.3473
2429.00,0.3474
2428.00,0.3475
2427.00,0.3475
2426.00,0.3476
2425.00,0.3476
2424.00,0.3477
2423.00,0.3477
2422.00,0.3477
2421.00,0.3477
2420.00,0.3477
2419.00,0.3477
2418.00,0.3476
2417.00,0.3476
2416.00,0.3475
2415.00,0.3474
2414.00,0.3474
2413.00,0.3473
2412.00,0.3473
2411.00,0.3474
2410.00,0.3475
2409.00,0.3475
2408.00,0.3475
2407.00,0.3475
2406.00,0.3474
2405.00,0.3474
2404.00,0.3473
2403.00,0.3473
2402.00,0.3473
2401.00,0.3473
2400.00,0.3472
2399.00,0.3471
2398.00,0.3469
2397.00,0.3468
2396.00,0.3467
2395.00,0.3465
2394.00,0.3464
2393.00,0.3463
2392.00,0.3462
2391.00,0.3461
2390.00,0.3461
2389.00,0.3460
2388.00,0.3459
2387.00,0.3458
2386.00,0.3456
2385.00,0.3455
2384.00,0.3455
2383.00,0.3454
2382.00,0.3454
2381.00,0.3453
2380.00,0.3453
2379.00,0.3453
2378.00,0.3453
2377.00,0.3452
2376.00,0.3452
2375.00,0.3451
2374.00,0.3450
2373.00,0.3449
2372.00,0.3448
2371.00,0.3447
2370.00,0.3445
2369.00,0.3444
2368.00,0.3443
2367.00,0.3443
2366.00,0.3443
2365.00,0.3442
2364.00,0.3442
2363.00,0.3441
2362.00,0.3440
2361.00,0.3440
2360.00,0.3440
2359.00,0.3439
2358.00,0.3439
2357.00,0.3438
2356.00,0.3437
2355.00,0.3436
2354.00,0.3435
2353.00,0.3434
2352.00,0.3433
2351.00,0.3432
2350.00,0.3431
2349.00,0.3430
2348.00,0.3430
2347.00,0.3429
2346.00,0.3428
2345.00,0.3427
2344.00,0.3426
2343.00,0.3425
2342.00,0.3424
2341.00,0.3423
2340.00,0.3422
2339.00,0.3422
2338.00,0.3422
2337.00,0.3421
2336.00,0.3420
2335.00,0.3418
2334.00,0.3417
2333.00,0.3415
2332.00,0.3414
2331.00,0.3412
2330.00,0.3410
2329.00,0.3408
2328.00,0.3406
2327.00,0.3404
2326.00,0.3402
2325.00,0.3400
2324.00,0.3399
2323.00,0.3398
2322.00,0.3396
2321.00,0.3395
2320.00,0.3393
2319.00,0.3390
2318.00,0.3387
2317.00,0.3385
2316.00,0.3382
2315.00,0.3380
2314.00,0.3377
2313.00,0.3374
2312.00,0.3371
2311.00,0.3368
2310.00,0.3364
2309.00,0.3361
2308.00,0.3357
2307.00,0.3354
2306.00,0.3351
2305.00,0.3347
2304.00,0.3344
2303.00,0.3341
2302.00,0.3339
2301.00,0.3337
2300.00,0.3334
2299.00,0.3331
2298.00,0.3328
2297.00,0.3325
2296.00,0.3322
2295.00,0.3319
2294.00,0.3316
2293.00,0.3314
2292.00,0.3311
2291.00,0.3308
2290.00,0.3305
2289.00,0.3302
2288.00,0.3300
2287.00,0.3297
2286.00,0.3295
2285.00,0.3292
2284.00,0.3289
2283.00,0.3287
2282.00,0.3284
2281.00,0.3281
2280.00,0.3278
2279.00,0.3275
2278.00,0.3273
2277.00,0.3270
2276.00,0.3267
2275.00,0.3264
2274.00,0.3261
2273.00,0.3258
2272.00,0.3256
2271.00,0.3255
2270.00,0.3253
2269.00,0.3251
2268.00,0.3249
2267.00,0.3247
2266.00,0.3245
2265.00,0.3243
2264.00,0.3242
2263.00,0.3240
2262.00,0.3238
2261.00,0.3235
2260.00,0.3233
2259.00,0.3231
2258.00,0.3228
2257.00,0.3225
2256.00,0.3222
2255.00,0.3220
2254.00,0.3217
2253.00,0.3214
2252.00,0.3212
2251.00,0.3209
2250.00,0.3207
2249.00,0.3205
2248.00,0.3203
2247.00,0.3201
2246.00,0.3198
2245.00,0.3196
2244.00,0.3194
2243.00,0.3192
2242.00,0.3190
2241.00,0.3189
2240.00,0.3188
2239.00,0.3186
2238.00,0.3185
2237.00,0.3184
2236.00,0.3183
2235.00,0.3181
2234.00,0.3180
2233.00,0.3180
2232.00,0.3179
2231.00,0.3179
2230.00,0.3178
2229.00,0.3177
2228.00,0.3176
2227.00,0.3175
2226.00,0.3174
2225.00,0.3173
2224.00,0.3173
2223.00,0.3172
2222.00,0.3171
2221.00,0.3170
2220.00,0.3169
2219.00,0.3168
2218.00,0.3166
2217.00,0.3165
2216.00,0.3164
2215.00,0.3163
2214.00,0.3161
2213.00,0.3160
2212.00,0.3159
2211.00,0.3158
2210.00,0.3158
2209.00,0.3157
2208.00,0.3158
2207.00,0.3158
2206.00,0.3158
2205.00,0.3157
2204.00,0.3156
2203.00,0.3155
2202.00,0.3154
2201.00,0.3154
2200.00,0.3155
2199.00,0.3155
2198.00,0.3156
2197.00,0.3156
2196.00,0.3157
2195.00,0.3158
2194.00,0.3159
2193.00,0.3160
2192.00,0.3160
2191.00,0.3160
2190.00,0.3161
2189.00,0.3161
2188.00,0.3161
2187.00,0.3160
2186.00,0.3160
2185.00,0.3159
2184.00,0.3159
2183.00,0.3158
2182.00,0.3157
2181.00,0.3156
2180.00,0.3155
2179.00,0.3153
2178.00,0.3152
2177.00,0.3150
2176.00,0.3149
2175.00,0.3146
2174.00,0.3144
2173.00,0.3142
2172.00,0.3141
2171.00,0.3140
2170.00,0.3139
2169.00,0.3138
2168.00,0.3137
2167.00,0.3136
2166.00,0.3135
2165.00,0.3133
2164.00,0.3132
2163.00,0.3130
2162.00,0.3129
2161.00,0.3128
2160.00,0.3128
2159.00,0.3128
2158.00,0.3127
2157.00,0.3126
2156.00,0.3124
2155.00,0.3123
2154.00,0.3121
2153.00,0.3120
2152.00,0.3119
2151.00,0.3117
2150.00,0.3114
2149.00,0.3112
2148.00,0.3109
2147.00,0.3106
2146.00,0.3103
2145.00,0.3099
2144.00,0.3094
2143.00,0.3090
2142.00,0.3085
2141.00,0.3080
2140.00,0.3076
2139.00,0.3072
2138.00,0.3068
2137.00,0.3065
2136.00,0.3062
2135.00,0.3059
2134.00,0.3056
2133.00,0.3054
2132.00,0.3052
2131.00,0.3050
2130.00,0.3048
2129.00,0.3047
2128.00,0.3045
2127.00,0.3044
2126.00,0.3042
2125.00,0.3042
2124.00,0.3041
2123.00,0.3041
2122.00,0.3040
2121.00,0.3040
2120.00,0.3040
2119.00,0.3039
2118.00,0.3038
2117.00,0.3038
2116.00,0.3038
2115.00,0.3037
2114.00,0.3036
2113.00,0.3035
2112.00,0.3034
2111.00,0.3032
2110.00,0.3031
2109.00,0.3030
2108.00,0.3029
2107.00,0.3028
2106.00,0.3027
2105.00,0.3026
2104.00,0.3025
2103.00,0.3025
2102.00,0.3024
2101.00,0.3023
2100.00,0.3022
2099.00,0.3021
2098.00,0.3020
2097.00,0.3018
2096.00,0.3017
2095.00,0.3016
2094.00,0.3016
2093.00,0.3016
2092.00,0.3015
2091.00,0.3015
2090.00,0.3015
2089.00,0.3016
2088.00,0.3016
2087.00,0.3016
2086.00,0.3016
2085.00,0.3016
2084.00,0.3016
2083.00,0.3016
2082.00,0.3016
2081.00,0.3016
2080.00,0.3017
2079.00,0.3017
2078.00,0.3018
2077.00,0.3019
2076.00,0.3020
2075.00,0.3020
2074.00,0.3020
2073.00,0.3019
2072.00,0.3020
2071.00,0.3020
2070.00,0.3020
2069.00,0.3021
2068.00,0.3021
2067.00,0.3022
2066.00,0.3023
2065.00,0.3024
2064.00,0.3025
2063.00,0.3027
2062.00,0.3028
2061.00,0.3029
2060.00,0.3030
2059.00,0.3031
2058.00,0.3031
2057.00,0.3032
2056.00,0.3032
2055.00,0.3033
2054.00,0.3034
2053.00,0.3036
2052.00,0.3037
2051.00,0.3038
2050.00,0.3040
2049.00,0.3042
2048.00,0.3043
2047.00,0.3045
2046.00,0.3046
2045.00,0.3048
2044.00,0.3050
2043.00,0.3052
2042.00,0.3053
2041.00,0.3055
2040.00,0.3056
2039.00,0.3058
2038.00,0.3058
2037.00,0.3059
2036.00,0.3060
2035.00,0.3061
2034.00,0.3061
2033.00,0.3062
2032.00,0.3062
2031.00,0.3062
2030.00,0.3062
2029.00,0.3061
2028.00,0.3061
2027.00,0.3060
2026.00,0.3059
2025.00,0.3057
2024.00,0.3056
2023.00,0.3054
2022.00,0.3051
2021.00,0.3048
2020.00,0.3044
2019.00,0.3039
2018.00,0.3034
2017.00,0.3029
2016.00,0.3024
2015.00,0.3018
2014.00,0.3012
2013.00,0.3007
2012.00,0.3001
2011.00,0.2996
2010.00,0.2992
2009.00,0.2988
2008.00,0.2985
2007.00,0.2982
2006.00,0.2979
2005.00,0.2976
2004.00,0.2974
2003.00,0.2972
2002.00,0.2970
2001.00,0.2969
2000.00,0.2968
1999.00,0.2967
1998.00,0.2965
1997.00,0.2965
1996.00,0.2965
1995.00,0.2965
1994.00,0.2964
1993.00,0.2963
1992.00,0.2962
1991.00,0.2962
1990.00,0.2961
1989.00,0.2961
1988.00,0.2960
1987.00,0.2960
1986.00,0.2960
1985.00,0.2960
1984.00,0.2960
1983.00,0.2959
1982.00,0.2957
1981.00,0.2956
1980.00,0.2955
1979.00,0.2954
1978.00,0.2953
1977.00,0.2952
1976.00,0.2951
1975.00,0.2950
1974.00,0.2950
1973.00,0.2950
1972.00,0.2950
1971.00,0.2949
1970.00,0.2949
1969.00,0.2949
1968.00,0.2950
1967.00,0.2951
1966.00,0.2953
1965.00,0.2954
1964.00,0.2955
1963.00,0.2955
1962.00,0.2956
1961.00,0.2957
1960.00,0.2958
1959.00,0.2960
1958.00,0.2961
1957.00,0.2963
1956.00,0.2965
1955.00,0.2967
1954.00,0.2969
1953.00,0.2971
1952.00,0.2973
1951.00,0.2974
1950.00,0.2975
1949.00,0.2975
1948.00,0.2977
1947.00,0.2979
1946.00,0.2981
1945.00,0.2984
1944.00,0.2987
1943.00,0.2991
1942.00,0.2995
1941.00,0.3001
1940.00,0.3005
1939.00,0.3008
1938.00,0.3009
1937.00,0.3009
1936.00,0.3008
1935.00,0.3006
1934.00,0.3003
1933.00,0.3002
1932.00,0.3002
1931.00,0.3002
1930.00,0.3002
1929.00,0.3003
1928.00,0.3005
1927.00,0.3006
1926.00,0.3008
1925.00,0.3010
1924.00,0.3012
1923.00,0.3015
1922.00,0.3020
1921.00,0.3025
1920.00,0.3030
1919.00,0.3034
1918.00,0.3037
1917.00,0.3042
1916.00,0.3046
1915.00,0.3048
1914.00,0.3048
1913.00,0.3049
1912.00,0.3049
1911.00,0.3050
1910.00,0.3050
1909.00,0.3051
1908.00,0.3052
1907.00,0.3053
1906.00,0.3052
1905.00,0.3052
1904.00,0.3052
1903.00,0.3051
1902.00,0.3051
1901.00,0.3051
1900.00,0.3051
1899.00,0.3052
1898.00,0.3052
1897.00,0.3053
1896.00,0.3055
1895.00,0.3057
1894.00,0.3059
1893.00,0.3061
1892.00,0.3062
1891.00,0.3063
1890.00,0.3065
1889.00,0.3067
1888.00,0.3069
1887.00,0.3071
1886.00,0.3071
1885.00,0.3071
1884.00,0.3072
1883.00,0.3072
1882.00,0.3072
1881.00,0.3072
1880.00,0.3072
1879.00,0.3071
1878.00,0.3070
1877.00,0.3069
1876.00,0.3068
1875.00,0.3067
1874.00,0.3065
1873.00,0.3064
1872.00,0.3063
1871.00,0.3061
1870.00,0.3059
1869.00,0.3058
1868.00,0.3059
1867.00,0.3058
1866.00,0.3055
1865.00,0.3050
1864.00,0.3046
1863.00,0.3041
1862.00,0.3036
1861.00,0.3033
1860.00,0.3031
1859.00,0.3029
1858.00,0.3026
1857.00,0.3024
1856.00,0.3022
1855.00,0.3019
1854.00,0.3017
1853.00,0.3015
1852.00,0.3015
1851.00,0.3014
1850.00,0.3013
1849.00,0.3013
1848.00,0.3014
1847.00,0.3015
1846.00,0.3015
1845.00,0.3014
1844.00,0.3015
1843.00,0.3016
1842.00,0.3016
1841.00,0.3015
1840.00,0.3012
1839.00,0.3010
1838.00,0.3008
1837.00,0.3008
1836.00,0.3008
1835.00,0.3007
1834.00,0.3007
1833.00,0.3007
1832.00,0.3007
1831.00,0.3008
1830.00,0.3009
1829.00,0.3010
1828.00,0.3010
1827.00,0.3007
1826.00,0.3003
1825.00,0.3001
1824.00,0.3000
1823.00,0.3000
1822.00,0.2999
1821.00,0.2998
1820.00,0.2998
1819.00,0.2997
1818.00,0.2997
1817.00,0.2997
1816.00,0.2999
1815.00,0.3000
1814.00,0.3001
1813.00,0.3003
1812.00,0.3005
1811.00,0.3008
1810.00,0.3011
1809.00,0.3014
1808.00,0.3016
1807.00,0.3019
1806.00,0.3021
1805.00,0.3025
1804.00,0.3029
1803.00,0.3033
1802.00,0.3038
1801.00,0.3045
1800.00,0.3054
1799.00,0.3061
1798.00,0.3067
1797.00,0.3071
1796.00,0.3075
1795.00,0.3078
1794.00,0.3080
1793.00,0.3084
1792.00,0.3088
1791.00,0.3093
1790.00,0.3096
1789.00,0.3099
1788.00,0.3101
1787.00,0.3102
1786.00,0.3103
1785.00,0.3106
1784.00,0.3110
1783.00,0.3115
1782.00,0.3119
1781.00,0.3123
1780.00,0.3128
1779.00,0.3133
1778.00,0.3137
1777.00,0.3143
1776.00,0.3149
1775.00,0.3156
1774.00,0.3162
1773.00,0.3171
1772.00,0.3182
1771.00,0.3191
1770.00,0.3197
1769.00,0.3200
1768.00,0.3205
1767.00,0.3213
1766.00,0.3223
1765.00,0.3235
1764.00,0.3246
1763.00,0.3258
1762.00,0.3274
1761.00,0.3293
1760.00,0.3313
1759.00,0.3331
1758.00,0.3351
1757.00,0.3375
1756.00,0.3404
1755.00,0.3434
1754.00,0.3461
1753.00,0.3488
1752.00,0.3519
1751.00,0.3554
1750.00,0.3592
1749.00,0.3628
1748.00,0.3658
1747.00,0.3681
1746.00,0.3697
1745.00,0.3711
1744.00,0.3723
1743.00,0.3733
1742.00,0.3741
1741.00,0.3745
1740.00,0.3746
1739.00,0.3742
1738.00,0.3737
1737.00,0.3729
1736.00,0.3718
1735.00,0.3705
1734.00,0.3695
1733.00,0.3691
1732.00,0.3689
1731.00,0.3685
1730.00,0.3679
1729.00,0.3677
1728.00,0.3679
1727.00,0.3685
1726.00,0.3694
1725.00,0.3708
1724.00,0.3729
1723.00,0.3756
1722.00,0.3788
1721.00,0.3824
1720.00,0.3867
1719.00,0.3922
1718.00,0.3998
1717.00,0.4093
1716.00,0.4198
1715.00,0.4307
1714.00,0.4423
1713.00,0.4544
1712.00,0.4663
1711.00,0.4778
1710.00,0.4882
1709.00,0.4966
1708.00,0.5019
1707.00,0.5038
1706.00,0.5023
1705.00,0.4976
1704.00,0.4909
1703.00,0.4832
1702.00,0.4739
1701.00,0.4614
1700.00,0.4475
1699.00,0.4363
1698.00,0.4279
1697.00,0.4198
1696.00,0.4109
1695.00,0.4026
1694.00,0.3965
1693.00,0.3920
1692.00,0.3879
1691.00,0.3841
1690.00,0.3807
1689.00,0.3779
1688.00,0.3757
1687.00,0.3739
1686.00,0.3721
1685.00,0.3704
1684.00,0.3689
1683.00,0.3674
1682.00,0.3661
1681.00,0.3647
1680.00,0.3634
1679.00,0.3623
1678.00,0.3616
1677.00,0.3609
1676.00,0.3603
1675.00,0.3598
1674.00,0.3596
1673.00,0.3596
1672.00,0.3594
1671.00,0.3591
1670.00,0.3588
1669.00,0.3585
1668.00,0.3583
1667.00,0.3579
1666.00,0.3576
1665.00,0.3574
1664.00,0.3573
1663.00,0.3574
1662.00,0.3576
1661.00,0.3579
1660.00,0.3580
1659.00,0.3580
1658.00,0.3581
1657.00,0.3586
1656.00,0.3591
1655.00,0.3596
1654.00,0.3604
1653.00,0.3617
1652.00,0.3631
1651.00,0.3639
1650.00,0.3645
1649.00,0.3651
1648.00,0.3658
1647.00,0.3666
1646.00,0.3675
1645.00,0.3684
1644.00,0.3692
1643.00,0.3700
1642.00,0.3709
1641.00,0.3722
1640.00,0.3739
1639.00,0.3757
1638.00,0.3777
1637.00,0.3800
1636.00,0.3827
1635.00,0.3850
1634.00,0.3869
1633.00,0.3884
1632.00,0.3900
1631.00,0.3916
1630.00,0.3936
1629.00,0.3962
1628.00,0.3992
1627.00,0.4023
1626.00,0.4053
1625.00,0.4087
1624.00,0.4128
1623.00,0.4174
1622.00,0.4222
1621.00,0.4275
1620.00,0.4331
1619.00,0.4394
1618.00,0.4473
1617.00,0.4577
1616.00,0.4694
1615.00,0.4802
1614.00,0.4895
1613.00,0.4986
1612.00,0.5082
1611.00,0.5182
1610.00,0.5281
1609.00,0.5379
1608.00,0.5473
1607.00,0.5555
1606.00,0.5623
1605.00,0.5684
1604.00,0.5741
1603.00,0.5794
1602.00,0.5843
1601.00,0.5895
1600.00,0.5956
1599.00,0.6021
1598.00,0.6096
1597.00,0.6192
1596.00,0.6319
1595.00,0.6480
1594.00,0.6682
1593.00,0.6942
1592.00,0.7278
1591.00,0.7702
1590.00,0.8234
1589.00,0.8916
1588.00,0.9792
1587.00,1.0895
1586.00,1.2251
1585.00,1.3905
1584.00,1.5886
1583.00,1.8009
1582.00,1.9591
1581.00,1.9883
1580.00,1.9005
1579.00,1.7453
1578.00,1.5575
1577.00,1.3693
1576.00,1.2078
1575.00,1.0876
1574.00,1.0056
1573.00,0.9491
1572.00,0.9071
1571.00,0.8738
1570.00,0.8495
1569.00,0.8377
1568.00,0.8399
1567.00,0.8554
1566.00,0.8850
1565.00,0.9313
1564.00,0.9922
1563.00,1.0584
1562.00,1.1186
1561.00,1.1640
1560.00,1.1726
1559.00,1.1144
1558.00,1.0199
1557.00,0.9372
1556.00,0.8695
1555.00,0.8063
1554.00,0.7483
1553.00,0.7012
1552.00,0.6658
1551.00,0.6376
1550.00,0.6136
1549.00,0.5941
1548.00,0.5795
1547.00,0.5681
1546.00,0.5583
1545.00,0.5503
1544.00,0.5441
1543.00,0.5395
1542.00,0.5357
1541.00,0.5321
1540.00,0.5280
1539.00,0.5232
1538.00,0.5185
1537.00,0.5148
1536.00,0.5118
1535.00,0.5089
1534.00,0.5061
1533.00,0.5041
1532.00,0.5034
1531.00,0.5034
1530.00,0.5038
1529.00,0.5048
1528.00,0.5060
1527.00,0.5067
1526.00,0.5069
1525.00,0.5071
1524.00,0.5075
1523.00,0.5080
1522.00,0.5091
1521.00,0.5113
1520.00,0.5146
1519.00,0.5181
1518.00,0.5217
1517.00,0.5255
1516.00,0.5291
1515.00,0.5315
1514.00,0.5326
1513.00,0.5332
1512.00,0.5341
1511.00,0.5356
1510.00,0.5379
1509.00,0.5419
1508.00,0.5486
1507.00,0.5587
1506.00,0.5708
1505.00,0.5824
1504.00,0.5923
1503.00,0.6005
1502.00,0.6080
1501.00,0.6156
1500.00,0.6232
1499.00,0.6302
1498.00,0.6374
1497.00,0.6462
1496.00,0.6565
1495.00,0.6670
1494.00,0.6773
1493.00,0.6883
1492.00,0.7006
1491.00,0.7146
1490.00,0.7305
1489.00,0.7487
1488.00,0.7681
1487.00,0.7886
1486.00,0.8113
1485.00,0.8377
1484.00,0.8684
1483.00,0.9039
1482.00,0.9460
1481.00,0.9960
1480.00,1.0523
1479.00,1.1138
1478.00,1.1838
1477.00,1.2676
1476.00,1.3661
1475.00,1.4790
1474.00,1.6148
1473.00,1.7928
1472.00,2.0235
1471.00,2.2909
1470.00,2.5730
1469.00,2.8645
1468.00,3.1320
1467.00,3.3009
1466.00,3.4858
1465.00,3.9835
1464.00,8.0000
1463.00,4.2963
1462.00,4.1119
1461.00,4.2519
1460.00,3.8377
1459.00,3.7989
1458.00,3.8444
1457.00,3.7249
1456.00,3.8333
1455.00,3.9208
1454.00,3.9055
1453.00,3.9976
1452.00,3.7085
1451.00,3.4240
1450.00,3.3042
1449.00,3.2827
1448.00,3.1996
1447.00,3.0388
1446.00,2.9172
1445.00,2.8191
1444.00,2.6811
1443.00,2.5146
1442.00,2.3652
1441.00,2.2397
1440.00,2.1243
1439.00,2.0107
1438.00,1.8956
1437.00,1.7760
1436.00,1.6582
1435.00,1.5537
1434.00,1.4630
1433.00,1.3781
1432.00,1.2944
1431.00,1.2138
1430.00,1.1408
1429.00,1.0781
1428.00,1.0264
1427.00,0.9852
1426.00,0.9518
1425.00,0.9236
1424.00,0.9003
1423.00,0.8825
1422.00,0.8694
1421.00,0.8582
1420.00,0.8476
1419.00,0.8376
1418.00,0.8290
1417.00,0.8215
1416.00,0.8152
1415.00,0.8102
1414.00,0.8065
1413.00,0.8038
1412.00,0.8019
1411.00,0.8007
1410.00,0.7993
1409.00,0.7966
1408.00,0.7921
1407.00,0.7855
1406.00,0.7765
1405.00,0.7652
1404.00,0.7531
1403.00,0.7418
1402.00,0.7318
1401.00,0.7227
1400.00,0.7147
1399.00,0.7088
1398.00,0.7053
1397.00,0.7039
1396.00,0.7051
1395.00,0.7099
1394.00,0.7188
1393.00,0.7322
1392.00,0.7515
1391.00,0.7788
1390.00,0.8167
1389.00,0.8683
1388.00,0.9377
1387.00,1.0259
1386.00,1.1272
1385.00,1.2338
1384.00,1.3435
1383.00,1.4600
1382.00,1.5874
1381.00,1.7295
1380.00,1.8895
1379.00,2.0578
1378.00,2.1951
1377.00,2.2466
1376.00,2.1925
1375.00,2.0589
1374.00,1.8922
1373.00,1.7342
1372.00,1.6032
1371.00,1.5008
1370.00,1.4246
1369.00,1.3735
1368.00,1.3431
1367.00,1.3219
1366.00,1.2939
1365.00,1.2477
1364.00,1.1836
1363.00,1.1118
1362.00,1.0451
1361.00,0.9908
1360.00,0.9496
1359.00,0.9192
1358.00,0.8969
1357.00,0.8811
1356.00,0.8705
1355.00,0.8639
1354.00,0.8600
1353.00,0.8576
1352.00,0.8555
1351.00,0.8530
1350.00,0.8499
1349.00,0.8463
1348.00,0.8427
1347.00,0.8394
1346.00,0.8366
1345.00,0.8342
1344.00,0.8320
1343.00,0.8298
1342.00,0.8269
1341.00,0.8224
1340.00,0.8158
1339.00,0.8069
1338.00,0.7961
1337.00,0.7837
1336.00,0.7700
1335.00,0.7559
1334.00,0.7421
1333.00,0.7294
1332.00,0.7182
1331.00,0.7087
1330.00,0.7010
1329.00,0.6950
1328.00,0.6906
1327.00,0.6876
1326.00,0.6860
1325.00,0.6853
1324.00,0.6853
1323.00,0.6858
1322.00,0.6866
1321.00,0.6873
1320.00,0.6880
1319.00,0.6889
1318.00,0.6903
1317.00,0.6922
1316.00,0.6947
1315.00,0.6975
1314.00,0.7008
1313.00,0.7045
1312.00,0.7084
1311.00,0.7123
1310.00,0.7159
1309.00,0.7190
1308.00,0.7216
1307.00,0.7236
1306.00,0.7248
1305.00,0.7246
1304.00,0.7230
1303.00,0.7202
1302.00,0.7163
1301.00,0.7118
1300.00,0.7067
1299.00,0.7014
1298.00,0.6958
1297.00,0.6901
1296.00,0.6846
1295.00,0.6795
1294.00,0.6750
1293.00,0.6709
1292.00,0.6670
1291.00,0.6633
1290.00,0.6596
1289.00,0.6561
1288.00,0.6527
1287.00,0.6494
1286.00,0.6460
1285.00,0.6423
1284.00,0.6384
1283.00,0.6346
1282.00,0.6311
1281.00,0.6281
1280.00,0.6255
1279.00,0.6233
1278.00,0.6212
1277.00,0.6189
1276.00,0.6165
1275.00,0.6142
1274.00,0.6122
1273.00,0.6105
1272.00,0.6092
1271.00,0.6083
1270.00,0.6076
1269.00,0.6068
1268.00,0.6053
1267.00,0.6028
1266.00,0.5993
1265.00,0.5953
1264.00,0.5913
1263.00,0.5879
1262.00,0.5853
1261.00,0.5832
1260.00,0.5815
1259.00,0.5800
1258.00,0.5785
1257.00,0.5768
1256.00,0.5749
1255.00,0.5731
1254.00,0.5714
1253.00,0.5699
1252.00,0.5686
1251.00,0.5673
1250.00,0.5661
1249.00,0.5646
1248.00,0.5629
1247.00,0.5610
1246.00,0.5588
1245.00,0.5561
1244.00,0.5530
1243.00,0.5498
1242.00,0.5466
1241.00,0.5434
1240.00,0.5404
1239.00,0.5377
1238.00,0.5354
1237.00,0.5333
1236.00,0.5316
1235.00,0.5305
1234.00,0.5299
1233.00,0.5296
1232.00,0.5296
1231.00,0.5298
1230.00,0.5301
1229.00,0.5300
1228.00,0.5291
1227.00,0.5271
1226.00,0.5245
1225.00,0.5214
1224.00,0.5183
1223.00,0.5156
1222.00,0.5136
1221.00,0.5120
1220.00,0.5109
1219.00,0.5104
1218.00,0.5102
1217.00,0.5103
1216.00,0.5107
1215.00,0.5115
1214.00,0.5125
1213.00,0.5131
1212.00,0.5132
1211.00,0.5127
1210.00,0.5119
1209.00,0.5107
1208.00,0.5093
1207.00,0.5077
1206.00,0.5062
1205.00,0.5045
1204.00,0.5028
1203.00,0.5014
1202.00,0.5001
1201.00,0.4990
1200.00,0.4982
1199.00,0.4977
1198.00,0.4973
1197.00,0.4967
1196.00,0.4960
1195.00,0.4951
1194.00,0.4944
1193.00,0.4936
1192.00,0.4929
1191.00,0.4924
1190.00,0.4919
1189.00,0.4914
1188.00,0.4908
1187.00,0.4903
1186.00,0.4899
1185.00,0.4896
1184.00,0.4894
1183.00,0.4893
1182.00,0.4896
1181.00,0.4900
1180.00,0.4906
1179.00,0.4914
1178.00,0.4926
1177.00,0.4942
1176.00,0.4965
1175.00,0.4996
1174.00,0.5035
1173.00,0.5081
1172.00,0.5129
1171.00,0.5173
1170.00,0.5206
1169.00,0.5222
1168.00,0.5223
1167.00,0.5212
1166.00,0.5198
1165.00,0.5185
1164.00,0.5177
1163.00,0.5176
1162.00,0.5182
1161.00,0.5192
1160.00,0.5205
1159.00,0.5219
1158.00,0.5232
1157.00,0.5241
1156.00,0.5245
1155.00,0.5242
1154.00,0.5232
1153.00,0.5215
1152.00,0.5193
1151.00,0.5168
1150.00,0.5141
1149.00,0.5115
1148.00,0.5089
1147.00,0.5066
1146.00,0.5047
1145.00,0.5031
1144.00,0.5020
1143.00,0.5017
1142.00,0.5023
1141.00,0.5038
1140.00,0.5064
1139.00,0.5101
1138.00,0.5149
1137.00,0.5209
1136.00,0.5279
1135.00,0.5354
1134.00,0.5422
1133.00,0.5462
1132.00,0.5462
1131.00,0.5422
1130.00,0.5354
1129.00,0.5276
1128.00,0.5204
1127.00,0.5149
1126.00,0.5113
1125.00,0.5090
1124.00,0.5075
1123.00,0.5062
1122.00,0.5048
1121.00,0.5032
1120.00,0.5019
1119.00,0.5015
1118.00,0.5024
1117.00,0.5044
1116.00,0.5074
1115.00,0.5103
1114.00,0.5119
1113.00,0.5110
1112.00,0.5073
1111.00,0.5019
1110.00,0.4961
1109.00,0.4907
1108.00,0.4863
1107.00,0.4832
1106.00,0.4813
1105.00,0.4801
1104.00,0.4794
1103.00,0.4790
1102.00,0.4785
1101.00,0.4779
1100.00,0.4770
1099.00,0.4762
1098.00,0.4754
1097.00,0.4747
1096.00,0.4741
1095.00,0.4739
1094.00,0.4741
1093.00,0.4745
1092.00,0.4752
1091.00,0.4761
1090.00,0.4772
1089.00,0.4787
1088.00,0.4804
1087.00,0.4829
1086.00,0.4861
1085.00,0.4902
1084.00,0.4951
1083.00,0.5008
1082.00,0.5072
1081.00,0.5142
1080.00,0.5214
1079.00,0.5283
1078.00,0.5336
1077.00,0.5364
1076.00,0.5362
1075.00,0.5333
1074.00,0.5286
1073.00,0.5230
1072.00,0.5174
1071.00,0.5125
1070.00,0.5083
1069.00,0.5049
1068.00,0.5024
1067.00,0.5007
1066.00,0.4999
1065.00,0.4995
1064.00,0.4994
1063.00,0.4996
1062.00,0.5001
1061.00,0.5007
1060.00,0.5013
1059.00,0.5015
1058.00,0.5015
1057.00,0.5013
1056.00,0.5008
1055.00,0.5004
1054.00,0.5003
1053.00,0.5004
1052.00,0.5008
1051.00,0.5018
1050.00,0.5033
1049.00,0.5051
1048.00,0.5068
1047.00,0.5084
1046.00,0.5097
1045.00,0.5105
1044.00,0.5109
1043.00,0.5109
1042.00,0.5105
1041.00,0.5099
1040.00,0.5093
1039.00,0.5087
1038.00,0.5081
1037.00,0.5075
1036.00,0.5072
1035.00,0.5073
1034.00,0.5080
1033.00,0.5092
1032.00,0.5106
1031.00,0.5122
1030.00,0.5134
1029.00,0.5138
1028.00,0.5132
1027.00,0.5114
1026.00,0.5082
1025.00,0.5038
1024.00,0.4986
1023.00,0.4933
1022.00,0.4885
1021.00,0.4843
1020.00,0.4804
1019.00,0.4768
1018.00,0.4736
1017.00,0.4705
1016.00,0.4678
1015.00,0.4655
1014.00,0.4636
1013.00,0.4620
1012.00,0.4607
1011.00,0.4597
1010.00,0.4592
1009.00,0.4590
1008.00,0.4591
1007.00,0.4597
1006.00,0.4606
1005.00,0.4618
1004.00,0.4633
1003.00,0.4648
1002.00,0.4665
1001.00,0.4680
1000.00,0.4691
999.00,0.4699
998.00,0.4701
997.00,0.4695
996.00,0.4683
995.00,0.4663
994.00,0.4639
993.00,0.4611
992.00,0.4582
991.00,0.4554
990.00,0.4528
989.00,0.4506
988.00,0.4488
987.00,0.4477
986.00,0.4475
985.00,0.4481
984.00,0.4493
983.00,0.4511
982.00,0.4533
981.00,0.4558
980.00,0.4584
979.00,0.4611
978.00,0.4636
977.00,0.4660
976.00,0.4679
975.00,0.4692
974.00,0.4701
973.00,0.4705
972.00,0.4706
971.00,0.4706
970.00,0.4705
969.00,0.4704
968.00,0.4703
967.00,0.4702
966.00,0.4698
965.00,0.4691
964.00,0.4680
963.00,0.4668
962.00,0.4655
961.00,0.4641
960.00,0.4628
959.00,0.4618
958.00,0.4612
957.00,0.4607
956.00,0.4603
955.00,0.4597
954.00,0.4592
953.00,0.4584
952.00,0.4575
951.00,0.4565
950.00,0.4559
949.00,0.4555
948.00,0.4554
947.00,0.4558
946.00,0.4566
945.00,0.4577
944.00,0.4590
943.00,0.4604
942.00,0.4620
941.00,0.4634
940.00,0.4646
939.00,0.4653
938.00,0.4656
937.00,0.4653
936.00,0.4644
935.00,0.4631
934.00,0.4614
933.00,0.4593
932.00,0.4570
931.00,0.4545
930.00,0.4524
929.00,0.4508
928.00,0.4498
927.00,0.4499
926.00,0.4512
925.00,0.4536
924.00,0.4573
923.00,0.4619
922.00,0.4662
921.00,0.4689
920.00,0.4688
919.00,0.4654
918.00,0.4594
917.00,0.4519
916.00,0.4441
915.00,0.4369
914.00,0.4309
913.00,0.4260
912.00,0.4223
911.00,0.4194
910.00,0.4172
909.00,0.4156
908.00,0.4144
907.00,0.4135
906.00,0.4129
905.00,0.4125
904.00,0.4126
903.00,0.4132
902.00,0.4144
901.00,0.4161
900.00,0.4183
899.00,0.4210
898.00,0.4243
897.00,0.4279
896.00,0.4318
895.00,0.4359
894.00,0.4401
893.00,0.4441
892.00,0.4479
891.00,0.4512
890.00,0.4537
889.00,0.4551
888.00,0.4551
887.00,0.4539
886.00,0.4520
885.00,0.4498
884.00,0.4482
883.00,0.4475
882.00,0.4478
881.00,0.4489
880.00,0.4504
879.00,0.4518
878.00,0.4527
877.00,0.4527
876.00,0.4520
875.00,0.4514
874.00,0.4510
873.00,0.4512
872.00,0.4517
871.00,0.4525
870.00,0.4535
869.00,0.4547
868.00,0.4563
867.00,0.4584
866.00,0.4612
865.00,0.4644
864.00,0.4676
863.00,0.4700
862.00,0.4705
861.00,0.4685
860.00,0.4639
859.00,0.4578
858.00,0.4516
857.00,0.4462
856.00,0.4422
855.00,0.4396
854.00,0.4378
853.00,0.4366
852.00,0.4354
851.00,0.4342
850.00,0.4329
849.00,0.4312
848.00,0.4291
847.00,0.4266
846.00,0.4238
845.00,0.4210
844.00,0.4184
843.00,0.4166
842.00,0.4157
841.00,0.4161
840.00,0.4181
839.00,0.4221
838.00,0.4276
837.00,0.4331
836.00,0.4370
835.00,0.4382
834.00,0.4367
833.00,0.4335
832.00,0.4301
831.00,0.4279
830.00,0.4276
829.00,0.4292
828.00,0.4323
827.00,0.4366
826.00,0.4418
825.00,0.4477
824.00,0.4541
823.00,0.4609
822.00,0.4680
821.00,0.4752
820.00,0.4822
819.00,0.4888
818.00,0.4946
817.00,0.4988
816.00,0.5011
815.00,0.5012
814.00,0.4994
813.00,0.4958
812.00,0.4907
811.00,0.4848
810.00,0.4786
809.00,0.4728
808.00,0.4673
807.00,0.4623
806.00,0.4575
805.00,0.4528
804.00,0.4477
803.00,0.4420
802.00,0.4358
801.00,0.4296
800.00,0.4240
799.00,0.4195
798.00,0.4161
797.00,0.4137
796.00,0.4120
795.00,0.4112
794.00,0.4112
793.00,0.4117
792.00,0.4128
791.00,0.4145
790.00,0.4168
789.00,0.4195
788.00,0.4225
787.00,0.4257
786.00,0.4294
785.00,0.4334
784.00,0.4377
783.00,0.4420
782.00,0.4458
781.00,0.4489
780.00,0.4513
779.00,0.4533
778.00,0.4553
777.00,0.4572
776.00,0.4589
775.00,0.4607
774.00,0.4627
773.00,0.4649
772.00,0.4673
771.00,0.4702
770.00,0.4734
769.00,0.4766
768.00,0.4797
767.00,0.4825
766.00,0.4849
765.00,0.4866
764.00,0.4880
763.00,0.4894
762.00,0.4915
761.00,0.4945
760.00,0.4981
759.00,0.5022
758.00,0.5061
757.00,0.5094
756.00,0.5122
755.00,0.5148
754.00,0.5177
753.00,0.5214
752.00,0.5257
751.00,0.5304
750.00,0.5353
749.00,0.5397
748.00,0.5434
747.00,0.5468
746.00,0.5500
745.00,0.5535
744.00,0.5577
743.00,0.5626
742.00,0.5682
741.00,0.5738
740.00,0.5787
739.00,0.5826
738.00,0.5857
737.00,0.5886
736.00,0.5918
735.00,0.5958
734.00,0.6009
733.00,0.6069
732.00,0.6143
731.00,0.6235
730.00,0.6353
729.00,0.6499
728.00,0.6676
727.00,0.6887
726.00,0.7134
725.00,0.7407
724.00,0.7681
723.00,0.7906
722.00,0.8012
721.00,0.7932
720.00,0.7655
719.00,0.7247
718.00,0.6800
717.00,0.6380
716.00,0.6021
715.00,0.5729
714.00,0.5498
713.00,0.5311
712.00,0.5158
711.00,0.5032
710.00,0.4932
709.00,0.4854
708.00,0.4793
707.00,0.4742
706.00,0.4697
705.00,0.4653
704.00,0.4613
703.00,0.4584
702.00,0.4572
701.00,0.4570
700.00,0.4556
699.00,0.4508
698.00,0.4410
697.00,0.4268
696.00,0.4109
695.00,0.3963
694.00,0.3846
693.00,0.3758
692.00,0.3694
691.00,0.3645
690.00,0.3608
689.00,0.3578
688.00,0.3553
687.00,0.3532
686.00,0.3516
685.00,0.3503
684.00,0.3493
683.00,0.3487
682.00,0.3484
681.00,0.3483
680.00,0.3482
679.00,0.3482
678.00,0.3484
677.00,0.3484
676.00,0.3483
675.00,0.3482
674.00,0.3481
673.00,0.3479
672.00,0.3477
671.00,0.3478
670.00,0.3482
669.00,0.3486
668.00,0.3488
667.00,0.3489
666.00,0.3493
665.00,0.3501
664.00,0.3510
663.00,0.3519
662.00,0.3526
661.00,0.3531
660.00,0.3535
659.00,0.3543
658.00,0.3554
657.00,0.3567
656.00,0.3579
655.00,0.3591
654.00,0.3604
653.00,0.3615
652.00,0.3626
651.00,0.3636
650.00,0.3648
649.00,0.3659
648.00,0.3670
647.00,0.3678
646.00,0.3686
645.00,0.3695
644.00,0.3708
643.00,0.3724
642.00,0.3742
641.00,0.3758
640.00,0.3771
639.00,0.3779
638.00,0.3784
637.00,0.3790
636.00,0.3795
635.00,0.3799
634.00,0.3801
633.00,0.3803
632.00,0.3808
631.00,0.3818
630.00,0.3832
629.00,0.3845
628.00,0.3858
627.00,0.3872
626.00,0.3890
625.00,0.3914
624.00,0.3941
623.00,0.3968
622.00,0.3991
621.00,0.4008
620.00,0.4022
619.00,0.4036
618.00,0.4047
617.00,0.4053
616.00,0.4054
615.00,0.4051
614.00,0.4046
613.00,0.4037
612.00,0.4025
611.00,0.4012
610.00,0.4000
609.00,0.3989
608.00,0.3980
607.00,0.3974
606.00,0.3968
605.00,0.3961
604.00,0.3952
603.00,0.3945
602.00,0.3940
601.00,0.3940
600.00,0.3944
599.00,0.3949
598.00,0.3953
597.00,0.3956
596.00,0.3961
595.00,0.3972
594.00,0.3988
593.00,0.4007
592.00,0.4026
591.00,0.4042
590.00,0.4057
589.00,0.4072
588.00,0.4090
587.00,0.4111
586.00,0.4132
585.00,0.4153
584.00,0.4176
583.00,0.4206
582.00,0.4238
581.00,0.4267
580.00,0.4292
579.00,0.4315
578.00,0.4337
577.00,0.4356
576.00,0.4370
575.00,0.4384
574.00,0.4401
573.00,0.4421
572.00,0.4443
571.00,0.4467
570.00,0.4489
569.00,0.4506
568.00,0.4521
567.00,0.4534
566.00,0.4546
565.00,0.4558
564.00,0.4569
563.00,0.4582
562.00,0.4593
561.00,0.4600
560.00,0.4602
559.00,0.4605
558.00,0.4615
557.00,0.4629
556.00,0.4641
555.00,0.4649
554.00,0.4654
553.00,0.4660
552.00,0.4669
551.00,0.4682
550.00,0.4693
