Created as New Dataset,
cm-1,A
4000.00,0.3595
3999.00,0.3592
3998.00,0.3589
3997.00,0.3586
3996.00,0.3582
3995.00,0.3579
3994.00,0.3575
3993.00,0.3571
3992.00,0.3567
3991.00,0.3564
3990.00,0.3560
3989.00,0.3556
3988.00,0.3552
3987.00,0.3548
3986.00,0.3545
3985.00,0.3541
3984.00,0.3537
3983.00,0.3533
3982.00,0.3530
3981.00,0.3527
3980.00,0.3524
3979.00,0.3521
3978.00,0.3518
3977.00,0.3514
3976.00,0.3511
3975.00,0.3508
3974.00,0.3505
3973.00,0.3502
3972.00,0.3501
3971.00,0.3499
3970.00,0.3498
3969.00,0.3496
3968.00,0.3495
3967.00,0.3494
3966.00,0.3492
3965.00,0.3490
3964.00,0.3489
3963.00,0.3487
3962.00,0.3486
3961.00,0.3484
3960.00,0.3483
3959.00,0.3481
3958.00,0.3480
3957.00,0.3478
3956.00,0.3477
3955.00,0.3475
3954.00,0.3473
3953.00,0.3471
3952.00,0.3470
3951.00,0.3469
3950.00,0.3467
3949.00,0.3465
3948.00,0.3463
3947.00,0.3461
3946.00,0.3460
3945.00,0.3458
3944.00,0.3457
3943.00,0.3456
3942.00,0.3454
3941.00,0.3452
3940.00,0.3450
3939.00,0.3449
3938.00,0.3449
3937.00,0.3449
3936.00,0.3449
3935.00,0.3449
3934.00,0.3448
3933.00,0.3448
3932.00,0.3448
3931.00,0.3449
3930.00,0.3449
3929.00,0.3450
3928.00,0.3450
3927.00,0.3450
3926.00,0.3450
3925.00,0.3450
3924.00,0.3450
3923.00,0.3450
3922.00,0.3450
3921.00,0.3450
3920.00,0.3450
3919.00,0.3450
3918.00,0.3450
3917.00,0.3449
3916.00,0.3449
3915.00,0.3447
3914.00,0.3445
3913.00,0.3443
3912.00,0.3440
3911.00,0.3438
3910.00,0.3437
3909.00,0.3437
3908.00,0.3438
3907.00,0.3439
3906.00,0.3440
3905.00,0.3441
3904.00,0.3442
3903.00,0.3443
3902.00,0.3444
3901.00,0.3444
3900.00,0.3444
3899.00,0.3442
3898.00,0.3440
3897.00,0.3438
3896.00,0.3436
3895.00,0.3436
3894.00,0.3435
3893.00,0.3435
3892.00,0.3435
3891.00,0.3434
3890.00,0.3434
3889.00,0.3434
3888.00,0.3433
3887.00,0.3433
3886.00,0.3433
3885.00,0.3434
3884.00,0.3434
3883.00,0.3435
3882.00,0.3436
3881.00,0.3435
3880.00,0.3434
3879.00,0.3432
3878.00,0.3430
3877.00,0.3428
3876.00,0.3426
3875.00,0.3424
3874.00,0.3423
3873.00,0.3422
3872.00,0.3421
3871.00,0.3420
3870.00,0.3420
3869.00,0.3420
3868.00,0.3419
3867.00,0.3418
3866.00,0.3417
3865.00,0.3415
3864.00,0.3413
3863.00,0.3411
3862.00,0.3408
3861.00,0.3405
3860.00,0.3403
3859.00,0.3402
3858.00,0.3402
3857.00,0.3404
3856.00,0.3405
3855.00,0.3407
3854.00,0.3408
3853.00,0.3410
3852.00,0.3412
3851.00,0.3413
3850.00,0.3411
3849.00,0.3409
3848.00,0.3406
3847.00,0.3403
3846.00,0.3401
3845.00,0.3399
3844.00,0.3397
3843.00,0.3397
3842.00,0.3398
3841.00,0.3399
3840.00,0.3400
3839.00,0.3401
3838.00,0.3403
3837.00,0.3404
3836.00,0.3404
3835.00,0.3403
3834.00,0.3401
3833.00,0.3397
3832.00,0.3393
3831.00,0.3390
3830.00,0.3386
3829.00,0.3383
3828.00,0.3381
3827.00,0.3379
3826.00,0.3378
3825.00,0.3377
3824.00,0.3377
3823.00,0.3377
3822.00,0.3378
3821.00,0.3379
3820.00,0.3380
3819.00,0.3380
3818.00,0.3379
3817.00,0.3378
3816.00,0.3376
3815.00,0.3373
3814.00,0.3371
3813.00,0.3368
3812.00,0.3366
3811.00,0.3363
3810.00,0.3361
3809.00,0.3359
3808.00,0.3357
3807.00,0.3356
3806.00,0.3356
3805.00,0.3356
3804.00,0.3356
3803.00,0.3355
3802.00,0.3354
3801.00,0.3353
3800.00,0.3352
3799.00,0.3350
3798.00,0.3347
3797.00,0.3344
3796.00,0.3340
3795.00,0.3335
3794.00,0.3331
3793.00,0.3328
3792.00,0.3324
3791.00,0.3321
3790.00,0.3319
3789.00,0.3317
3788.00,0.3315
3787.00,0.3314
3786.00,0.3312
3785.00,0.3311
3784.00,0.3309
3783.00,0.3308
3782.00,0.3308
3781.00,0.3307
3780.00,0.3307
3779.00,0.3306
3778.00,0.3305
3777.00,0.3303
3776.00,0.3302
3775.00,0.3300
3774.00,0.3299
3773.00,0.3297
3772.00,0.3296
3771.00,0.3295
3770.00,0.3294
3769.00,0.3294
3768.00,0.3294
3767.00,0.3294
3766.00,0.3293
3765.00,0.3291
3764.00,0.3289
3763.00,0.3287
3762.00,0.3286
3761.00,0.3284
3760.00,0.3283
3759.00,0.3281
3758.00,0.3279
3757.00,0.3277
3756.00,0.3277
3755.00,0.3276
3754.00,0.3276
3753.00,0.3276
3752.00,0.3275
3751.00,0.3275
3750.00,0.3275
3749.00,0.3276
3748.00,0.3278
3747.00,0.3279
3746.00,0.3278
3745.00,0.3276
3744.00,0.3273
3743.00,0.3270
3742.00,0.3267
3741.00,0.3264
3740.00,0.3262
3739.00,0.3261
3738.00,0.3260
3737.00,0.3259
3736.00,0.3259
3735.00,0.3258
3734.00,0.3258
3733.00,0.3257
3732.00,0.3256
3731.00,0.3254
3730.00,0.3251
3729.00,0.3247
3728.00,0.3243
3727.00,0.3240
3726.00,0.3237
3725.00,0.3235
3724.00,0.3234
3723.00,0.3232
3722.00,0.3230
3721.00,0.3228
3720.00,0.3225
3719.00,0.3222
3718.00,0.3220
3717.00,0.3217
3716.00,0.3216
3715.00,0.3215
3714.00,0.3216
3713.00,0.3216
3712.00,0.3217
3711.00,0.3218
3710.00,0.3218
3709.00,0.3218
3708.00,0.3217
3707.00,0.3215
3706.00,0.3213
3705.00,0.3212
3704.00,0.3212
3703.00,0.3211
3702.00,0.3210
3701.00,0.3210
3700.00,0.3210
3699.00,0.3210
3698.00,0.3210
3697.00,0.3210
3696.00,0.3210
3695.00,0.3210
3694.00,0.3211
3693.00,0.3213
3692.00,0.3216
3691.00,0.3219
3690.00,0.3220
3689.00,0.3221
3688.00,0.3220
3687.00,0.3220
3686.00,0.3218
3685.00,0.3215
3684.00,0.3213
3683.00,0.3210
3682.00,0.3208
3681.00,0.3207
3680.00,0.3206
3679.00,0.3206
3678.00,0.3206
3677.00,0.3207
3676.00,0.3210
3675.00,0.3212
3674.00,0.3215
3673.00,0.3215
3672.00,0.3216
3671.00,0.3215
3670.00,0.3213
3669.00,0.3211
3668.00,0.3209
3667.00,0.3207
3666.00,0.3205
3665.00,0.3203
3664.00,0.3202
3663.00,0.3200
3662.00,0.3200
3661.00,0.3200
3660.00,0.3202
3659.00,0.3204
3658.00,0.3206
3657.00,0.3208
3656.00,0.3210
3655.00,0.3213
3654.00,0.3216
3653.00,0.3219
3652.00,0.3222
3651.00,0.3226
3650.00,0.3229
3649.00,0.3233
3648.00,0.3236
3647.00,0.3237
3646.00,0.3236
3645.00,0.3234
3644.00,0.3231
3643.00,0.3229
3642.00,0.3227
3641.00,0.3226
3640.00,0.3226
3639.00,0.3227
3638.00,0.3229
3637.00,0.3231
3636.00,0.3235
3635.00,0.3238
3634.00,0.3242
3633.00,0.3246
3632.00,0.3252
3631.00,0.3259
3630.00,0.3266
3629.00,0.3275
3628.00,0.3283
3627.00,0.3290
3626.00,0.3295
3625.00,0.3299
3624.00,0.3302
3623.00,0.3303
3622.00,0.3303
3621.00,0.3301
3620.00,0.3297
3619.00,0.3292
3618.00,0.3286
3617.00,0.3282
3616.00,0.3278
3615.00,0.3276
3614.00,0.3274
3613.00,0.3273
3612.00,0.3272
3611.00,0.3271
3610.00,0.3270
3609.00,0.3270
3608.00,0.3269
3607.00,0.3269
3606.00,0.3267
3605.00,0.3265
3604.00,0.3263
3603.00,0.3261
3602.00,0.3258
3601.00,0.3255
3600.00,0.3251
3599.00,0.3246
3598.00,0.3242
3597.00,0.3236
3596.00,0.3231
3595.00,0.3225
3594.00,0.3220
3593.00,0.3216
3592.00,0.3212
3591.00,0.3210
3590.00,0.3208
3589.00,0.3206
3588.00,0.3205
3587.00,0.3203
3586.00,0.3201
3585.00,0.3199
3584.00,0.3198
3583.00,0.3196
3582.00,0.3195
3581.00,0.3192
3580.00,0.3190
3579.00,0.3189
3578.00,0.3188
3577.00,0.3187
3576.00,0.3187
3575.00,0.3188
3574.00,0.3189
3573.00,0.3190
3572.00,0.3191
3571.00,0.3193
3570.00,0.3195
3569.00,0.3197
3568.00,0.3199
3567.00,0.3200
3566.00,0.3203
3565.00,0.3205
3564.00,0.3206
3563.00,0.3208
3562.00,0.3210
3561.00,0.3211
3560.00,0.3212
3559.00,0.3213
3558.00,0.3215
3557.00,0.3217
3556.00,0.3220
3555.00,0.3223
3554.00,0.3226
3553.00,0.3230
3552.00,0.3233
3551.00,0.3237
3550.00,0.3241
3549.00,0.3245
3548.00,0.3249
3547.00,0.3253
3546.00,0.3257
3545.00,0.3262
3544.00,0.3266
3543.00,0.3269
3542.00,0.3272
3541.00,0.3275
3540.00,0.3278
3539.00,0.3282
3538.00,0.3286
3537.00,0.3290
3536.00,0.3293
3535.00,0.3295
3534.00,0.3298
3533.00,0.3301
3532.00,0.3304
3531.00,0.3307
3530.00,0.3309
3529.00,0.3312
3528.00,0.3316
3527.00,0.3320
3526.00,0.3324
3525.00,0.3328
3524.00,0.3331
3523.00,0.3334
3522.00,0.3336
3521.00,0.3339
3520.00,0.3342
3519.00,0.3346
3518.00,0.3350
3517.00,0.3353
3516.00,0.3357
3515.00,0.3361
3514.00,0.3365
3513.00,0.3370
3512.00,0.3375
3511.00,0.3379
3510.00,0.3384
3509.00,0.3389
3508.00,0.3394
3507.00,0.3399
3506.00,0.3404
3505.00,0.3409
3504.00,0.3415
3503.00,0.3421
3502.00,0.3426
3501.00,0.3431
3500.00,0.3436
3499.00,0.3441
3498.00,0.3447
3497.00,0.3453
3496.00,0.3459
3495.00,0.3466
3494.00,0.3473
3493.00,0.3480
3492.00,0.3487
3491.00,0.3493
3490.00,0.3500
3489.00,0.3507
3488.00,0.3515
3487.00,0.3522
3486.00,0.3529
3485.00,0.3536
3484.00,0.3542
3483.00,0.3548
3482.00,0.3554
3481.00,0.3560
3480.00,0.3565
3479.00,0.3570
3478.00,0.3575
3477.00,0.3581
3476.00,0.3587
3475.00,0.3592
3474.00,0.3597
3473.00,0.3602
3472.00,0.3606
3471.00,0.3611
3470.00,0.3616
3469.00,0.3622
3468.00,0.3628
3467.00,0.3635
3466.00,0.3641
3465.00,0.3648
3464.00,0.3655
3463.00,0.3662
3462.00,0.3668
3461.00,0.3674
3460.00,0.3681
3459.00,0.3688
3458.00,0.3695
3457.00,0.3702
3456.00,0.3708
3455.00,0.3715
3454.00,0.3721
3453.00,0.3727
3452.00,0.3735
3451.00,0.3742
3450.00,0.3749
3449.00,0.3756
3448.00,0.3764
3447.00,0.3771
3446.00,0.3779
3445.00,0.3787
3444.00,0.3795
3443.00,0.3803
3442.00,0.3811
3441.00,0.3819
3440.00,0.3826
3439.00,0.3833
3438.00,0.3841
3437.00,0.3849
3436.00,0.3857
3435.00,0.3864
3434.00,0.3872
3433.00,0.3880
3432.00,0.3888
3431.00,0.3896
3430.00,0.3904
3429.00,0.3912
3428.00,0.3920
3427.00,0.3929
3426.00,0.3938
3425.00,0.3946
3424.00,0.3955
3423.00,0.3964
3422.00,0.3972
3421.00,0.3982
3420.00,0.3991
3419.00,0.4001
3418.00,0.4010
3417.00,0.4020
3416.00,0.4030
3415.00,0.4040
3414.00,0.4050
3413.00,0.4060
3412.00,0.4070
3411.00,0.4079
3410.00,0.4088
3409.00,0.4096
3408.00,0.4105
3407.00,0.4114
3406.00,0.4124
3405.00,0.4134
3404.00,0.4145
3403.00,0.4155
3402.00,0.4166
3401.00,0.4175
3400.00,0.4185
3399.00,0.4194
3398.00,0.4204
3397.00,0.4214
3396.00,0.4223
3395.00,0.4233
3394.00,0.4242
3393.00,0.4252
3392.00,0.4261
3391.00,0.4271
3390.00,0.4281
3389.00,0.4292
3388.00,0.4302
3387.00,0.4311
3386.00,0.4320
3385.00,0.4330
3384.00,0.4340
3383.00,0.4351
3382.00,0.4360
3381.00,0.4370
3380.00,0.4380
3379.00,0.4390
3378.00,0.4400
3377.00,0.4410
3376.00,0.4420
3375.00,0.4430
3374.00,0.4440
3373.00,0.4450
3372.00,0.4460
3371.00,0.4470
3370.00,0.4481
3369.00,0.4493
3368.00,0.4505
3367.00,0.4517
3366.00,0.4529
3365.00,0.4541
3364.00,0.4553
3363.00,0.4566
3362.00,0.4579
3361.00,0.4592
3360.00,0.4605
3359.00,0.4618
3358.00,0.4630
3357.00,0.4643
3356.00,0.4656
3355.00,0.4670
3354.00,0.4684
3353.00,0.4698
3352.00,0.4711
3351.00,0.4723
3350.00,0.4736
3349.00,0.4749
3348.00,0.4762
3347.00,0.4774
3346.00,0.4786
3345.00,0.4797
3344.00,0.4809
3343.00,0.4821
3342.00,0.4833
3341.00,0.4844
3340.00,0.4854
3339.00,0.4863
3338.00,0.4872
3337.00,0.4881
3336.00,0.4889
3335.00,0.4896
3334.00,0.4902
3333.00,0.4907
3332.00,0.4911
3331.00,0.4916
3330.00,0.4921
3329.00,0.4924
3328.00,0.4926
3327.00,0.4926
3326.00,0.4926
3325.00,0.4926
3324.00,0.4926
3323.00,0.4926
3322.00,0.4925
3321.00,0.4923
3320.00,0.4920
3319.00,0.4916
3318.00,0.4912
3317.00,0.4908
3316.00,0.4905
3315.00,0.4900
3314.00,0.4896
3313.00,0.4891
3312.00,0.4885
3311.00,0.4878
3310.00,0.4872
3309.00,0.4865
3308.00,0.4858
3307.00,0.4852
3306.00,0.4845
3305.00,0.4839
3304.00,0.4833
3303.00,0.4826
3302.00,0.4819
3301.00,0.4812
3300.00,0.4807
3299.00,0.4802
3298.00,0.4797
3297.00,0.4792
3296.00,0.4786
3295.00,0.4780
3294.00,0.4775
3293.00,0.4770
3292.00,0.4767
3291.00,0.4764
3290.00,0.4762
3289.00,0.4760
3288.00,0.4759
3287.00,0.4757
3286.00,0.4756
3285.00,0.4754
3284.00,0.4753
3283.00,0.4752
3282.00,0.4751
3281.00,0.4752
3280.00,0.4754
3279.00,0.4756
3278.00,0.4758
3277.00,0.4761
3276.00,0.4763
3275.00,0.4766
3274.00,0.4769
3273.00,0.4773
3272.00,0.4777
3271.00,0.4781
3270.00,0.4784
3269.00,0.4786
3268.00,0.4789
3267.00,0.4793
3266.00,0.4797
3265.00,0.4801
3264.00,0.4806
3263.00,0.4810
3262.00,0.4814
3261.00,0.4818
3260.00,0.4821
3259.00,0.4825
3258.00,0.4828
3257.00,0.4832
3256.00,0.4835
3255.00,0.4838
3254.00,0.4841
3253.00,0.4845
3252.00,0.4850
3251.00,0.4854
3250.00,0.4859
3249.00,0.4862
3248.00,0.4866
3247.00,0.4869
3246.00,0.4872
3245.00,0.4875
3244.00,0.4877
3243.00,0.4879
3242.00,0.4880
3241.00,0.4882
3240.00,0.4884
3239.00,0.4886
3238.00,0.4888
3237.00,0.4889
3236.00,0.4891
3235.00,0.4892
3234.00,0.4893
3233.00,0.4894
3232.00,0.4894
3231.00,0.4893
3230.00,0.4893
3229.00,0.4892
3228.00,0.4890
3227.00,0.4888
3226.00,0.4886
3225.00,0.4884
3224.00,0.4883
3223.00,0.4881
3222.00,0.4879
3221.00,0.4877
3220.00,0.4875
3219.00,0.4872
3218.00,0.4870
3217.00,0.4868
3216.00,0.4866
3215.00,0.4864
3214.00,0.4862
3213.00,0.4860
3212.00,0.4858
3211.00,0.4856
3210.00,0.4854
3209.00,0.4852
3208.00,0.4850
3207.00,0.4848
3206.00,0.4847
3205.00,0.4846
3204.00,0.4844
3203.00,0.4843
3202.00,0.4841
3201.00,0.4840
3200.00,0.4837
3199.00,0.4835
3198.00,0.4832
3197.00,0.4828
3196.00,0.4825
3195.00,0.4821
3194.00,0.4817
3193.00,0.4814
3192.00,0.4811
3191.00,0.4807
3190.00,0.4802
3189.00,0.4798
3188.00,0.4793
3187.00,0.4788
3186.00,0.4783
3185.00,0.4777
3184.00,0.4771
3183.00,0.4765
3182.00,0.4759
3181.00,0.4753
3180.00,0.4747
3179.00,0.4741
3178.00,0.4735
3177.00,0.4729
3176.00,0.4723
3175.00,0.4717
3174.00,0.4710
3173.00,0.4703
3172.00,0.4696
3171.00,0.4689
3170.00,0.4683
3169.00,0.4677
3168.00,0.4671
3167.00,0.4664
3166.00,0.4657
3165.00,0.4650
3164.00,0.4644
3163.00,0.4637
3162.00,0.4629
3161.00,0.4622
3160.00,0.4615
3159.00,0.4608
3158.00,0.4601
3157.00,0.4593
3156.00,0.4584
3155.00,0.4576
3154.00,0.4568
3153.00,0.4561
3152.00,0.4554
3151.00,0.4547
3150.00,0.4540
3149.00,0.4533
3148.00,0.4526
3147.00,0.4519
3146.00,0.4512
3145.00,0.4506
3144.00,0.4501
3143.00,0.4496
3142.00,0.4490
3141.00,0.4486
3140.00,0.4482
3139.00,0.4478
3138.00,0.4475
3137.00,0.4471
3136.00,0.4467
3135.00,0.4464
3134.00,0.4462
3133.00,0.4461
3132.00,0.4460
3131.00,0.4459
3130.00,0.4457
3129.00,0.4456
3128.00,0.4455
3127.00,0.4454
3126.00,0.4454
3125.00,0.4454
3124.00,0.4456
3123.00,0.4457
3122.00,0.4459
3121.00,0.4460
3120.00,0.4462
3119.00,0.4464
3118.00,0.4466
3117.00,0.4468
3116.00,0.4470
3115.00,0.4473
3114.00,0.4477
3113.00,0.4482
3112.00,0.4487
3111.00,0.4493
3110.00,0.4500
3109.00,0.4507
3108.00,0.4515
3107.00,0.4523
3106.00,0.4531
3105.00,0.4540
3104.00,0.4550
3103.00,0.4559
3102.00,0.4569
3101.00,0.4578
3100.00,0.4588
3099.00,0.4598
3098.00,0.4608
3097.00,0.4619
3096.00,0.4632
3095.00,0.4645
3094.00,0.4660
3093.00,0.4676
3092.00,0.4694
3091.00,0.4714
3090.00,0.4736
3089.00,0.4759
3088.00,0.4784
3087.00,0.4809
3086.00,0.4835
3085.00,0.4862
3084.00,0.4890
3083.00,0.4918
3082.00,0.4948
3081.00,0.4981
3080.00,0.5016
3079.00,0.5053
3078.00,0.5092
3077.00,0.5133
3076.00,0.5176
3075.00,0.5219
3074.00,0.5262
3073.00,0.5306
3072.00,0.5350
3071.00,0.5395
3070.00,0.5439
3069.00,0.5483
3068.00,0.5527
3067.00,0.5570
3066.00,0.5613
3065.00,0.5654
3064.00,0.5692
3063.00,0.5728
3062.00,0.5761
3061.00,0.5792
3060.00,0.5820
3059.00,0.5847
3058.00,0.5873
3057.00,0.5900
3056.00,0.5927
3055.00,0.5955
3054.00,0.5985
3053.00,0.6017
3052.00,0.6052
3051.00,0.6089
3050.00,0.6129
3049.00,0.6173
3048.00,0.6218
3047.00,0.6264
3046.00,0.6311
3045.00,0.6358
3044.00,0.6404
3043.00,0.6449
3042.00,0.6495
3041.00,0.6542
3040.00,0.6588
3039.00,0.6635
3038.00,0.6682
3037.00,0.6731
3036.00,0.6784
3035.00,0.6841
3034.00,0.6903
3033.00,0.6970
3032.00,0.7041
3031.00,0.7117
3030.00,0.7198
3029.00,0.7282
3028.00,0.7371
3027.00,0.7463
3026.00,0.7558
3025.00,0.7655
3024.00,0.7755
3023.00,0.7857
3022.00,0.7963
3021.00,0.8073
3020.00,0.8186
3019.00,0.8302
3018.00,0.8420
3017.00,0.8539
3016.00,0.8658
3015.00,0.8776
3014.00,0.8898
3013.00,0.9023
3012.00,0.9150
3011.00,0.9279
3010.00,0.9411
3009.00,0.9550
3008.00,0.9698
3007.00,0.9855
3006.00,1.0019
3005.00,1.0189
3004.00,1.0362
3003.00,1.0540
3002.00,1.0725
3001.00,1.0917
3000.00,1.1119
2999.00,1.1331
2998.00,1.1555
2997.00,1.1798
2996.00,1.2064
2995.00,1.2361
2994.00,1.2692
2993.00,1.3062
2992.00,1.3476
2991.00,1.3937
2990.00,1.4452
2989.00,1.5025
2988.00,1.5660
2987.00,1.6363
2986.00,1.7146
2985.00,1.8021
2984.00,1.8999
2983.00,2.0090
2982.00,2.1304
2981.00,2.2649
2980.00,2.4130
2979.00,2.5746
2978.00,2.7488
2977.00,2.9317
2976.00,3.1207
2975.00,3.3214
2974.00,3.5576
2973.00,3.7828
2972.00,3.8563
2971.00,3.8508
2970.00,3.8912
2969.00,4.0102
2968.00,4.0272
2967.00,3.9570
2966.00,3.9804
2965.00,4.1338
2964.00,4.1532
2963.00,3.9612
2962.00,3.8141
2961.00,3.7843
2960.00,3.7924
2959.00,3.7757
2958.00,3.7623
2957.00,3.7320
2956.00,3.7219
2955.00,3.8115
2954.00,4.0889
2953.00,4.6381
2952.00,4.7744
2951.00,4.6443
2950.00,4.7373
2949.00,4.6009
2948.00,4.3891
2947.00,4.2258
2946.00,4.1104
2945.00,3.9577
2944.00,3.8504
2943.00,3.8553
2942.00,3.9259
2941.00,4.0286
2940.00,4.0734
2939.00,4.0128
2938.00,3.9643
2937.00,3.9720
2936.00,4.0211
2935.00,4.0617
2934.00,4.0733
2933.00,4.0193
2932.00,4.0114
2931.00,4.1968
2930.00,4.2568
2929.00,4.0504
2928.00,3.8872
2927.00,3.8960
2926.00,3.9859
2925.00,4.0315
2924.00,4.2566
2923.00,4.4221
2922.00,4.1300
2921.00,3.9183
2920.00,3.9200
2919.00,4.1705
2918.00,4.1782
2917.00,3.9382
2916.00,3.8475
2915.00,3.9651
2914.00,4.0344
2913.00,3.8370
2912.00,3.6966
2911.00,3.7140
2910.00,3.9323
2909.00,4.3130
2908.00,4.2422
2907.00,4.0113
2906.00,3.8971
2905.00,3.9274
2904.00,3.8828
2903.00,3.8067
2902.00,3.7981
2901.00,3.8921
2900.00,4.1746
2899.00,4.3032
2898.00,4.1365
2897.00,4.0576
2896.00,4.2037
2895.00,4.3116
2894.00,4.3354
2893.00,4.5217
2892.00,4.4227
2891.00,4.1804
2890.00,4.0206
2889.00,4.0632
2888.00,4.0681
2887.00,3.9898
2886.00,3.9641
2885.00,4.1314
2884.00,4.6034
2883.00,4.4210
2882.00,4.1599
2881.00,3.9923
2880.00,3.9587
2879.00,3.9319
2878.00,3.9639
2877.00,4.1133
2876.00,4.2862
2875.00,4.2411
2874.00,4.0095
2873.00,3.8534
2872.00,3.8142
2871.00,3.8161
2870.00,3.8007
2869.00,3.7824
2868.00,3.7853
2867.00,3.8461
2866.00,3.9896
2865.00,4.1731
2864.00,4.2774
2863.00,4.3104
2862.00,4.3035
2861.00,4.2587
2860.00,4.2777
2859.00,4.5074
2858.00,5.1715
2857.00,4.9887
2856.00,4.3145
2855.00,4.0930
2854.00,4.0273
2853.00,3.9768
2852.00,3.8716
2851.00,3.7742
2850.00,3.7614
2849.00,3.8229
2848.00,3.9355
2847.00,4.0435
2846.00,4.0329
2845.00,3.9688
2844.00,3.9702
2843.00,4.0084
2842.00,3.9573
2841.00,3.8210
2840.00,3.6679
2839.00,3.5051
2838.00,3.3242
2837.00,3.1323
2836.00,2.9392
2835.00,2.7498
2834.00,2.5686
2833.00,2.3992
2832.00,2.2456
2831.00,2.1095
2830.00,1.9895
2829.00,1.8828
2828.00,1.7873
2827.00,1.7018
2826.00,1.6251
2825.00,1.5561
2824.00,1.4935
2823.00,1.4365
2822.00,1.3841
2821.00,1.3359
2820.00,1.2913
2819.00,1.2499
2818.00,1.2117
2817.00,1.1763
2816.00,1.1435
2815.00,1.1130
2814.00,1.0842
2813.00,1.0569
2812.00,1.0313
2811.00,1.0071
2810.00,0.9844
2809.00,0.9629
2808.00,0.9426
2807.00,0.9231
2806.00,0.9045
2805.00,0.8867
2804.00,0.8697
2803.00,0.8538
2802.00,0.8386
2801.00,0.8243
2800.00,0.8106
2799.00,0.7974
2798.00,0.7848
2797.00,0.7726
2796.00,0.7610
2795.00,0.7498
2794.00,0.7390
2793.00,0.7287
2792.00,0.7186
2791.00,0.7088
2790.00,0.6991
2789.00,0.6895
2788.00,0.6802
2787.00,0.6711
2786.00,0.6623
2785.00,0.6537
2784.00,0.6453
2783.00,0.6372
2782.00,0.6294
2781.00,0.6218
2780.00,0.6146
2779.00,0.6077
2778.00,0.6011
2777.00,0.5949
2776.00,0.5889
2775.00,0.5833
2774.00,0.5781
2773.00,0.5732
2772.00,0.5686
2771.00,0.5643
2770.00,0.5603
2769.00,0.5566
2768.00,0.5532
2767.00,0.5501
2766.00,0.5475
2765.00,0.5452
2764.00,0.5432
2763.00,0.5413
2762.00,0.5397
2761.00,0.5384
2760.00,0.5372
2759.00,0.5362
2758.00,0.5351
2757.00,0.5341
2756.00,0.5330
2755.00,0.5320
2754.00,0.5312
2753.00,0.5306
2752.00,0.5301
2751.00,0.5298
2750.00,0.5296
2749.00,0.5296
2748.00,0.5299
2747.00,0.5304
2746.00,0.5311
2745.00,0.5321
2744.00,0.5334
2743.00,0.5349
2742.00,0.5369
2741.00,0.5391
2740.00,0.5419
2739.00,0.5450
2738.00,0.5488
2737.00,0.5530
2736.00,0.5577
2735.00,0.5627
2734.00,0.5680
2733.00,0.5732
2732.00,0.5780
2731.00,0.5821
2730.00,0.5852
2729.00,0.5872
2728.00,0.5880
2727.00,0.5879
2726.00,0.5870
2725.00,0.5857
2724.00,0.5840
2723.00,0.5818
2722.00,0.5792
2721.00,0.5762
2720.00,0.5727
2719.00,0.5691
2718.00,0.5652
2717.00,0.5611
2716.00,0.5568
2715.00,0.5524
2714.00,0.5479
2713.00,0.5434
2712.00,0.5392
2711.00,0.5353
2710.00,0.5318
2709.00,0.5288
2708.00,0.5262
2707.00,0.5239
2706.00,0.5221
2705.00,0.5206
2704.00,0.5194
2703.00,0.5185
2702.00,0.5178
2701.00,0.5174
2700.00,0.5173
2699.00,0.5174
2698.00,0.5178
2697.00,0.5182
2696.00,0.5188
2695.00,0.5195
2694.00,0.5202
2693.00,0.5211
2692.00,0.5220
2691.00,0.5230
2690.00,0.5240
2689.00,0.5250
2688.00,0.5259
2687.00,0.5266
2686.00,0.5273
2685.00,0.5278
2684.00,0.5283
2683.00,0.5286
2682.00,0.5289
2681.00,0.5290
2680.00,0.5292
2679.00,0.5294
2678.00,0.5297
2677.00,0.5300
2676.00,0.5304
2675.00,0.5308
2674.00,0.5312
2673.00,0.5315
2672.00,0.5318
2671.00,0.5318
2670.00,0.5316
2669.00,0.5310
2668.00,0.5302
2667.00,0.5292
2666.00,0.5279
2665.00,0.5264
2664.00,0.5249
2663.00,0.5233
2662.00,0.5215
2661.00,0.5197
2660.00,0.5176
2659.00,0.5156
2658.00,0.5136
2657.00,0.5116
2656.00,0.5097
2655.00,0.5078
2654.00,0.5060
2653.00,0.5043
2652.00,0.5026
2651.00,0.5010
2650.00,0.4994
2649.00,0.4978
2648.00,0.4963
2647.00,0.4949
2646.00,0.4936
2645.00,0.4923
2644.00,0.4911
2643.00,0.4900
2642.00,0.4888
2641.00,0.4877
2640.00,0.4866
2639.00,0.4856
2638.00,0.4846
2637.00,0.4838
2636.00,0.4830
2635.00,0.4822
2634.00,0.4815
2633.00,0.4808
2632.00,0.4800
2631.00,0.4792
2630.00,0.4784
2629.00,0.4777
2628.00,0.4769
2627.00,0.4762
2626.00,0.4754
2625.00,0.4746
2624.00,0.4738
2623.00,0.4730
2622.00,0.4722
2621.00,0.4713
2620.00,0.4704
2619.00,0.4695
2618.00,0.4686
2617.00,0.4677
2616.00,0.4668
2615.00,0.4658
2614.00,0.4648
2613.00,0.4637
2612.00,0.4626
2611.00,0.4616
2610.00,0.4606
2609.00,0.4596
2608.00,0.4586
2607.00,0.4575
2606.00,0.4564
2605.00,0.4554
2604.00,0.4544
2603.00,0.4534
2602.00,0.4523
2601.00,0.4512
2600.00,0.4500
2599.00,0.4488
2598.00,0.4476
2597.00,0.4464
2596.00,0.4451
2595.00,0.4437
2594.00,0.4424
2593.00,0.4411
2592.00,0.4398
2591.00,0.4384
2590.00,0.4370
2589.00,0.4355
2588.00,0.4339
2587.00,0.4323
2586.00,0.4307
2585.00,0.4290
2584.00,0.4274
2583.00,0.4258
2582.00,0.4240
2581.00,0.4223
2580.00,0.4205
2579.00,0.4187
2578.00,0.4170
2577.00,0.4152
2576.00,0.4135
2575.00,0.4117
2574.00,0.4100
2573.00,0.4083
2572.00,0.4068
2571.00,0.4052
2570.00,0.4036
2569.00,0.4020
2568.00,0.4005
2567.00,0.3990
2566.00,0.3976
2565.00,0.3963
2564.00,0.3950
2563.00,0.3937
2562.00,0.3926
2561.00,0.3914
2560.00,0.3902
2559.00,0.3890
2558.00,0.3878
2557.00,0.3868
2556.00,0.3857
2555.00,0.3847
2554.00,0.3836
2553.00,0.3826
2552.00,0.3816
2551.00,0.3806
2550.00,0.3797
2549.00,0.3788
2548.00,0.3779
2547.00,0.3770
2546.00,0.3762
2545.00,0.3753
2544.00,0.3744
2543.00,0.3734
2542.00,0.3725
2541.00,0.3716
2540.00,0.3708
2539.00,0.3700
2538.00,0.3692
2537.00,0.3684
2536.00,0.3676
2535.00,0.3668
2534.00,0.3660
2533.00,0.3652
2532.00,0.3644
2531.00,0.3636
2530.00,0.3628
2529.00,0.3620
2528.00,0.3612
2527.00,0.3604
2526.00,0.3595
2525.00,0.3587
2524.00,0.3579
2523.00,0.3571
2522.00,0.3563
2521.00,0.3555
2520.00,0.3547
2519.00,0.3539
2518.00,0.3531
2517.00,0.3524
2516.00,0.3516
2515.00,0.3509
2514.00,0.3501
2513.00,0.3494
2512.00,0.3487
2511.00,0.3479
2510.00,0.3472
2509.00,0.3465
2508.00,0.3458
2507.00,0.3451
2506.00,0.3445
2505.00,0.3438
2504.00,0.3432
2503.00,0.3426
2502.00,0.3420
2501.00,0.3414
2500.00,0.3409
2499.00,0.3404
2498.00,0.3398
2497.00,0.3393
2496.00,0.3388
2495.00,0.3384
2494.00,0.3381
2493.00,0.3377
2492.00,0.3372
2491.00,0.3368
2490.00,0.3365
2489.00,0.3362
2488.00,0.3359
2487.00,0.3356
2486.00,0.3352
2485.00,0.3349
2484.00,0.3346
2483.00,0.3343
2482.00,0.3339
2481.00,0.3336
2480.00,0.3334
2479.00,0.3331
2478.00,0.3329
2477.00,0.3327
2476.00,0.3324
2475.00,0.3322
2474.00,0.3319
2473.00,0.3316
2472.00,0.3312
2471.00,0.3308
2470.00,0.3305
2469.00,0.3302
2468.00,0.3298
2467.00,0.3295
2466.00,0.3292
2465.00,0.3289
2464.00,0.3285
2463.00,0.3282
2462.00,0.3279
2461.00,0.3276
2460.00,0.3273
2459.00,0.3271
2458.00,0.3269
2457.00,0.3267
2456.00,0.3265
2455.00,0.3262
2454.00,0.3260
2453.00,0.3259
2452.00,0.3258
2451.00,0.3257
2450.00,0.3257
2449.00,0.3256
2448.00,0.3256
2447.00,0.3256
2446.00,0.3255
2445.00,0.3256
2444.00,0.3256
2443.00,0.3257
2442.00,0.3258
2441.00,0.3259
2440.00,0.3260
2439.00,0.3261
2438.00,0.3262
2437.00,0.3262
2436.00,0.3263
2435.00,0.3263
2434.00,0.3263
2433.00,0.3264
2432.00,0.3264
2431.00,0.3263
2430.00,0.3263
2429.00,0.3263
2428.00,0.3263
2427.00,0.3263
2426.00,0.3263
2425.00,0.3263
2424.00,0.3262
2423.00,0.3261
2422.00,0.3261
2421.00,0.3260
2420.00,0.3261
2419.00,0.3261
2418.00,0.3262
2417.00,0.3263
2416.00,0.3263
2415.00,0.3263
2414.00,0.3264
2413.00,0.3265
2412.00,0.3266
2411.00,0.3266
2410.00,0.3267
2409.00,0.3267
2408.00,0.3267
2407.00,0.3267
2406.00,0.3267
2405.00,0.3267
2404.00,0.3266
2403.00,0.3266
2402.00,0.3265
2401.00,0.3264
2400.00,0.3264
2399.00,0.3263
2398.00,0.3262
2397.00,0.3260
2396.00,0.3258
2395.00,0.3256
2394.00,0.3255
2393.00,0.3253
2392.00,0.3251
2391.00,0.3249
2390.00,0.3247
2389.00,0.3245
2388.00,0.3243
2387.00,0.3240
2386.00,0.3238
2385.00,0.3235
2384.00,0.3233
2383.00,0.3232
2382.00,0.3230
2381.00,0.3230
2380.00,0.3229
2379.00,0.3230
2378.00,0.3231
2377.00,0.3232
2376.00,0.3232
2375.00,0.3233
2374.00,0.3233
2373.00,0.3232
2372.00,0.3232
2371.00,0.3231
2370.00,0.3230
2369.00,0.3228
2368.00,0.3226
2367.00,0.3224
2366.00,0.3222
2365.00,0.3222
2364.00,0.3223
2363.00,0.3224
2362.00,0.3224
2361.00,0.3223
2360.00,0.3224
2359.00,0.3225
2358.00,0.3227
2357.00,0.3227
2356.00,0.3225
2355.00,0.3222
2354.00,0.3218
2353.00,0.3216
2352.00,0.3216
2351.00,0.3217
2350.00,0.3216
2349.00,0.3213
2348.00,0.3210
2347.00,0.3206
2346.00,0.3203
2345.00,0.3202
2344.00,0.3203
2343.00,0.3205
2342.00,0.3205
2341.00,0.3205
2340.00,0.3204
2339.00,0.3204
2338.00,0.3203
2337.00,0.3203
2336.00,0.3201
2335.00,0.3200
2334.00,0.3198
2333.00,0.3196
2332.00,0.3194
2331.00,0.3193
2330.00,0.3192
2329.00,0.3191
2328.00,0.3190
2327.00,0.3187
2326.00,0.3185
2325.00,0.3182
2324.00,0.3179
2323.00,0.3177
2322.00,0.3176
2321.00,0.3175
2320.00,0.3174
2319.00,0.3172
2318.00,0.3169
2317.00,0.3166
2316.00,0.3162
2315.00,0.3159
2314.00,0.3156
2313.00,0.3153
2312.00,0.3151
2311.00,0.3148
2310.00,0.3145
2309.00,0.3142
2308.00,0.3139
2307.00,0.3136
2306.00,0.3132
2305.00,0.3129
2304.00,0.3125
2303.00,0.3121
2302.00,0.3118
2301.00,0.3115
2300.00,0.3113
2299.00,0.3110
2298.00,0.3108
2297.00,0.3105
2296.00,0.3103
2295.00,0.3101
2294.00,0.3099
2293.00,0.3097
2292.00,0.3095
2291.00,0.3093
2290.00,0.3091
2289.00,0.3089
2288.00,0.3088
2287.00,0.3086
2286.00,0.3084
2285.00,0.3082
2284.00,0.3080
2283.00,0.3078
2282.00,0.3076
2281.00,0.3073
2280.00,0.3071
2279.00,0.3068
2278.00,0.3064
2277.00,0.3061
2276.00,0.3057
2275.00,0.3055
2274.00,0.3052
2273.00,0.3050
2272.00,0.3047
2271.00,0.3044
2270.00,0.3042
2269.00,0.3039
2268.00,0.3036
2267.00,0.3034
2266.00,0.3032
2265.00,0.3030
2264.00,0.3027
2263.00,0.3025
2262.00,0.3022
2261.00,0.3019
2260.00,0.3016
2259.00,0.3014
2258.00,0.3011
2257.00,0.3009
2256.00,0.3006
2255.00,0.3004
2254.00,0.3001
2253.00,0.3000
2252.00,0.2999
2251.00,0.2998
2250.00,0.2997
2249.00,0.2996
2248.00,0.2994
2247.00,0.2992
2246.00,0.2991
2245.00,0.2989
2244.00,0.2988
2243.00,0.2987
2242.00,0.2986
2241.00,0.2986
2240.00,0.2985
2239.00,0.2983
2238.00,0.2982
2237.00,0.2980
2236.00,0.2978
2235.00,0.2976
2234.00,0.2974
2233.00,0.2973
2232.00,0.2971
2231.00,0.2969
2230.00,0.2968
2229.00,0.2966
2228.00,0.2965
2227.00,0.2963
2226.00,0.2961
2225.00,0.2959
2224.00,0.2957
2223.00,0.2956
2222.00,0.2954
2221.00,0.2952
2220.00,0.2950
2219.00,0.2949
2218.00,0.2948
2217.00,0.2947
2216.00,0.2947
2215.00,0.2946
2214.00,0.2946
2213.00,0.2947
2212.00,0.2947
2211.00,0.2948
2210.00,0.2948
2209.00,0.2949
2208.00,0.2950
2207.00,0.2951
2206.00,0.2951
2205.00,0.2951
2204.00,0.2952
2203.00,0.2953
2202.00,0.2953
2201.00,0.2953
2200.00,0.2953
2199.00,0.2953
2198.00,0.2953
2197.00,0.2953
2196.00,0.2953
2195.00,0.2953
2194.00,0.2952
2193.00,0.2951
2192.00,0.2951
2191.00,0.2951
2190.00,0.2950
2189.00,0.2949
2188.00,0.2947
2187.00,0.2946
2186.00,0.2945
2185.00,0.2944
2184.00,0.2943
2183.00,0.2942
2182.00,0.2942
2181.00,0.2941
2180.00,0.2940
2179.00,0.2939
2178.00,0.2937
2177.00,0.2936
2176.00,0.2934
2175.00,0.2934
2174.00,0.2933
2173.00,0.2933
2172.00,0.2933
2171.00,0.2932
2170.00,0.2932
2169.00,0.2931
2168.00,0.2931
2167.00,0.2930
2166.00,0.2930
2165.00,0.2930
2164.00,0.2929
2163.00,0.2928
2162.00,0.2927
2161.00,0.2926
2160.00,0.2924
2159.00,0.2923
2158.00,0.2921
2157.00,0.2919
2156.00,0.2917
2155.00,0.2915
2154.00,0.2913
2153.00,0.2911
2152.00,0.2908
2151.00,0.2905
2150.00,0.2902
2149.00,0.2899
2148.00,0.2896
2147.00,0.2892
2146.00,0.2888
2145.00,0.2884
2144.00,0.2880
2143.00,0.2875
2142.00,0.2871
2141.00,0.2867
2140.00,0.2863
2139.00,0.2860
2138.00,0.2857
2137.00,0.2854
2136.00,0.2851
2135.00,0.2849
2134.00,0.2847
2133.00,0.2846
2132.00,0.2846
2131.00,0.2845
2130.00,0.2844
2129.00,0.2843
2128.00,0.2843
2127.00,0.2842
2126.00,0.2840
2125.00,0.2839
2124.00,0.2838
2123.00,0.2837
2122.00,0.2836
2121.00,0.2835
2120.00,0.2834
2119.00,0.2833
2118.00,0.2832
2117.00,0.2831
2116.00,0.2829
2115.00,0.2828
2114.00,0.2826
2113.00,0.2825
2112.00,0.2824
2111.00,0.2822
2110.00,0.2821
2109.00,0.2819
2108.00,0.2818
2107.00,0.2816
2106.00,0.2815
2105.00,0.2815
2104.00,0.2814
2103.00,0.2812
2102.00,0.2811
2101.00,0.2810
2100.00,0.2810
2099.00,0.2810
2098.00,0.2810
2097.00,0.2810
2096.00,0.2810
2095.00,0.2810
2094.00,0.2810
2093.00,0.2811
2092.00,0.2811
2091.00,0.2811
2090.00,0.2811
2089.00,0.2811
2088.00,0.2811
2087.00,0.2812
2086.00,0.2812
2085.00,0.2812
2084.00,0.2813
2083.00,0.2812
2082.00,0.2812
2081.00,0.2812
2080.00,0.2812
2079.00,0.2812
2078.00,0.2812
2077.00,0.2812
2076.00,0.2813
2075.00,0.2813
2074.00,0.2813
2073.00,0.2813
2072.00,0.2813
2071.00,0.2813
2070.00,0.2813
2069.00,0.2813
2068.00,0.2813
2067.00,0.2814
2066.00,0.2814
2065.00,0.2814
2064.00,0.2815
2063.00,0.2815
2062.00,0.2816
2061.00,0.2818
2060.00,0.2820
2059.00,0.2821
2058.00,0.2821
2057.00,0.2822
2056.00,0.2824
2055.00,0.2825
2054.00,0.2827
2053.00,0.2828
2052.00,0.2830
2051.00,0.2831
2050.00,0.2833
2049.00,0.2835
2048.00,0.2838
2047.00,0.2841
2046.00,0.2843
2045.00,0.2845
2044.00,0.2847
2043.00,0.2848
2042.00,0.2849
2041.00,0.2850
2040.00,0.2851
2039.00,0.2852
2038.00,0.2853
2037.00,0.2854
2036.00,0.2855
2035.00,0.2856
2034.00,0.2856
2033.00,0.2856
2032.00,0.2855
2031.00,0.2855
2030.00,0.2854
2029.00,0.2853
2028.00,0.2853
2027.00,0.2852
2026.00,0.2850
2025.00,0.2849
2024.00,0.2847
2023.00,0.2844
2022.00,0.2840
2021.00,0.2837
2020.00,0.2833
2019.00,0.2828
2018.00,0.2824
2017.00,0.2819
2016.00,0.2814
2015.00,0.2809
2014.00,0.2804
2013.00,0.2800
2012.00,0.2796
2011.00,0.2791
2010.00,0.2787
2009.00,0.2784
2008.00,0.2781
2007.00,0.2778
2006.00,0.2775
2005.00,0.2773
2004.00,0.2771
2003.00,0.2769
2002.00,0.2768
2001.00,0.2767
2000.00,0.2766
1999.00,0.2765
1998.00,0.2763
1997.00,0.2762
1996.00,0.2761
1995.00,0.2760
1994.00,0.2759
1993.00,0.2757
1992.00,0.2756
1991.00,0.2755
1990.00,0.2754
1989.00,0.2753
1988.00,0.2752
1987.00,0.2751
1986.00,0.2749
1985.00,0.2748
1984.00,0.2747
1983.00,0.2745
1982.00,0.2744
1981.00,0.2743
1980.00,0.2742
1979.00,0.2742
1978.00,0.2742
1977.00,0.2742
1976.00,0.2742
1975.00,0.2742
1974.00,0.2743
1973.00,0.2743
1972.00,0.2744
1971.00,0.2745
1970.00,0.2745
1969.00,0.2746
1968.00,0.2748
1967.00,0.2748
1966.00,0.2749
1965.00,0.2750
1964.00,0.2751
1963.00,0.2752
1962.00,0.2753
1961.00,0.2755
1960.00,0.2757
1959.00,0.2758
1958.00,0.2760
1957.00,0.2761
1956.00,0.2763
1955.00,0.2764
1954.00,0.2765
1953.00,0.2765
1952.00,0.2766
1951.00,0.2766
1950.00,0.2766
1949.00,0.2766
1948.00,0.2767
1947.00,0.2768
1946.00,0.2769
1945.00,0.2770
1944.00,0.2772
1943.00,0.2775
1942.00,0.2779
1941.00,0.2784
1940.00,0.2789
1939.00,0.2793
1938.00,0.2796
1937.00,0.2797
1936.00,0.2797
1935.00,0.2796
1934.00,0.2795
1933.00,0.2794
1932.00,0.2795
1931.00,0.2797
1930.00,0.2798
1929.00,0.2799
1928.00,0.2801
1927.00,0.2802
1926.00,0.2803
1925.00,0.2806
1924.00,0.2809
1923.00,0.2813
1922.00,0.2817
1921.00,0.2821
1920.00,0.2825
1919.00,0.2828
1918.00,0.2830
1917.00,0.2832
1916.00,0.2835
1915.00,0.2837
1914.00,0.2838
1913.00,0.2839
1912.00,0.2840
1911.00,0.2840
1910.00,0.2840
1909.00,0.2840
1908.00,0.2840
1907.00,0.2839
1906.00,0.2837
1905.00,0.2837
1904.00,0.2836
1903.00,0.2836
1902.00,0.2836
1901.00,0.2837
1900.00,0.2838
1899.00,0.2839
1898.00,0.2840
1897.00,0.2842
1896.00,0.2845
1895.00,0.2847
1894.00,0.2850
1893.00,0.2852
1892.00,0.2855
1891.00,0.2858
1890.00,0.2859
1889.00,0.2861
1888.00,0.2862
1887.00,0.2864
1886.00,0.2865
1885.00,0.2866
1884.00,0.2867
1883.00,0.2867
1882.00,0.2867
1881.00,0.2867
1880.00,0.2867
1879.00,0.2866
1878.00,0.2865
1877.00,0.2862
1876.00,0.2860
1875.00,0.2857
1874.00,0.2854
1873.00,0.2852
1872.00,0.2848
1871.00,0.2844
1870.00,0.2840
1869.00,0.2839
1868.00,0.2838
1867.00,0.2837
1866.00,0.2835
1865.00,0.2833
1864.00,0.2830
1863.00,0.2826
1862.00,0.2823
1861.00,0.2821
1860.00,0.2819
1859.00,0.2818
1858.00,0.2816
1857.00,0.2815
1856.00,0.2814
1855.00,0.2813
1854.00,0.2812
1853.00,0.2812
1852.00,0.2812
1851.00,0.2811
1850.00,0.2810
1849.00,0.2810
1848.00,0.2810
1847.00,0.2809
1846.00,0.2806
1845.00,0.2803
1844.00,0.2801
1843.00,0.2800
1842.00,0.2800
1841.00,0.2802
1840.00,0.2803
1839.00,0.2803
1838.00,0.2802
1837.00,0.2800
1836.00,0.2799
1835.00,0.2796
1834.00,0.2794
1833.00,0.2793
1832.00,0.2793
1831.00,0.2794
1830.00,0.2794
1829.00,0.2792
1828.00,0.2790
1827.00,0.2787
1826.00,0.2784
1825.00,0.2782
1824.00,0.2783
1823.00,0.2784
1822.00,0.2785
1821.00,0.2786
1820.00,0.2786
1819.00,0.2786
1818.00,0.2786
1817.00,0.2787
1816.00,0.2789
1815.00,0.2792
1814.00,0.2795
1813.00,0.2798
1812.00,0.2801
1811.00,0.2804
1810.00,0.2807
1809.00,0.2810
1808.00,0.2813
1807.00,0.2816
1806.00,0.2819
1805.00,0.2822
1804.00,0.2825
1803.00,0.2828
1802.00,0.2831
1801.00,0.2838
1800.00,0.2845
1799.00,0.2852
1798.00,0.2857
1797.00,0.2861
1796.00,0.2865
1795.00,0.2868
1794.00,0.2869
1793.00,0.2871
1792.00,0.2874
1791.00,0.2877
1790.00,0.2881
1789.00,0.2886
1788.00,0.2891
1787.00,0.2894
1786.00,0.2895
1785.00,0.2897
1784.00,0.2901
1783.00,0.2907
1782.00,0.2913
1781.00,0.2919
1780.00,0.2924
1779.00,0.2929
1778.00,0.2934
1777.00,0.2941
1776.00,0.2947
1775.00,0.2954
1774.00,0.2961
1773.00,0.2971
1772.00,0.2982
1771.00,0.2990
1770.00,0.2996
1769.00,0.3002
1768.00,0.3010
1767.00,0.3021
1766.00,0.3035
1765.00,0.3049
1764.00,0.3064
1763.00,0.3077
1762.00,0.3093
1761.00,0.3112
1760.00,0.3133
1759.00,0.3156
1758.00,0.3181
1757.00,0.3210
1756.00,0.3244
1755.00,0.3278
1754.00,0.3311
1753.00,0.3344
1752.00,0.3383
1751.00,0.3426
1750.00,0.3473
1749.00,0.3519
1748.00,0.3559
1747.00,0.3590
1746.00,0.3613
1745.00,0.3630
1744.00,0.3645
1743.00,0.3655
1742.00,0.3662
1741.00,0.3665
1740.00,0.3664
1739.00,0.3658
1738.00,0.3650
1737.00,0.3639
1736.00,0.3625
1735.00,0.3605
1734.00,0.3585
1733.00,0.3574
1732.00,0.3571
1731.00,0.3571
1730.00,0.3569
1729.00,0.3567
1728.00,0.3567
1727.00,0.3570
1726.00,0.3578
1725.00,0.3592
1724.00,0.3611
1723.00,0.3634
1722.00,0.3662
1721.00,0.3694
1720.00,0.3732
1719.00,0.3783
1718.00,0.3855
1717.00,0.3945
1716.00,0.4045
1715.00,0.4152
1714.00,0.4268
1713.00,0.4388
1712.00,0.4507
1711.00,0.4620
1710.00,0.4720
1709.00,0.4798
1708.00,0.4843
1707.00,0.4852
1706.00,0.4826
1705.00,0.4767
1704.00,0.4689
1703.00,0.4602
1702.00,0.4500
1701.00,0.4369
1700.00,0.4224
1699.00,0.4109
1698.00,0.4030
1697.00,0.3959
1696.00,0.3878
1695.00,0.3797
1694.00,0.3740
1693.00,0.3703
1692.00,0.3673
1691.00,0.3642
1690.00,0.3611
1689.00,0.3586
1688.00,0.3565
1687.00,0.3546
1686.00,0.3527
1685.00,0.3508
1684.00,0.3487
1683.00,0.3468
1682.00,0.3456
1681.00,0.3449
1680.00,0.3442
1679.00,0.3434
1678.00,0.3425
1677.00,0.3416
1676.00,0.3406
1675.00,0.3397
1674.00,0.3394
1673.00,0.3395
1672.00,0.3398
1671.00,0.3397
1670.00,0.3395
1669.00,0.3391
1668.00,0.3388
1667.00,0.3388
1666.00,0.3390
1665.00,0.3392
1664.00,0.3395
1663.00,0.3396
1662.00,0.3398
1661.00,0.3401
1660.00,0.3405
1659.00,0.3409
1658.00,0.3414
1657.00,0.3419
1656.00,0.3422
1655.00,0.3423
1654.00,0.3429
1653.00,0.3441
1652.00,0.3450
1651.00,0.3464
1650.00,0.3483
1649.00,0.3500
1648.00,0.3514
1647.00,0.3525
1646.00,0.3532
1645.00,0.3540
1644.00,0.3554
1643.00,0.3570
1642.00,0.3585
1641.00,0.3602
1640.00,0.3619
1639.00,0.3637
1638.00,0.3654
1637.00,0.3674
1636.00,0.3696
1635.00,0.3715
1634.00,0.3732
1633.00,0.3752
1632.00,0.3775
1631.00,0.3796
1630.00,0.3819
1629.00,0.3845
1628.00,0.3873
1627.00,0.3899
1626.00,0.3925
1625.00,0.3955
1624.00,0.3993
1623.00,0.4037
1622.00,0.4084
1621.00,0.4136
1620.00,0.4191
1619.00,0.4252
1618.00,0.4328
1617.00,0.4428
1616.00,0.4540
1615.00,0.4644
1614.00,0.4739
1613.00,0.4833
1612.00,0.4932
1611.00,0.5033
1610.00,0.5133
1609.00,0.5232
1608.00,0.5327
1607.00,0.5409
1606.00,0.5479
1605.00,0.5544
1604.00,0.5607
1603.00,0.5665
1602.00,0.5719
1601.00,0.5776
1600.00,0.5840
1599.00,0.5910
1598.00,0.5989
1597.00,0.6092
1596.00,0.6228
1595.00,0.6398
1594.00,0.6608
1593.00,0.6876
1592.00,0.7222
1591.00,0.7659
1590.00,0.8209
1589.00,0.8912
1588.00,0.9818
1587.00,1.0960
1586.00,1.2371
1585.00,1.4110
1584.00,1.6255
1583.00,1.8747
1582.00,2.1154
1581.00,2.2788
1580.00,2.3100
1579.00,2.1668
1578.00,1.9053
1577.00,1.6353
1576.00,1.4103
1575.00,1.2438
1574.00,1.1281
1573.00,1.0466
1572.00,0.9848
1571.00,0.9348
1570.00,0.8967
1569.00,0.8748
1568.00,0.8712
1567.00,0.8845
1566.00,0.9149
1565.00,0.9649
1564.00,1.0328
1563.00,1.1087
1562.00,1.1800
1561.00,1.2363
1560.00,1.2512
1559.00,1.1866
1558.00,1.0771
1557.00,0.9814
1556.00,0.9031
1555.00,0.8299
1554.00,0.7628
1553.00,0.7085
1552.00,0.6679
1551.00,0.6357
1550.00,0.6085
1549.00,0.5863
1548.00,0.5697
1547.00,0.5568
1546.00,0.5458
1545.00,0.5363
1544.00,0.5289
1543.00,0.5230
1542.00,0.5181
1541.00,0.5137
1540.00,0.5091
1539.00,0.5036
1538.00,0.4988
1537.00,0.4959
1536.00,0.4937
1535.00,0.4914
1534.00,0.4889
1533.00,0.4871
1532.00,0.4867
1531.00,0.4872
1530.00,0.4883
1529.00,0.4898
1528.00,0.4912
1527.00,0.4919
1526.00,0.4918
1525.00,0.4916
1524.00,0.4916
1523.00,0.4917
1522.00,0.4921
1521.00,0.4936
1520.00,0.4963
1519.00,0.4998
1518.00,0.5037
1517.00,0.5078
1516.00,0.5114
1515.00,0.5136
1514.00,0.5147
1513.00,0.5154
1512.00,0.5162
1511.00,0.5173
1510.00,0.5193
1509.00,0.5228
1508.00,0.5292
1507.00,0.5387
1506.00,0.5498
1505.00,0.5609
1504.00,0.5713
1503.00,0.5802
1502.00,0.5882
1501.00,0.5957
1500.00,0.6027
1499.00,0.6092
1498.00,0.6159
1497.00,0.6244
1496.00,0.6346
1495.00,0.6451
1494.00,0.6556
1493.00,0.6669
1492.00,0.6792
1491.00,0.6929
1490.00,0.7083
1489.00,0.7260
1488.00,0.7452
1487.00,0.7655
1486.00,0.7881
1485.00,0.8145
1484.00,0.8450
1483.00,0.8803
1482.00,0.9223
1481.00,0.9722
1480.00,1.0283
1479.00,1.0894
1478.00,1.1585
1477.00,1.2409
1476.00,1.3378
1475.00,1.4488
1474.00,1.5828
1473.00,1.7594
1472.00,1.9905
1471.00,2.2659
1470.00,2.5774
1469.00,2.9543
1468.00,3.4347
1467.00,3.8561
1466.00,3.9803
1465.00,4.1522
1464.00,4.0142
1463.00,3.7159
1462.00,3.7077
1461.00,4.0865
1460.00,5.0176
1459.00,4.2064
1458.00,3.9756
1457.00,4.2869
1456.00,4.0069
1455.00,3.5909
1454.00,3.4919
1453.00,3.5635
1452.00,3.7205
1451.00,3.6807
1450.00,3.4874
1449.00,3.3836
1448.00,3.2154
1447.00,3.0170
1446.00,2.8802
1445.00,2.7715
1444.00,2.6344
1443.00,2.4772
1442.00,2.3359
1441.00,2.2144
1440.00,2.1006
1439.00,1.9884
1438.00,1.8751
1437.00,1.7567
1436.00,1.6392
1435.00,1.5345
1434.00,1.4435
1433.00,1.3585
1432.00,1.2747
1431.00,1.1941
1430.00,1.1213
1429.00,1.0588
1428.00,1.0076
1427.00,0.9673
1426.00,0.9355
1425.00,0.9090
1424.00,0.8873
1423.00,0.8707
1422.00,0.8585
1421.00,0.8484
1420.00,0.8391
1419.00,0.8307
1418.00,0.8239
1417.00,0.8186
1416.00,0.8147
1415.00,0.8121
1414.00,0.8105
1413.00,0.8096
1412.00,0.8094
1411.00,0.8097
1410.00,0.8096
1409.00,0.8079
1408.00,0.8037
1407.00,0.7967
1406.00,0.7864
1405.00,0.7733
1404.00,0.7590
1403.00,0.7456
1402.00,0.7338
1401.00,0.7229
1400.00,0.7132
1399.00,0.7055
1398.00,0.7003
1397.00,0.6976
1396.00,0.6976
1395.00,0.7011
1394.00,0.7089
1393.00,0.7215
1392.00,0.7403
1391.00,0.7671
1390.00,0.8040
1389.00,0.8540
1388.00,0.9216
1387.00,1.0078
1386.00,1.1071
1385.00,1.2118
1384.00,1.3198
1383.00,1.4345
1382.00,1.5602
1381.00,1.7004
1380.00,1.8582
1379.00,2.0232
1378.00,2.1546
1377.00,2.1985
1376.00,2.1425
1375.00,2.0140
1374.00,1.8535
1373.00,1.6991
1372.00,1.5704
1371.00,1.4700
1370.00,1.3959
1369.00,1.3460
1368.00,1.3155
1367.00,1.2936
1366.00,1.2655
1365.00,1.2203
1364.00,1.1579
1363.00,1.0877
1362.00,1.0219
1361.00,0.9681
1360.00,0.9274
1359.00,0.8974
1358.00,0.8754
1357.00,0.8598
1356.00,0.8494
1355.00,0.8430
1354.00,0.8394
1353.00,0.8372
1352.00,0.8353
1351.00,0.8329
1350.00,0.8297
1349.00,0.8260
1348.00,0.8222
1347.00,0.8188
1346.00,0.8161
1345.00,0.8139
1344.00,0.8119
1343.00,0.8097
1342.00,0.8066
1341.00,0.8018
1340.00,0.7947
1339.00,0.7855
1338.00,0.7744
1337.00,0.7618
1336.00,0.7481
1335.00,0.7342
1334.00,0.7207
1333.00,0.7080
1332.00,0.6966
1331.00,0.6870
1330.00,0.6794
1329.00,0.6736
1328.00,0.6696
1327.00,0.6670
1326.00,0.6654
1325.00,0.6646
1324.00,0.6644
1323.00,0.6647
1322.00,0.6654
1321.00,0.6662
1320.00,0.6670
1319.00,0.6681
1318.00,0.6696
1317.00,0.6715
1316.00,0.6739
1315.00,0.6769
1314.00,0.6804
1313.00,0.6843
1312.00,0.6883
1311.00,0.6922
1310.00,0.6955
1309.00,0.6983
1308.00,0.7006
1307.00,0.7025
1306.00,0.7036
1305.00,0.7036
1304.00,0.7022
1303.00,0.6996
1302.00,0.6960
1301.00,0.6917
1300.00,0.6868
1299.00,0.6814
1298.00,0.6758
1297.00,0.6702
1296.00,0.6650
1295.00,0.6602
1294.00,0.6557
1293.00,0.6516
1292.00,0.6478
1291.00,0.6443
1290.00,0.6410
1289.00,0.6377
1288.00,0.6344
1287.00,0.6310
1286.00,0.6274
1285.00,0.6235
1284.00,0.6194
1283.00,0.6156
1282.00,0.6122
1281.00,0.6092
1280.00,0.6066
1279.00,0.6044
1278.00,0.6023
1277.00,0.6002
1276.00,0.5980
1275.00,0.5958
1274.00,0.5939
1273.00,0.5924
1272.00,0.5912
1271.00,0.5906
1270.00,0.5902
1269.00,0.5895
1268.00,0.5879
1267.00,0.5850
1266.00,0.5812
1265.00,0.5767
1264.00,0.5725
1263.00,0.5690
1262.00,0.5665
1261.00,0.5647
1260.00,0.5633
1259.00,0.5620
1258.00,0.5607
1257.00,0.5591
1256.00,0.5572
1255.00,0.5555
1254.00,0.5541
1253.00,0.5529
1252.00,0.5518
1251.00,0.5507
1250.00,0.5497
1249.00,0.5484
1248.00,0.5467
1247.00,0.5448
1246.00,0.5426
1245.00,0.5400
1244.00,0.5371
1243.00,0.5340
1242.00,0.5307
1241.00,0.5273
1240.00,0.5240
1239.00,0.5211
1238.00,0.5188
1237.00,0.5167
1236.00,0.5150
1235.00,0.5138
1234.00,0.5133
1233.00,0.5133
1232.00,0.5137
1231.00,0.5144
1230.00,0.5151
1229.00,0.5153
1228.00,0.5143
1227.00,0.5123
1226.00,0.5094
1225.00,0.5062
1224.00,0.5032
1223.00,0.5006
1222.00,0.4987
1221.00,0.4971
1220.00,0.4957
1219.00,0.4948
1218.00,0.4944
1217.00,0.4946
1216.00,0.4952
1215.00,0.4962
1214.00,0.4971
1213.00,0.4975
1212.00,0.4973
1211.00,0.4964
1210.00,0.4951
1209.00,0.4935
1208.00,0.4919
1207.00,0.4903
1206.00,0.4887
1205.00,0.4870
1204.00,0.4854
1203.00,0.4841
1202.00,0.4829
1201.00,0.4820
1200.00,0.4814
1199.00,0.4812
1198.00,0.4811
1197.00,0.4808
1196.00,0.4803
1195.00,0.4796
1194.00,0.4789
1193.00,0.4783
1192.00,0.4778
1191.00,0.4774
1190.00,0.4769
1189.00,0.4765
1188.00,0.4759
1187.00,0.4755
1186.00,0.4750
1185.00,0.4746
1184.00,0.4742
1183.00,0.4740
1182.00,0.4741
1181.00,0.4742
1180.00,0.4747
1179.00,0.4756
1178.00,0.4770
1177.00,0.4788
1176.00,0.4809
1175.00,0.4838
1174.00,0.4874
1173.00,0.4918
1172.00,0.4963
1171.00,0.5006
1170.00,0.5038
1169.00,0.5056
1168.00,0.5058
1167.00,0.5050
1166.00,0.5038
1165.00,0.5027
1164.00,0.5020
1163.00,0.5017
1162.00,0.5021
1161.00,0.5029
1160.00,0.5042
1159.00,0.5057
1158.00,0.5073
1157.00,0.5085
1156.00,0.5090
1155.00,0.5088
1154.00,0.5080
1153.00,0.5065
1152.00,0.5045
1151.00,0.5023
1150.00,0.4999
1149.00,0.4974
1148.00,0.4948
1147.00,0.4925
1146.00,0.4906
1145.00,0.4893
1144.00,0.4886
1143.00,0.4887
1142.00,0.4897
1141.00,0.4917
1140.00,0.4949
1139.00,0.4992
1138.00,0.5046
1137.00,0.5110
1136.00,0.5181
1135.00,0.5254
1134.00,0.5315
1133.00,0.5348
1132.00,0.5341
1131.00,0.5294
1130.00,0.5220
1129.00,0.5139
1128.00,0.5065
1127.00,0.5009
1126.00,0.4970
1125.00,0.4944
1124.00,0.4926
1123.00,0.4913
1122.00,0.4901
1121.00,0.4891
1120.00,0.4886
1119.00,0.4889
1118.00,0.4904
1117.00,0.4930
1116.00,0.4966
1115.00,0.5002
1114.00,0.5023
1113.00,0.5017
1112.00,0.4977
1111.00,0.4915
1110.00,0.4845
1109.00,0.4782
1108.00,0.4731
1107.00,0.4697
1106.00,0.4676
1105.00,0.4664
1104.00,0.4656
1103.00,0.4651
1102.00,0.4646
1101.00,0.4640
1100.00,0.4631
1099.00,0.4620
1098.00,0.4608
1097.00,0.4597
1096.00,0.4588
1095.00,0.4581
1094.00,0.4577
1093.00,0.4577
1092.00,0.4580
1091.00,0.4588
1090.00,0.4600
1089.00,0.4617
1088.00,0.4641
1087.00,0.4675
1086.00,0.4717
1085.00,0.4767
1084.00,0.4823
1083.00,0.4887
1082.00,0.4958
1081.00,0.5032
1080.00,0.5105
1079.00,0.5171
1078.00,0.5221
1077.00,0.5248
1076.00,0.5245
1075.00,0.5215
1074.00,0.5165
1073.00,0.5104
1072.00,0.5044
1071.00,0.4992
1070.00,0.4949
1069.00,0.4916
1068.00,0.4889
1067.00,0.4870
1066.00,0.4858
1065.00,0.4851
1064.00,0.4847
1063.00,0.4847
1062.00,0.4851
1061.00,0.4855
1060.00,0.4858
1059.00,0.4858
1058.00,0.4856
1057.00,0.4851
1056.00,0.4845
1055.00,0.4838
1054.00,0.4832
1053.00,0.4827
1052.00,0.4826
1051.00,0.4832
1050.00,0.4844
1049.00,0.4862
1048.00,0.4882
1047.00,0.4901
1046.00,0.4915
1045.00,0.4921
1044.00,0.4920
1043.00,0.4917
1042.00,0.4913
1041.00,0.4910
1040.00,0.4907
1039.00,0.4904
1038.00,0.4902
1037.00,0.4899
1036.00,0.4898
1035.00,0.4902
1034.00,0.4912
1033.00,0.4929
1032.00,0.4952
1031.00,0.4975
1030.00,0.4993
1029.00,0.5003
1028.00,0.5001
1027.00,0.4985
1026.00,0.4952
1025.00,0.4905
1024.00,0.4849
1023.00,0.4791
1022.00,0.4738
1021.00,0.4689
1020.00,0.4647
1019.00,0.4610
1018.00,0.4579
1017.00,0.4551
1016.00,0.4526
1015.00,0.4503
1014.00,0.4484
1013.00,0.4467
1012.00,0.4452
1011.00,0.4440
1010.00,0.4434
1009.00,0.4432
1008.00,0.4434
1007.00,0.4440
1006.00,0.4451
1005.00,0.4465
1004.00,0.4481
1003.00,0.4500
1002.00,0.4519
1001.00,0.4535
1000.00,0.4547
999.00,0.4555
998.00,0.4557
997.00,0.4552
996.00,0.4539
995.00,0.4520
994.00,0.4497
993.00,0.4472
992.00,0.4443
991.00,0.4413
990.00,0.4382
989.00,0.4352
988.00,0.4329
987.00,0.4314
986.00,0.4308
985.00,0.4310
984.00,0.4319
983.00,0.4335
982.00,0.4356
981.00,0.4380
980.00,0.4404
979.00,0.4428
978.00,0.4450
977.00,0.4468
976.00,0.4484
975.00,0.4498
974.00,0.4507
973.00,0.4512
972.00,0.4512
971.00,0.4509
970.00,0.4506
969.00,0.4503
968.00,0.4501
967.00,0.4499
966.00,0.4497
965.00,0.4491
964.00,0.4480
963.00,0.4468
962.00,0.4454
961.00,0.4441
960.00,0.4429
959.00,0.4419
958.00,0.4412
957.00,0.4408
956.00,0.4406
955.00,0.4404
954.00,0.4401
953.00,0.4395
952.00,0.4385
951.00,0.4375
950.00,0.4366
949.00,0.4362
948.00,0.4364
947.00,0.4370
946.00,0.4379
945.00,0.4391
944.00,0.4404
943.00,0.4419
942.00,0.4434
941.00,0.4448
940.00,0.4460
939.00,0.4467
938.00,0.4469
937.00,0.4464
936.00,0.4453
935.00,0.4437
934.00,0.4418
933.00,0.4396
932.00,0.4372
931.00,0.4348
930.00,0.4328
929.00,0.4312
928.00,0.4303
927.00,0.4304
926.00,0.4318
925.00,0.4345
924.00,0.4384
923.00,0.4432
922.00,0.4479
921.00,0.4512
920.00,0.4518
919.00,0.4491
918.00,0.4435
917.00,0.4360
916.00,0.4277
915.00,0.4198
914.00,0.4128
913.00,0.4072
912.00,0.4029
911.00,0.3997
910.00,0.3973
909.00,0.3954
908.00,0.3939
907.00,0.3929
906.00,0.3922
905.00,0.3919
904.00,0.3919
903.00,0.3925
902.00,0.3939
901.00,0.3957
900.00,0.3981
899.00,0.4010
898.00,0.4043
897.00,0.4078
896.00,0.4114
895.00,0.4151
894.00,0.4189
893.00,0.4228
892.00,0.4268
891.00,0.4306
890.00,0.4337
889.00,0.4356
888.00,0.4359
887.00,0.4349
886.00,0.4330
885.00,0.4306
884.00,0.4285
883.00,0.4269
882.00,0.4264
881.00,0.4267
880.00,0.4276
879.00,0.4287
878.00,0.4296
877.00,0.4300
876.00,0.4299
875.00,0.4299
874.00,0.4302
873.00,0.4307
872.00,0.4313
871.00,0.4321
870.00,0.4331
869.00,0.4344
868.00,0.4363
867.00,0.4390
866.00,0.4425
865.00,0.4465
864.00,0.4505
863.00,0.4535
862.00,0.4547
861.00,0.4532
860.00,0.4491
859.00,0.4432
858.00,0.4367
857.00,0.4306
856.00,0.4255
855.00,0.4216
854.00,0.4188
853.00,0.4166
852.00,0.4150
851.00,0.4135
850.00,0.4120
849.00,0.4101
848.00,0.4077
847.00,0.4049
846.00,0.4020
845.00,0.3992
844.00,0.3967
843.00,0.3949
842.00,0.3944
841.00,0.3955
840.00,0.3984
839.00,0.4033
838.00,0.4097
837.00,0.4162
836.00,0.4210
835.00,0.4223
834.00,0.4201
833.00,0.4158
832.00,0.4114
831.00,0.4086
830.00,0.4079
829.00,0.4092
828.00,0.4122
827.00,0.4165
826.00,0.4217
825.00,0.4275
824.00,0.4335
823.00,0.4401
822.00,0.4470
821.00,0.4540
820.00,0.4605
819.00,0.4666
818.00,0.4719
817.00,0.4761
816.00,0.4786
815.00,0.4791
814.00,0.4773
813.00,0.4733
812.00,0.4678
811.00,0.4617
810.00,0.4556
809.00,0.4497
808.00,0.4443
807.00,0.4394
806.00,0.4347
805.00,0.4300
804.00,0.4248
803.00,0.4193
802.00,0.4136
801.00,0.4080
800.00,0.4029
799.00,0.3987
798.00,0.3957
797.00,0.3938
796.00,0.3926
795.00,0.3919
794.00,0.3919
793.00,0.3922
792.00,0.3930
791.00,0.3943
790.00,0.3964
789.00,0.3990
788.00,0.4019
787.00,0.4053
786.00,0.4091
785.00,0.4135
784.00,0.4183
783.00,0.4229
782.00,0.4267
781.00,0.4293
780.00,0.4312
779.00,0.4328
778.00,0.4346
777.00,0.4364
776.00,0.4382
775.00,0.4400
774.00,0.4419
773.00,0.4437
772.00,0.4458
771.00,0.4482
770.00,0.4511
769.00,0.4543
768.00,0.4576
767.00,0.4604
766.00,0.4627
765.00,0.4644
764.00,0.4659
763.00,0.4677
762.00,0.4703
761.00,0.4736
760.00,0.4774
759.00,0.4812
758.00,0.4847
757.00,0.4875
756.00,0.4900
755.00,0.4926
754.00,0.4958
753.00,0.4998
752.00,0.5042
751.00,0.5090
750.00,0.5139
749.00,0.5185
748.00,0.5226
747.00,0.5264
746.00,0.5301
745.00,0.5340
744.00,0.5384
743.00,0.5435
742.00,0.5492
741.00,0.5546
740.00,0.5591
739.00,0.5628
738.00,0.5663
737.00,0.5700
736.00,0.5743
735.00,0.5791
734.00,0.5846
733.00,0.5907
732.00,0.5980
731.00,0.6075
730.00,0.6198
729.00,0.6353
728.00,0.6541
727.00,0.6767
726.00,0.7034
725.00,0.7330
724.00,0.7623
723.00,0.7856
722.00,0.7950
721.00,0.7843
720.00,0.7536
719.00,0.7106
718.00,0.6646
717.00,0.6222
716.00,0.5864
715.00,0.5576
714.00,0.5350
713.00,0.5168
712.00,0.5019
711.00,0.4898
710.00,0.4800
709.00,0.4720
708.00,0.4654
707.00,0.4599
706.00,0.4553
705.00,0.4512
704.00,0.4473
703.00,0.4438
702.00,0.4415
701.00,0.4399
700.00,0.4379
699.00,0.4329
698.00,0.4235
697.00,0.4096
696.00,0.3938
695.00,0.3790
694.00,0.3670
693.00,0.3581
692.00,0.3517
691.00,0.3469
690.00,0.3432
689.00,0.3399
688.00,0.3372
687.00,0.3350
686.00,0.3334
685.00,0.3320
684.00,0.3308
683.00,0.3300
682.00,0.3294
681.00,0.3290
680.00,0.3286
679.00,0.3283
678.00,0.3282
677.00,0.3283
676.00,0.3284
675.00,0.3287
674.00,0.3289
673.00,0.3292
672.00,0.3295
671.00,0.3301
670.00,0.3312
669.00,0.3324
668.00,0.3334
667.00,0.3337
666.00,0.3338
665.00,0.3340
664.00,0.3345
663.00,0.3354
662.00,0.3364
661.00,0.3371
660.00,0.3377
659.00,0.3384
658.00,0.3394
657.00,0.3407
656.00,0.3419
655.00,0.3430
654.00,0.3440
653.00,0.3448
652.00,0.3454
651.00,0.3460
650.00,0.3468
649.00,0.3478
648.00,0.3489
647.00,0.3501
646.00,0.3514
645.00,0.3529
644.00,0.3545
643.00,0.3558
642.00,0.3570
641.00,0.3582
640.00,0.3595
639.00,0.3608
638.00,0.3621
637.00,0.3632
636.00,0.3641
635.00,0.3649
634.00,0.3654
633.00,0.3658
632.00,0.3663
631.00,0.3669
630.00,0.3679
629.00,0.3691
628.00,0.3706
627.00,0.3724
626.00,0.3746
625.00,0.3771
624.00,0.3798
623.00,0.3826
622.00,0.3850
621.00,0.3868
620.00,0.3879
619.00,0.3887
618.00,0.3893
617.00,0.3897
616.00,0.3898
615.00,0.3896
614.00,0.3891
613.00,0.3884
612.00,0.3875
611.00,0.3864
610.00,0.3850
609.00,0.3832
608.00,0.3809
607.00,0.3786
606.00,0.3769
605.00,0.3759
604.00,0.3754
603.00,0.3754
602.00,0.3755
601.00,0.3756
600.00,0.3760
599.00,0.3768
598.00,0.3778
597.00,0.3787
596.00,0.3794
595.00,0.3803
594.00,0.3819
593.00,0.3839
592.00,0.3862
591.00,0.3887
590.00,0.3911
589.00,0.3934
588.00,0.3955
587.00,0.3976
586.00,0.3995
585.00,0.4015
584.00,0.4038
583.00,0.4067
582.00,0.4100
581.00,0.4130
580.00,0.4155
579.00,0.4178
578.00,0.4200
577.00,0.4223
576.00,0.4245
575.00,0.4268
574.00,0.4294
573.00,0.4320
572.00,0.4345
571.00,0.4364
570.00,0.4379
569.00,0.4390
568.00,0.4402
567.00,0.4417
566.00,0.4432
565.00,0.4448
564.00,0.4465
563.00,0.4479
562.00,0.4489
561.00,0.4490
560.00,0.4487
559.00,0.4486
558.00,0.4491
557.00,0.4502
556.00,0.4516
555.00,0.4530
554.00,0.4543
553.00,0.4555
552.00,0.4567
551.00,0.4577
550.00,0.4584
