Created as New Dataset,
cm-1,A
4000.00,0.3899
3999.00,0.3896
3998.00,0.3892
3997.00,0.3889
3996.00,0.3885
3995.00,0.3881
3994.00,0.3878
3993.00,0.3876
3992.00,0.3873
3991.00,0.3870
3990.00,0.3867
3989.00,0.3863
3988.00,0.3860
3987.00,0.3857
3986.00,0.3855
3985.00,0.3853
3984.00,0.3850
3983.00,0.3847
3982.00,0.3844
3981.00,0.3841
3980.00,0.3839
3979.00,0.3836
3978.00,0.3834
3977.00,0.3831
3976.00,0.3828
3975.00,0.3825
3974.00,0.3822
3973.00,0.3819
3972.00,0.3816
3971.00,0.3813
3970.00,0.3811
3969.00,0.3808
3968.00,0.3806
3967.00,0.3803
3966.00,0.3800
3965.00,0.3797
3964.00,0.3794
3963.00,0.3792
3962.00,0.3791
3961.00,0.3789
3960.00,0.3787
3959.00,0.3785
3958.00,0.3783
3957.00,0.3782
3956.00,0.3780
3955.00,0.3779
3954.00,0.3778
3953.00,0.3776
3952.00,0.3775
3951.00,0.3775
3950.00,0.3774
3949.00,0.3772
3948.00,0.3771
3947.00,0.3770
3946.00,0.3769
3945.00,0.3768
3944.00,0.3766
3943.00,0.3766
3942.00,0.3766
3941.00,0.3765
3940.00,0.3764
3939.00,0.3763
3938.00,0.3762
3937.00,0.3760
3936.00,0.3760
3935.00,0.3759
3934.00,0.3759
3933.00,0.3759
3932.00,0.3758
3931.00,0.3757
3930.00,0.3756
3929.00,0.3755
3928.00,0.3754
3927.00,0.3754
3926.00,0.3753
3925.00,0.3753
3924.00,0.3753
3923.00,0.3752
3922.00,0.3751
3921.00,0.3750
3920.00,0.3749
3919.00,0.3748
3918.00,0.3748
3917.00,0.3749
3916.00,0.3749
3915.00,0.3749
3914.00,0.3748
3913.00,0.3747
3912.00,0.3747
3911.00,0.3748
3910.00,0.3748
3909.00,0.3748
3908.00,0.3748
3907.00,0.3748
3906.00,0.3748
3905.00,0.3748
3904.00,0.3747
3903.00,0.3747
3902.00,0.3746
3901.00,0.3745
3900.00,0.3745
3899.00,0.3744
3898.00,0.3743
3897.00,0.3743
3896.00,0.3742
3895.00,0.3741
3894.00,0.3740
3893.00,0.3739
3892.00,0.3738
3891.00,0.3737
3890.00,0.3736
3889.00,0.3734
3888.00,0.3731
3887.00,0.3729
3886.00,0.3729
3885.00,0.3730
3884.00,0.3731
3883.00,0.3729
3882.00,0.3727
3881.00,0.3726
3880.00,0.3727
3879.00,0.3727
3878.00,0.3727
3877.00,0.3724
3876.00,0.3722
3875.00,0.3722
3874.00,0.3723
3873.00,0.3724
3872.00,0.3722
3871.00,0.3719
3870.00,0.3719
3869.00,0.3720
3868.00,0.3720
3867.00,0.3718
3866.00,0.3715
3865.00,0.3714
3864.00,0.3714
3863.00,0.3713
3862.00,0.3711
3861.00,0.3709
3860.00,0.3708
3859.00,0.3707
3858.00,0.3707
3857.00,0.3707
3856.00,0.3706
3855.00,0.3704
3854.00,0.3702
3853.00,0.3702
3852.00,0.3702
3851.00,0.3700
3850.00,0.3698
3849.00,0.3698
3848.00,0.3699
3847.00,0.3699
3846.00,0.3699
3845.00,0.3697
3844.00,0.3695
3843.00,0.3694
3842.00,0.3693
3841.00,0.3692
3840.00,0.3692
3839.00,0.3692
3838.00,0.3693
3837.00,0.3693
3836.00,0.3694
3835.00,0.3693
3834.00,0.3692
3833.00,0.3691
3832.00,0.3691
3831.00,0.3691
3830.00,0.3690
3829.00,0.3688
3828.00,0.3685
3827.00,0.3684
3826.00,0.3684
3825.00,0.3684
3824.00,0.3683
3823.00,0.3680
3822.00,0.3679
3821.00,0.3680
3820.00,0.3681
3819.00,0.3679
3818.00,0.3674
3817.00,0.3671
3816.00,0.3670
3815.00,0.3671
3814.00,0.3670
3813.00,0.3667
3812.00,0.3663
3811.00,0.3660
3810.00,0.3659
3809.00,0.3656
3808.00,0.3654
3807.00,0.3652
3806.00,0.3651
3805.00,0.3650
3804.00,0.3647
3803.00,0.3643
3802.00,0.3642
3801.00,0.3644
3800.00,0.3644
3799.00,0.3642
3798.00,0.3639
3797.00,0.3636
3796.00,0.3636
3795.00,0.3636
3794.00,0.3634
3793.00,0.3632
3792.00,0.3629
3791.00,0.3628
3790.00,0.3626
3789.00,0.3625
3788.00,0.3624
3787.00,0.3622
3786.00,0.3620
3785.00,0.3618
3784.00,0.3617
3783.00,0.3615
3782.00,0.3613
3781.00,0.3612
3780.00,0.3610
3779.00,0.3610
3778.00,0.3610
3777.00,0.3608
3776.00,0.3606
3775.00,0.3604
3774.00,0.3602
3773.00,0.3600
3772.00,0.3598
3771.00,0.3596
3770.00,0.3595
3769.00,0.3594
3768.00,0.3592
3767.00,0.3590
3766.00,0.3588
3765.00,0.3587
3764.00,0.3587
3763.00,0.3585
3762.00,0.3583
3761.00,0.3580
3760.00,0.3579
3759.00,0.3578
3758.00,0.3576
3757.00,0.3575
3756.00,0.3574
3755.00,0.3573
3754.00,0.3572
3753.00,0.3570
3752.00,0.3568
3751.00,0.3567
3750.00,0.3566
3749.00,0.3566
3748.00,0.3566
3747.00,0.3564
3746.00,0.3562
3745.00,0.3561
3744.00,0.3562
3743.00,0.3562
3742.00,0.3560
3741.00,0.3556
3740.00,0.3553
3739.00,0.3552
3738.00,0.3551
3737.00,0.3549
3736.00,0.3547
3735.00,0.3546
3734.00,0.3545
3733.00,0.3544
3732.00,0.3544
3731.00,0.3543
3730.00,0.3543
3729.00,0.3541
3728.00,0.3538
3727.00,0.3537
3726.00,0.3535
3725.00,0.3534
3724.00,0.3531
3723.00,0.3530
3722.00,0.3528
3721.00,0.3528
3720.00,0.3527
3719.00,0.3525
3718.00,0.3524
3717.00,0.3523
3716.00,0.3523
3715.00,0.3522
3714.00,0.3520
3713.00,0.3518
3712.00,0.3517
3711.00,0.3516
3710.00,0.3516
3709.00,0.3515
3708.00,0.3516
3707.00,0.3516
3706.00,0.3517
3705.00,0.3517
3704.00,0.3516
3703.00,0.3516
3702.00,0.3515
3701.00,0.3515
3700.00,0.3515
3699.00,0.3514
3698.00,0.3513
3697.00,0.3512
3696.00,0.3512
3695.00,0.3512
3694.00,0.3512
3693.00,0.3513
3692.00,0.3513
3691.00,0.3512
3690.00,0.3511
3689.00,0.3511
3688.00,0.3511
3687.00,0.3512
3686.00,0.3512
3685.00,0.3512
3684.00,0.3511
3683.00,0.3510
3682.00,0.3509
3681.00,0.3508
3680.00,0.3508
3679.00,0.3507
3678.00,0.3506
3677.00,0.3503
3676.00,0.3502
3675.00,0.3504
3674.00,0.3506
3673.00,0.3506
3672.00,0.3503
3671.00,0.3501
3670.00,0.3501
3669.00,0.3503
3668.00,0.3503
3667.00,0.3502
3666.00,0.3501
3665.00,0.3501
3664.00,0.3502
3663.00,0.3503
3662.00,0.3504
3661.00,0.3505
3660.00,0.3505
3659.00,0.3505
3658.00,0.3505
3657.00,0.3506
3656.00,0.3508
3655.00,0.3510
3654.00,0.3511
3653.00,0.3512
3652.00,0.3513
3651.00,0.3515
3650.00,0.3517
3649.00,0.3518
3648.00,0.3518
3647.00,0.3519
3646.00,0.3519
3645.00,0.3520
3644.00,0.3521
3643.00,0.3523
3642.00,0.3525
3641.00,0.3526
3640.00,0.3527
3639.00,0.3527
3638.00,0.3528
3637.00,0.3529
3636.00,0.3530
3635.00,0.3531
3634.00,0.3532
3633.00,0.3534
3632.00,0.3536
3631.00,0.3538
3630.00,0.3539
3629.00,0.3543
3628.00,0.3549
3627.00,0.3553
3626.00,0.3555
3625.00,0.3558
3624.00,0.3561
3623.00,0.3564
3622.00,0.3565
3621.00,0.3565
3620.00,0.3564
3619.00,0.3563
3618.00,0.3561
3617.00,0.3559
3616.00,0.3557
3615.00,0.3555
3614.00,0.3555
3613.00,0.3556
3612.00,0.3557
3611.00,0.3558
3610.00,0.3558
3609.00,0.3558
3608.00,0.3558
3607.00,0.3559
3606.00,0.3558
3605.00,0.3557
3604.00,0.3554
3603.00,0.3551
3602.00,0.3548
3601.00,0.3544
3600.00,0.3540
3599.00,0.3535
3598.00,0.3530
3597.00,0.3524
3596.00,0.3518
3595.00,0.3513
3594.00,0.3509
3593.00,0.3505
3592.00,0.3501
3591.00,0.3498
3590.00,0.3495
3589.00,0.3492
3588.00,0.3490
3587.00,0.3489
3586.00,0.3488
3585.00,0.3487
3584.00,0.3485
3583.00,0.3484
3582.00,0.3484
3581.00,0.3485
3580.00,0.3486
3579.00,0.3486
3578.00,0.3486
3577.00,0.3486
3576.00,0.3487
3575.00,0.3489
3574.00,0.3490
3573.00,0.3491
3572.00,0.3493
3571.00,0.3493
3570.00,0.3494
3569.00,0.3494
3568.00,0.3494
3567.00,0.3496
3566.00,0.3498
3565.00,0.3500
3564.00,0.3501
3563.00,0.3503
3562.00,0.3506
3561.00,0.3508
3560.00,0.3511
3559.00,0.3513
3558.00,0.3515
3557.00,0.3518
3556.00,0.3521
3555.00,0.3524
3554.00,0.3527
3553.00,0.3529
3552.00,0.3533
3551.00,0.3537
3550.00,0.3540
3549.00,0.3544
3548.00,0.3548
3547.00,0.3552
3546.00,0.3556
3545.00,0.3560
3544.00,0.3564
3543.00,0.3569
3542.00,0.3573
3541.00,0.3578
3540.00,0.3582
3539.00,0.3586
3538.00,0.3589
3537.00,0.3593
3536.00,0.3596
3535.00,0.3598
3534.00,0.3601
3533.00,0.3603
3532.00,0.3605
3531.00,0.3608
3530.00,0.3611
3529.00,0.3613
3528.00,0.3616
3527.00,0.3619
3526.00,0.3622
3525.00,0.3625
3524.00,0.3629
3523.00,0.3633
3522.00,0.3637
3521.00,0.3641
3520.00,0.3645
3519.00,0.3648
3518.00,0.3651
3517.00,0.3654
3516.00,0.3657
3515.00,0.3661
3514.00,0.3665
3513.00,0.3670
3512.00,0.3674
3511.00,0.3679
3510.00,0.3684
3509.00,0.3689
3508.00,0.3694
3507.00,0.3699
3506.00,0.3704
3505.00,0.3709
3504.00,0.3714
3503.00,0.3720
3502.00,0.3725
3501.00,0.3731
3500.00,0.3736
3499.00,0.3741
3498.00,0.3747
3497.00,0.3754
3496.00,0.3760
3495.00,0.3766
3494.00,0.3772
3493.00,0.3778
3492.00,0.3784
3491.00,0.3791
3490.00,0.3798
3489.00,0.3804
3488.00,0.3811
3487.00,0.3817
3486.00,0.3823
3485.00,0.3830
3484.00,0.3836
3483.00,0.3841
3482.00,0.3847
3481.00,0.3852
3480.00,0.3858
3479.00,0.3863
3478.00,0.3868
3477.00,0.3872
3476.00,0.3877
3475.00,0.3882
3474.00,0.3887
3473.00,0.3893
3472.00,0.3899
3471.00,0.3905
3470.00,0.3911
3469.00,0.3916
3468.00,0.3921
3467.00,0.3926
3466.00,0.3931
3465.00,0.3937
3464.00,0.3942
3463.00,0.3948
3462.00,0.3954
3461.00,0.3961
3460.00,0.3967
3459.00,0.3973
3458.00,0.3979
3457.00,0.3985
3456.00,0.3991
3455.00,0.3998
3454.00,0.4004
3453.00,0.4011
3452.00,0.4017
3451.00,0.4023
3450.00,0.4029
3449.00,0.4035
3448.00,0.4042
3447.00,0.4049
3446.00,0.4056
3445.00,0.4064
3444.00,0.4071
3443.00,0.4079
3442.00,0.4086
3441.00,0.4094
3440.00,0.4101
3439.00,0.4108
3438.00,0.4115
3437.00,0.4123
3436.00,0.4131
3435.00,0.4138
3434.00,0.4146
3433.00,0.4154
3432.00,0.4161
3431.00,0.4167
3430.00,0.4174
3429.00,0.4181
3428.00,0.4189
3427.00,0.4197
3426.00,0.4206
3425.00,0.4214
3424.00,0.4223
3423.00,0.4231
3422.00,0.4239
3421.00,0.4248
3420.00,0.4256
3419.00,0.4265
3418.00,0.4274
3417.00,0.4284
3416.00,0.4293
3415.00,0.4302
3414.00,0.4311
3413.00,0.4320
3412.00,0.4330
3411.00,0.4340
3410.00,0.4350
3409.00,0.4359
3408.00,0.4368
3407.00,0.4378
3406.00,0.4388
3405.00,0.4398
3404.00,0.4408
3403.00,0.4418
3402.00,0.4429
3401.00,0.4439
3400.00,0.4450
3399.00,0.4460
3398.00,0.4471
3397.00,0.4482
3396.00,0.4494
3395.00,0.4505
3394.00,0.4515
3393.00,0.4526
3392.00,0.4537
3391.00,0.4547
3390.00,0.4558
3389.00,0.4569
3388.00,0.4581
3387.00,0.4592
3386.00,0.4603
3385.00,0.4614
3384.00,0.4626
3383.00,0.4637
3382.00,0.4649
3381.00,0.4661
3380.00,0.4674
3379.00,0.4687
3378.00,0.4700
3377.00,0.4712
3376.00,0.4726
3375.00,0.4739
3374.00,0.4752
3373.00,0.4766
3372.00,0.4781
3371.00,0.4796
3370.00,0.4812
3369.00,0.4827
3368.00,0.4842
3367.00,0.4856
3366.00,0.4872
3365.00,0.4888
3364.00,0.4903
3363.00,0.4919
3362.00,0.4935
3361.00,0.4950
3360.00,0.4966
3359.00,0.4982
3358.00,0.5000
3357.00,0.5017
3356.00,0.5035
3355.00,0.5052
3354.00,0.5069
3353.00,0.5087
3352.00,0.5105
3351.00,0.5122
3350.00,0.5140
3349.00,0.5157
3348.00,0.5174
3347.00,0.5191
3346.00,0.5207
3345.00,0.5222
3344.00,0.5237
3343.00,0.5252
3342.00,0.5266
3341.00,0.5281
3340.00,0.5295
3339.00,0.5308
3338.00,0.5321
3337.00,0.5333
3336.00,0.5344
3335.00,0.5353
3334.00,0.5363
3333.00,0.5371
3332.00,0.5378
3331.00,0.5385
3330.00,0.5391
3329.00,0.5397
3328.00,0.5401
3327.00,0.5405
3326.00,0.5407
3325.00,0.5408
3324.00,0.5408
3323.00,0.5406
3322.00,0.5404
3321.00,0.5400
3320.00,0.5397
3319.00,0.5394
3318.00,0.5390
3317.00,0.5385
3316.00,0.5379
3315.00,0.5373
3314.00,0.5366
3313.00,0.5359
3312.00,0.5351
3311.00,0.5343
3310.00,0.5334
3309.00,0.5325
3308.00,0.5317
3307.00,0.5307
3306.00,0.5298
3305.00,0.5288
3304.00,0.5279
3303.00,0.5271
3302.00,0.5263
3301.00,0.5255
3300.00,0.5247
3299.00,0.5238
3298.00,0.5230
3297.00,0.5223
3296.00,0.5216
3295.00,0.5210
3294.00,0.5205
3293.00,0.5200
3292.00,0.5195
3291.00,0.5189
3290.00,0.5185
3289.00,0.5181
3288.00,0.5178
3287.00,0.5174
3286.00,0.5171
3285.00,0.5169
3284.00,0.5168
3283.00,0.5168
3282.00,0.5168
3281.00,0.5169
3280.00,0.5169
3279.00,0.5170
3278.00,0.5171
3277.00,0.5172
3276.00,0.5174
3275.00,0.5177
3274.00,0.5181
3273.00,0.5185
3272.00,0.5189
3271.00,0.5193
3270.00,0.5197
3269.00,0.5201
3268.00,0.5205
3267.00,0.5209
3266.00,0.5213
3265.00,0.5218
3264.00,0.5223
3263.00,0.5229
3262.00,0.5235
3261.00,0.5242
3260.00,0.5249
3259.00,0.5255
3258.00,0.5261
3257.00,0.5266
3256.00,0.5271
3255.00,0.5276
3254.00,0.5281
3253.00,0.5287
3252.00,0.5293
3251.00,0.5298
3250.00,0.5304
3249.00,0.5309
3248.00,0.5314
3247.00,0.5318
3246.00,0.5322
3245.00,0.5325
3244.00,0.5329
3243.00,0.5333
3242.00,0.5337
3241.00,0.5341
3240.00,0.5344
3239.00,0.5346
3238.00,0.5347
3237.00,0.5348
3236.00,0.5350
3235.00,0.5351
3234.00,0.5352
3233.00,0.5354
3232.00,0.5355
3231.00,0.5356
3230.00,0.5357
3229.00,0.5356
3228.00,0.5356
3227.00,0.5355
3226.00,0.5354
3225.00,0.5353
3224.00,0.5352
3223.00,0.5350
3222.00,0.5349
3221.00,0.5347
3220.00,0.5345
3219.00,0.5342
3218.00,0.5339
3217.00,0.5337
3216.00,0.5335
3215.00,0.5332
3214.00,0.5329
3213.00,0.5325
3212.00,0.5321
3211.00,0.5317
3210.00,0.5313
3209.00,0.5310
3208.00,0.5307
3207.00,0.5304
3206.00,0.5302
3205.00,0.5299
3204.00,0.5295
3203.00,0.5290
3202.00,0.5286
3201.00,0.5281
3200.00,0.5276
3199.00,0.5272
3198.00,0.5267
3197.00,0.5263
3196.00,0.5259
3195.00,0.5254
3194.00,0.5249
3193.00,0.5245
3192.00,0.5241
3191.00,0.5237
3190.00,0.5232
3189.00,0.5226
3188.00,0.5220
3187.00,0.5212
3186.00,0.5205
3185.00,0.5198
3184.00,0.5191
3183.00,0.5184
3182.00,0.5178
3181.00,0.5171
3180.00,0.5164
3179.00,0.5158
3178.00,0.5151
3177.00,0.5144
3176.00,0.5137
3175.00,0.5129
3174.00,0.5121
3173.00,0.5112
3172.00,0.5104
3171.00,0.5095
3170.00,0.5087
3169.00,0.5079
3168.00,0.5072
3167.00,0.5064
3166.00,0.5056
3165.00,0.5046
3164.00,0.5037
3163.00,0.5027
3162.00,0.5017
3161.00,0.5009
3160.00,0.5001
3159.00,0.4993
3158.00,0.4985
3157.00,0.4977
3156.00,0.4969
3155.00,0.4961
3154.00,0.4953
3153.00,0.4946
3152.00,0.4938
3151.00,0.4931
3150.00,0.4925
3149.00,0.4918
3148.00,0.4912
3147.00,0.4905
3146.00,0.4898
3145.00,0.4891
3144.00,0.4884
3143.00,0.4878
3142.00,0.4872
3141.00,0.4866
3140.00,0.4861
3139.00,0.4855
3138.00,0.4849
3137.00,0.4844
3136.00,0.4838
3135.00,0.4834
3134.00,0.4830
3133.00,0.4827
3132.00,0.4823
3131.00,0.4820
3130.00,0.4817
3129.00,0.4816
3128.00,0.4815
3127.00,0.4815
3126.00,0.4814
3125.00,0.4814
3124.00,0.4814
3123.00,0.4815
3122.00,0.4817
3121.00,0.4818
3120.00,0.4820
3119.00,0.4823
3118.00,0.4825
3117.00,0.4827
3116.00,0.4830
3115.00,0.4833
3114.00,0.4838
3113.00,0.4843
3112.00,0.4849
3111.00,0.4855
3110.00,0.4861
3109.00,0.4867
3108.00,0.4874
3107.00,0.4881
3106.00,0.4888
3105.00,0.4895
3104.00,0.4902
3103.00,0.4910
3102.00,0.4918
3101.00,0.4925
3100.00,0.4933
3099.00,0.4942
3098.00,0.4952
3097.00,0.4963
3096.00,0.4975
3095.00,0.4988
3094.00,0.5003
3093.00,0.5020
3092.00,0.5039
3091.00,0.5059
3090.00,0.5081
3089.00,0.5104
3088.00,0.5130
3087.00,0.5156
3086.00,0.5182
3085.00,0.5209
3084.00,0.5237
3083.00,0.5267
3082.00,0.5297
3081.00,0.5330
3080.00,0.5364
3079.00,0.5400
3078.00,0.5437
3077.00,0.5477
3076.00,0.5519
3075.00,0.5562
3074.00,0.5605
3073.00,0.5648
3072.00,0.5691
3071.00,0.5732
3070.00,0.5774
3069.00,0.5816
3068.00,0.5858
3067.00,0.5902
3066.00,0.5944
3065.00,0.5986
3064.00,0.6025
3063.00,0.6062
3062.00,0.6096
3061.00,0.6127
3060.00,0.6156
3059.00,0.6184
3058.00,0.6212
3057.00,0.6239
3056.00,0.6268
3055.00,0.6297
3054.00,0.6327
3053.00,0.6360
3052.00,0.6396
3051.00,0.6434
3050.00,0.6474
3049.00,0.6515
3048.00,0.6558
3047.00,0.6602
3046.00,0.6648
3045.00,0.6695
3044.00,0.6741
3043.00,0.6787
3042.00,0.6832
3041.00,0.6878
3040.00,0.6924
3039.00,0.6971
3038.00,0.7020
3037.00,0.7070
3036.00,0.7125
3035.00,0.7184
3034.00,0.7248
3033.00,0.7317
3032.00,0.7388
3031.00,0.7463
3030.00,0.7543
3029.00,0.7627
3028.00,0.7717
3027.00,0.7809
3026.00,0.7904
3025.00,0.8001
3024.00,0.8102
3023.00,0.8206
3022.00,0.8315
3021.00,0.8428
3020.00,0.8544
3019.00,0.8661
3018.00,0.8779
3017.00,0.8898
3016.00,0.9018
3015.00,0.9139
3014.00,0.9262
3013.00,0.9386
3012.00,0.9514
3011.00,0.9648
3010.00,0.9789
3009.00,0.9937
3008.00,1.0089
3007.00,1.0247
3006.00,1.0411
3005.00,1.0581
3004.00,1.0758
3003.00,1.0939
3002.00,1.1124
3001.00,1.1315
3000.00,1.1515
2999.00,1.1727
2998.00,1.1956
2997.00,1.2205
2996.00,1.2477
2995.00,1.2777
2994.00,1.3110
2993.00,1.3481
2992.00,1.3892
2991.00,1.4351
2990.00,1.4866
2989.00,1.5445
2988.00,1.6093
2987.00,1.6815
2986.00,1.7617
2985.00,1.8505
2984.00,1.9488
2983.00,2.0579
2982.00,2.1786
2981.00,2.3108
2980.00,2.4521
2979.00,2.6006
2978.00,2.7557
2977.00,2.9157
2976.00,3.0787
2975.00,3.2476
2974.00,3.4278
2973.00,3.6156
2972.00,3.8065
2971.00,4.0191
2970.00,4.2634
2969.00,4.4662
2968.00,4.4473
2967.00,4.2891
2966.00,4.1730
2965.00,4.1203
2964.00,4.1420
2963.00,4.2131
2962.00,4.2434
2961.00,4.1269
2960.00,3.8804
2959.00,3.7362
2958.00,3.7011
2957.00,3.8506
2956.00,4.2915
2955.00,4.2068
2954.00,3.9190
2953.00,3.7257
2952.00,3.7684
2951.00,3.9029
2950.00,4.0392
2949.00,4.3204
2948.00,4.6095
2947.00,4.7501
2946.00,4.5876
2945.00,4.4696
2944.00,4.6456
2943.00,4.8238
2942.00,4.5711
2941.00,4.5483
2940.00,4.4460
2939.00,4.1800
2938.00,4.1149
2937.00,4.3266
2936.00,4.6951
2935.00,4.5960
2934.00,4.1848
2933.00,4.0532
2932.00,4.0503
2931.00,4.2684
2930.00,4.3354
2929.00,4.0650
2928.00,3.9063
2927.00,3.9522
2926.00,4.1391
2925.00,4.4170
2924.00,4.7258
2923.00,4.5910
2922.00,4.4256
2921.00,4.4025
2920.00,4.3477
2919.00,4.1552
2918.00,4.0876
2917.00,4.2185
2916.00,4.2906
2915.00,4.1760
2914.00,4.1189
2913.00,4.2360
2912.00,4.3105
2911.00,4.1798
2910.00,4.0632
2909.00,3.9806
2908.00,3.9392
2907.00,3.9836
2906.00,4.0669
2905.00,4.1084
2904.00,4.1492
2903.00,4.1930
2902.00,4.1525
2901.00,4.0118
2900.00,3.9002
2899.00,3.9273
2898.00,4.0764
2897.00,4.2171
2896.00,4.2583
2895.00,4.3159
2894.00,4.5319
2893.00,4.4444
2892.00,4.0960
2891.00,3.8663
2890.00,3.7527
2889.00,3.7251
2888.00,3.7596
2887.00,3.8670
2886.00,4.0090
2885.00,4.0125
2884.00,3.8999
2883.00,3.8204
2882.00,3.8305
2881.00,3.9372
2880.00,4.1137
2879.00,4.1603
2878.00,4.0200
2877.00,3.8850
2876.00,3.8279
2875.00,3.8063
2874.00,3.8173
2873.00,3.8806
2872.00,3.9384
2871.00,3.9634
2870.00,3.9569
2869.00,4.0298
2868.00,4.2583
2867.00,4.3349
2866.00,4.0986
2865.00,4.0205
2864.00,4.2761
2863.00,4.3673
2862.00,4.0601
2861.00,3.7944
2860.00,3.6575
2859.00,3.5936
2858.00,3.6054
2857.00,3.6868
2856.00,3.7549
2855.00,3.8087
2854.00,3.8683
2853.00,3.9110
2852.00,3.8976
2851.00,3.8464
2850.00,3.8252
2849.00,3.8889
2848.00,4.0903
2847.00,4.3975
2846.00,4.4856
2845.00,4.2892
2844.00,4.1024
2843.00,4.0187
2842.00,3.9851
2841.00,3.9102
2840.00,3.7465
2839.00,3.5672
2838.00,3.3974
2837.00,3.2078
2836.00,3.0010
2835.00,2.7980
2834.00,2.6088
2833.00,2.4370
2832.00,2.2843
2831.00,2.1500
2830.00,2.0314
2829.00,1.9254
2828.00,1.8302
2827.00,1.7446
2826.00,1.6674
2825.00,1.5974
2824.00,1.5336
2823.00,1.4755
2822.00,1.4224
2821.00,1.3737
2820.00,1.3289
2819.00,1.2876
2818.00,1.2493
2817.00,1.2137
2816.00,1.1805
2815.00,1.1494
2814.00,1.1201
2813.00,1.0926
2812.00,1.0668
2811.00,1.0425
2810.00,1.0198
2809.00,0.9982
2808.00,0.9777
2807.00,0.9579
2806.00,0.9391
2805.00,0.9212
2804.00,0.9043
2803.00,0.8882
2802.00,0.8730
2801.00,0.8584
2800.00,0.8445
2799.00,0.8312
2798.00,0.8186
2797.00,0.8066
2796.00,0.7950
2795.00,0.7839
2794.00,0.7732
2793.00,0.7628
2792.00,0.7526
2791.00,0.7426
2790.00,0.7327
2789.00,0.7232
2788.00,0.7139
2787.00,0.7048
2786.00,0.6959
2785.00,0.6872
2784.00,0.6786
2783.00,0.6703
2782.00,0.6624
2781.00,0.6548
2780.00,0.6474
2779.00,0.6404
2778.00,0.6337
2777.00,0.6275
2776.00,0.6217
2775.00,0.6162
2774.00,0.6110
2773.00,0.6061
2772.00,0.6015
2771.00,0.5972
2770.00,0.5933
2769.00,0.5897
2768.00,0.5865
2767.00,0.5835
2766.00,0.5808
2765.00,0.5785
2764.00,0.5764
2763.00,0.5747
2762.00,0.5732
2761.00,0.5718
2760.00,0.5705
2759.00,0.5692
2758.00,0.5679
2757.00,0.5668
2756.00,0.5657
2755.00,0.5647
2754.00,0.5639
2753.00,0.5632
2752.00,0.5626
2751.00,0.5622
2750.00,0.5620
2749.00,0.5621
2748.00,0.5624
2747.00,0.5630
2746.00,0.5638
2745.00,0.5648
2744.00,0.5662
2743.00,0.5678
2742.00,0.5698
2741.00,0.5722
2740.00,0.5749
2739.00,0.5781
2738.00,0.5818
2737.00,0.5859
2736.00,0.5906
2735.00,0.5957
2734.00,0.6010
2733.00,0.6061
2732.00,0.6108
2731.00,0.6148
2730.00,0.6178
2729.00,0.6197
2728.00,0.6205
2727.00,0.6204
2726.00,0.6195
2725.00,0.6181
2724.00,0.6162
2723.00,0.6139
2722.00,0.6113
2721.00,0.6083
2720.00,0.6050
2719.00,0.6015
2718.00,0.5977
2717.00,0.5938
2716.00,0.5895
2715.00,0.5850
2714.00,0.5805
2713.00,0.5760
2712.00,0.5719
2711.00,0.5681
2710.00,0.5648
2709.00,0.5617
2708.00,0.5591
2707.00,0.5568
2706.00,0.5549
2705.00,0.5534
2704.00,0.5521
2703.00,0.5512
2702.00,0.5505
2701.00,0.5501
2700.00,0.5499
2699.00,0.5498
2698.00,0.5500
2697.00,0.5503
2696.00,0.5507
2695.00,0.5513
2694.00,0.5520
2693.00,0.5528
2692.00,0.5537
2691.00,0.5546
2690.00,0.5556
2689.00,0.5565
2688.00,0.5574
2687.00,0.5582
2686.00,0.5589
2685.00,0.5595
2684.00,0.5600
2683.00,0.5605
2682.00,0.5609
2681.00,0.5613
2680.00,0.5617
2679.00,0.5620
2678.00,0.5623
2677.00,0.5627
2676.00,0.5631
2675.00,0.5635
2674.00,0.5639
2673.00,0.5642
2672.00,0.5644
2671.00,0.5644
2670.00,0.5641
2669.00,0.5636
2668.00,0.5627
2667.00,0.5616
2666.00,0.5602
2665.00,0.5587
2664.00,0.5569
2663.00,0.5551
2662.00,0.5532
2661.00,0.5513
2660.00,0.5494
2659.00,0.5473
2658.00,0.5452
2657.00,0.5431
2656.00,0.5410
2655.00,0.5391
2654.00,0.5373
2653.00,0.5355
2652.00,0.5339
2651.00,0.5323
2650.00,0.5308
2649.00,0.5294
2648.00,0.5281
2647.00,0.5268
2646.00,0.5255
2645.00,0.5242
2644.00,0.5230
2643.00,0.5219
2642.00,0.5208
2641.00,0.5199
2640.00,0.5189
2639.00,0.5180
2638.00,0.5172
2637.00,0.5163
2636.00,0.5154
2635.00,0.5145
2634.00,0.5136
2633.00,0.5126
2632.00,0.5116
2631.00,0.5106
2630.00,0.5096
2629.00,0.5088
2628.00,0.5080
2627.00,0.5071
2626.00,0.5063
2625.00,0.5054
2624.00,0.5046
2623.00,0.5037
2622.00,0.5028
2621.00,0.5019
2620.00,0.5010
2619.00,0.5001
2618.00,0.4993
2617.00,0.4985
2616.00,0.4976
2615.00,0.4968
2614.00,0.4959
2613.00,0.4951
2612.00,0.4942
2611.00,0.4934
2610.00,0.4925
2609.00,0.4916
2608.00,0.4907
2607.00,0.4897
2606.00,0.4888
2605.00,0.4878
2604.00,0.4868
2603.00,0.4857
2602.00,0.4845
2601.00,0.4834
2600.00,0.4821
2599.00,0.4808
2598.00,0.4794
2597.00,0.4779
2596.00,0.4763
2595.00,0.4748
2594.00,0.4732
2593.00,0.4717
2592.00,0.4702
2591.00,0.4686
2590.00,0.4670
2589.00,0.4654
2588.00,0.4638
2587.00,0.4621
2586.00,0.4605
2585.00,0.4589
2584.00,0.4573
2583.00,0.4557
2582.00,0.4541
2581.00,0.4525
2580.00,0.4509
2579.00,0.4492
2578.00,0.4475
2577.00,0.4459
2576.00,0.4444
2575.00,0.4429
2574.00,0.4414
2573.00,0.4399
2572.00,0.4384
2571.00,0.4369
2570.00,0.4354
2569.00,0.4338
2568.00,0.4323
2567.00,0.4308
2566.00,0.4294
2565.00,0.4280
2564.00,0.4266
2563.00,0.4252
2562.00,0.4238
2561.00,0.4224
2560.00,0.4210
2559.00,0.4197
2558.00,0.4183
2557.00,0.4171
2556.00,0.4159
2555.00,0.4147
2554.00,0.4136
2553.00,0.4125
2552.00,0.4114
2551.00,0.4104
2550.00,0.4094
2549.00,0.4084
2548.00,0.4076
2547.00,0.4067
2546.00,0.4059
2545.00,0.4051
2544.00,0.4044
2543.00,0.4036
2542.00,0.4029
2541.00,0.4022
2540.00,0.4016
2539.00,0.4010
2538.00,0.4004
2537.00,0.3998
2536.00,0.3992
2535.00,0.3985
2534.00,0.3977
2533.00,0.3969
2532.00,0.3961
2531.00,0.3953
2530.00,0.3944
2529.00,0.3935
2528.00,0.3926
2527.00,0.3916
2526.00,0.3906
2525.00,0.3896
2524.00,0.3886
2523.00,0.3876
2522.00,0.3865
2521.00,0.3855
2520.00,0.3845
2519.00,0.3836
2518.00,0.3827
2517.00,0.3818
2516.00,0.3810
2515.00,0.3803
2514.00,0.3796
2513.00,0.3789
2512.00,0.3783
2511.00,0.3776
2510.00,0.3769
2509.00,0.3763
2508.00,0.3757
2507.00,0.3752
2506.00,0.3747
2505.00,0.3742
2504.00,0.3738
2503.00,0.3734
2502.00,0.3730
2501.00,0.3726
2500.00,0.3722
2499.00,0.3717
2498.00,0.3713
2497.00,0.3709
2496.00,0.3705
2495.00,0.3700
2494.00,0.3696
2493.00,0.3691
2492.00,0.3685
2491.00,0.3680
2490.00,0.3675
2489.00,0.3670
2488.00,0.3665
2487.00,0.3660
2486.00,0.3655
2485.00,0.3651
2484.00,0.3647
2483.00,0.3643
2482.00,0.3639
2481.00,0.3635
2480.00,0.3632
2479.00,0.3628
2478.00,0.3625
2477.00,0.3622
2476.00,0.3619
2475.00,0.3616
2474.00,0.3614
2473.00,0.3612
2472.00,0.3610
2471.00,0.3608
2470.00,0.3606
2469.00,0.3605
2468.00,0.3604
2467.00,0.3602
2466.00,0.3600
2465.00,0.3598
2464.00,0.3596
2463.00,0.3593
2462.00,0.3591
2461.00,0.3589
2460.00,0.3587
2459.00,0.3584
2458.00,0.3581
2457.00,0.3578
2456.00,0.3575
2455.00,0.3573
2454.00,0.3570
2453.00,0.3569
2452.00,0.3567
2451.00,0.3565
2450.00,0.3563
2449.00,0.3561
2448.00,0.3559
2447.00,0.3558
2446.00,0.3558
2445.00,0.3558
2444.00,0.3558
2443.00,0.3558
2442.00,0.3558
2441.00,0.3558
2440.00,0.3559
2439.00,0.3559
2438.00,0.3560
2437.00,0.3562
2436.00,0.3564
2435.00,0.3565
2434.00,0.3566
2433.00,0.3567
2432.00,0.3568
2431.00,0.3569
2430.00,0.3571
2429.00,0.3572
2428.00,0.3573
2427.00,0.3574
2426.00,0.3574
2425.00,0.3574
2424.00,0.3575
2423.00,0.3575
2422.00,0.3575
2421.00,0.3575
2420.00,0.3575
2419.00,0.3575
2418.00,0.3574
2417.00,0.3573
2416.00,0.3573
2415.00,0.3572
2414.00,0.3572
2413.00,0.3572
2412.00,0.3572
2411.00,0.3572
2410.00,0.3573
2409.00,0.3572
2408.00,0.3572
2407.00,0.3571
2406.00,0.3570
2405.00,0.3570
2404.00,0.3569
2403.00,0.3568
2402.00,0.3567
2401.00,0.3566
2400.00,0.3566
2399.00,0.3565
2398.00,0.3564
2397.00,0.3563
2396.00,0.3561
2395.00,0.3560
2394.00,0.3559
2393.00,0.3558
2392.00,0.3558
2391.00,0.3558
2390.00,0.3558
2389.00,0.3558
2388.00,0.3558
2387.00,0.3557
2386.00,0.3556
2385.00,0.3555
2384.00,0.3554
2383.00,0.3555
2382.00,0.3555
2381.00,0.3556
2380.00,0.3556
2379.00,0.3556
2378.00,0.3556
2377.00,0.3557
2376.00,0.3556
2375.00,0.3556
2374.00,0.3554
2373.00,0.3552
2372.00,0.3550
2371.00,0.3550
2370.00,0.3550
2369.00,0.3551
2368.00,0.3552
2367.00,0.3552
2366.00,0.3553
2365.00,0.3553
2364.00,0.3552
2363.00,0.3551
2362.00,0.3550
2361.00,0.3549
2360.00,0.3549
2359.00,0.3548
2358.00,0.3547
2357.00,0.3546
2356.00,0.3546
2355.00,0.3545
2354.00,0.3545
2353.00,0.3544
2352.00,0.3543
2351.00,0.3542
2350.00,0.3541
2349.00,0.3540
2348.00,0.3539
2347.00,0.3538
2346.00,0.3537
2345.00,0.3535
2344.00,0.3534
2343.00,0.3532
2342.00,0.3532
2341.00,0.3532
2340.00,0.3532
2339.00,0.3531
2338.00,0.3530
2337.00,0.3528
2336.00,0.3526
2335.00,0.3524
2334.00,0.3522
2333.00,0.3520
2332.00,0.3518
2331.00,0.3515
2330.00,0.3512
2329.00,0.3510
2328.00,0.3508
2327.00,0.3506
2326.00,0.3503
2325.00,0.3502
2324.00,0.3500
2323.00,0.3499
2322.00,0.3497
2321.00,0.3495
2320.00,0.3492
2319.00,0.3489
2318.00,0.3486
2317.00,0.3483
2316.00,0.3481
2315.00,0.3478
2314.00,0.3476
2313.00,0.3474
2312.00,0.3471
2311.00,0.3467
2310.00,0.3463
2309.00,0.3460
2308.00,0.3456
2307.00,0.3452
2306.00,0.3449
2305.00,0.3446
2304.00,0.3444
2303.00,0.3441
2302.00,0.3438
2301.00,0.3435
2300.00,0.3432
2299.00,0.3429
2298.00,0.3425
2297.00,0.3422
2296.00,0.3419
2295.00,0.3415
2294.00,0.3412
2293.00,0.3409
2292.00,0.3406
2291.00,0.3403
2290.00,0.3401
2289.00,0.3398
2288.00,0.3396
2287.00,0.3393
2286.00,0.3390
2285.00,0.3387
2284.00,0.3384
2283.00,0.3381
2282.00,0.3378
2281.00,0.3375
2280.00,0.3372
2279.00,0.3369
2278.00,0.3366
2277.00,0.3364
2276.00,0.3361
2275.00,0.3358
2274.00,0.3356
2273.00,0.3353
2272.00,0.3352
2271.00,0.3350
2270.00,0.3348
2269.00,0.3347
2268.00,0.3345
2267.00,0.3344
2266.00,0.3341
2265.00,0.3339
2264.00,0.3336
2263.00,0.3334
2262.00,0.3332
2261.00,0.3330
2260.00,0.3328
2259.00,0.3326
2258.00,0.3324
2257.00,0.3322
2256.00,0.3319
2255.00,0.3316
2254.00,0.3313
2253.00,0.3310
2252.00,0.3307
2251.00,0.3305
2250.00,0.3302
2249.00,0.3299
2248.00,0.3297
2247.00,0.3294
2246.00,0.3292
2245.00,0.3290
2244.00,0.3287
2243.00,0.3285
2242.00,0.3283
2241.00,0.3281
2240.00,0.3280
2239.00,0.3278
2238.00,0.3277
2237.00,0.3276
2236.00,0.3275
2235.00,0.3274
2234.00,0.3273
2233.00,0.3273
2232.00,0.3273
2231.00,0.3272
2230.00,0.3271
2229.00,0.3271
2228.00,0.3270
2227.00,0.3268
2226.00,0.3267
2225.00,0.3266
2224.00,0.3265
2223.00,0.3264
2222.00,0.3263
2221.00,0.3262
2220.00,0.3261
2219.00,0.3260
2218.00,0.3259
2217.00,0.3258
2216.00,0.3257
2215.00,0.3256
2214.00,0.3254
2213.00,0.3253
2212.00,0.3252
2211.00,0.3251
2210.00,0.3251
2209.00,0.3250
2208.00,0.3250
2207.00,0.3250
2206.00,0.3249
2205.00,0.3249
2204.00,0.3249
2203.00,0.3248
2202.00,0.3247
2201.00,0.3247
2200.00,0.3247
2199.00,0.3247
2198.00,0.3247
2197.00,0.3248
2196.00,0.3249
2195.00,0.3249
2194.00,0.3249
2193.00,0.3249
2192.00,0.3250
2191.00,0.3251
2190.00,0.3252
2189.00,0.3253
2188.00,0.3253
2187.00,0.3253
2186.00,0.3253
2185.00,0.3253
2184.00,0.3252
2183.00,0.3252
2182.00,0.3251
2181.00,0.3249
2180.00,0.3248
2179.00,0.3247
2178.00,0.3245
2177.00,0.3243
2176.00,0.3241
2175.00,0.3239
2174.00,0.3237
2173.00,0.3235
2172.00,0.3234
2171.00,0.3232
2170.00,0.3231
2169.00,0.3230
2168.00,0.3228
2167.00,0.3227
2166.00,0.3225
2165.00,0.3224
2164.00,0.3223
2163.00,0.3222
2162.00,0.3221
2161.00,0.3220
2160.00,0.3219
2159.00,0.3218
2158.00,0.3217
2157.00,0.3216
2156.00,0.3215
2155.00,0.3214
2154.00,0.3213
2153.00,0.3212
2152.00,0.3211
2151.00,0.3209
2150.00,0.3207
2149.00,0.3205
2148.00,0.3202
2147.00,0.3199
2146.00,0.3195
2145.00,0.3191
2144.00,0.3187
2143.00,0.3182
2142.00,0.3178
2141.00,0.3173
2140.00,0.3169
2139.00,0.3165
2138.00,0.3161
2137.00,0.3159
2136.00,0.3156
2135.00,0.3154
2134.00,0.3151
2133.00,0.3149
2132.00,0.3146
2131.00,0.3143
2130.00,0.3141
2129.00,0.3139
2128.00,0.3137
2127.00,0.3136
2126.00,0.3135
2125.00,0.3134
2124.00,0.3133
2123.00,0.3132
2122.00,0.3130
2121.00,0.3130
2120.00,0.3129
2119.00,0.3129
2118.00,0.3128
2117.00,0.3128
2116.00,0.3127
2115.00,0.3127
2114.00,0.3126
2113.00,0.3126
2112.00,0.3126
2111.00,0.3125
2110.00,0.3124
2109.00,0.3123
2108.00,0.3122
2107.00,0.3121
2106.00,0.3120
2105.00,0.3119
2104.00,0.3119
2103.00,0.3118
2102.00,0.3117
2101.00,0.3116
2100.00,0.3115
2099.00,0.3114
2098.00,0.3113
2097.00,0.3112
2096.00,0.3111
2095.00,0.3111
2094.00,0.3110
2093.00,0.3109
2092.00,0.3108
2091.00,0.3107
2090.00,0.3106
2089.00,0.3106
2088.00,0.3107
2087.00,0.3107
2086.00,0.3107
2085.00,0.3106
2084.00,0.3106
2083.00,0.3106
2082.00,0.3106
2081.00,0.3107
2080.00,0.3107
2079.00,0.3108
2078.00,0.3108
2077.00,0.3109
2076.00,0.3109
2075.00,0.3109
2074.00,0.3110
2073.00,0.3110
2072.00,0.3111
2071.00,0.3112
2070.00,0.3113
2069.00,0.3114
2068.00,0.3114
2067.00,0.3114
2066.00,0.3114
2065.00,0.3115
2064.00,0.3117
2063.00,0.3118
2062.00,0.3120
2061.00,0.3121
2060.00,0.3122
2059.00,0.3123
2058.00,0.3124
2057.00,0.3125
2056.00,0.3126
2055.00,0.3126
2054.00,0.3127
2053.00,0.3128
2052.00,0.3130
2051.00,0.3131
2050.00,0.3132
2049.00,0.3134
2048.00,0.3135
2047.00,0.3136
2046.00,0.3137
2045.00,0.3139
2044.00,0.3141
2043.00,0.3142
2042.00,0.3143
2041.00,0.3145
2040.00,0.3147
2039.00,0.3149
2038.00,0.3150
2037.00,0.3151
2036.00,0.3152
2035.00,0.3152
2034.00,0.3152
2033.00,0.3153
2032.00,0.3154
2031.00,0.3154
2030.00,0.3155
2029.00,0.3155
2028.00,0.3155
2027.00,0.3154
2026.00,0.3152
2025.00,0.3151
2024.00,0.3149
2023.00,0.3148
2022.00,0.3145
2021.00,0.3142
2020.00,0.3137
2019.00,0.3131
2018.00,0.3125
2017.00,0.3119
2016.00,0.3115
2015.00,0.3110
2014.00,0.3105
2013.00,0.3099
2012.00,0.3094
2011.00,0.3088
2010.00,0.3083
2009.00,0.3079
2008.00,0.3075
2007.00,0.3072
2006.00,0.3069
2005.00,0.3067
2004.00,0.3066
2003.00,0.3064
2002.00,0.3061
2001.00,0.3059
2000.00,0.3058
1999.00,0.3057
1998.00,0.3057
1997.00,0.3056
1996.00,0.3056
1995.00,0.3055
1994.00,0.3053
1993.00,0.3051
1992.00,0.3051
1991.00,0.3051
1990.00,0.3052
1989.00,0.3052
1988.00,0.3052
1987.00,0.3052
1986.00,0.3052
1985.00,0.3052
1984.00,0.3052
1983.00,0.3051
1982.00,0.3050
1981.00,0.3049
1980.00,0.3049
1979.00,0.3048
1978.00,0.3046
1977.00,0.3045
1976.00,0.3044
1975.00,0.3043
1974.00,0.3043
1973.00,0.3042
1972.00,0.3042
1971.00,0.3041
1970.00,0.3040
1969.00,0.3039
1968.00,0.3038
1967.00,0.3038
1966.00,0.3039
1965.00,0.3041
1964.00,0.3043
1963.00,0.3044
1962.00,0.3045
1961.00,0.3047
1960.00,0.3049
1959.00,0.3051
1958.00,0.3052
1957.00,0.3054
1956.00,0.3056
1955.00,0.3057
1954.00,0.3059
1953.00,0.3061
1952.00,0.3063
1951.00,0.3065
1950.00,0.3066
1949.00,0.3067
1948.00,0.3068
1947.00,0.3069
1946.00,0.3070
1945.00,0.3072
1944.00,0.3074
1943.00,0.3077
1942.00,0.3083
1941.00,0.3089
1940.00,0.3095
1939.00,0.3098
1938.00,0.3099
1937.00,0.3099
1936.00,0.3098
1935.00,0.3096
1934.00,0.3093
1933.00,0.3092
1932.00,0.3092
1931.00,0.3092
1930.00,0.3092
1929.00,0.3093
1928.00,0.3094
1927.00,0.3095
1926.00,0.3095
1925.00,0.3095
1924.00,0.3095
1923.00,0.3097
1922.00,0.3102
1921.00,0.3108
1920.00,0.3114
1919.00,0.3119
1918.00,0.3124
1917.00,0.3130
1916.00,0.3135
1915.00,0.3137
1914.00,0.3138
1913.00,0.3139
1912.00,0.3139
1911.00,0.3138
1910.00,0.3137
1909.00,0.3138
1908.00,0.3140
1907.00,0.3141
1906.00,0.3141
1905.00,0.3142
1904.00,0.3142
1903.00,0.3142
1902.00,0.3141
1901.00,0.3141
1900.00,0.3141
1899.00,0.3141
1898.00,0.3140
1897.00,0.3140
1896.00,0.3141
1895.00,0.3142
1894.00,0.3143
1893.00,0.3145
1892.00,0.3146
1891.00,0.3147
1890.00,0.3147
1889.00,0.3150
1888.00,0.3152
1887.00,0.3154
1886.00,0.3155
1885.00,0.3155
1884.00,0.3157
1883.00,0.3158
1882.00,0.3159
1881.00,0.3159
1880.00,0.3159
1879.00,0.3159
1878.00,0.3158
1877.00,0.3158
1876.00,0.3158
1875.00,0.3157
1874.00,0.3155
1873.00,0.3153
1872.00,0.3150
1871.00,0.3146
1870.00,0.3141
1869.00,0.3138
1868.00,0.3136
1867.00,0.3136
1866.00,0.3135
1865.00,0.3134
1864.00,0.3132
1863.00,0.3129
1862.00,0.3125
1861.00,0.3122
1860.00,0.3120
1859.00,0.3117
1858.00,0.3114
1857.00,0.3112
1856.00,0.3110
1855.00,0.3107
1854.00,0.3105
1853.00,0.3103
1852.00,0.3101
1851.00,0.3100
1850.00,0.3097
1849.00,0.3096
1848.00,0.3095
1847.00,0.3094
1846.00,0.3093
1845.00,0.3093
1844.00,0.3095
1843.00,0.3097
1842.00,0.3097
1841.00,0.3097
1840.00,0.3097
1839.00,0.3096
1838.00,0.3095
1837.00,0.3095
1836.00,0.3095
1835.00,0.3095
1834.00,0.3094
1833.00,0.3093
1832.00,0.3092
1831.00,0.3090
1830.00,0.3089
1829.00,0.3090
1828.00,0.3090
1827.00,0.3088
1826.00,0.3085
1825.00,0.3083
1824.00,0.3084
1823.00,0.3085
1822.00,0.3085
1821.00,0.3085
1820.00,0.3085
1819.00,0.3084
1818.00,0.3083
1817.00,0.3083
1816.00,0.3085
1815.00,0.3086
1814.00,0.3086
1813.00,0.3086
1812.00,0.3087
1811.00,0.3089
1810.00,0.3091
1809.00,0.3094
1808.00,0.3098
1807.00,0.3102
1806.00,0.3105
1805.00,0.3109
1804.00,0.3113
1803.00,0.3115
1802.00,0.3119
1801.00,0.3127
1800.00,0.3136
1799.00,0.3144
1798.00,0.3149
1797.00,0.3153
1796.00,0.3157
1795.00,0.3160
1794.00,0.3163
1793.00,0.3166
1792.00,0.3171
1791.00,0.3177
1790.00,0.3183
1789.00,0.3188
1788.00,0.3191
1787.00,0.3193
1786.00,0.3195
1785.00,0.3197
1784.00,0.3201
1783.00,0.3204
1782.00,0.3206
1781.00,0.3208
1780.00,0.3212
1779.00,0.3217
1778.00,0.3221
1777.00,0.3225
1776.00,0.3229
1775.00,0.3234
1774.00,0.3239
1773.00,0.3247
1772.00,0.3258
1771.00,0.3269
1770.00,0.3278
1769.00,0.3285
1768.00,0.3295
1767.00,0.3306
1766.00,0.3317
1765.00,0.3328
1764.00,0.3339
1763.00,0.3352
1762.00,0.3368
1761.00,0.3387
1760.00,0.3406
1759.00,0.3425
1758.00,0.3446
1757.00,0.3472
1756.00,0.3502
1755.00,0.3532
1754.00,0.3558
1753.00,0.3584
1752.00,0.3614
1751.00,0.3647
1750.00,0.3681
1749.00,0.3715
1748.00,0.3745
1747.00,0.3772
1746.00,0.3793
1745.00,0.3810
1744.00,0.3824
1743.00,0.3836
1742.00,0.3846
1741.00,0.3854
1740.00,0.3857
1739.00,0.3856
1738.00,0.3851
1737.00,0.3843
1736.00,0.3832
1735.00,0.3817
1734.00,0.3804
1733.00,0.3797
1732.00,0.3793
1731.00,0.3788
1730.00,0.3786
1729.00,0.3787
1728.00,0.3793
1727.00,0.3801
1726.00,0.3810
1725.00,0.3824
1724.00,0.3844
1723.00,0.3869
1722.00,0.3898
1721.00,0.3932
1720.00,0.3971
1719.00,0.4019
1718.00,0.4085
1717.00,0.4172
1716.00,0.4274
1715.00,0.4384
1714.00,0.4500
1713.00,0.4619
1712.00,0.4735
1711.00,0.4843
1710.00,0.4941
1709.00,0.5016
1708.00,0.5061
1707.00,0.5072
1706.00,0.5050
1705.00,0.5000
1704.00,0.4933
1703.00,0.4860
1702.00,0.4774
1701.00,0.4660
1700.00,0.4525
1699.00,0.4406
1698.00,0.4314
1697.00,0.4235
1696.00,0.4159
1695.00,0.4091
1694.00,0.4038
1693.00,0.3995
1692.00,0.3956
1691.00,0.3918
1690.00,0.3885
1689.00,0.3857
1688.00,0.3834
1687.00,0.3814
1686.00,0.3796
1685.00,0.3777
1684.00,0.3762
1683.00,0.3753
1682.00,0.3743
1681.00,0.3731
1680.00,0.3721
1679.00,0.3713
1678.00,0.3710
1677.00,0.3708
1676.00,0.3706
1675.00,0.3702
1674.00,0.3698
1673.00,0.3693
1672.00,0.3688
1671.00,0.3684
1670.00,0.3682
1669.00,0.3684
1668.00,0.3686
1667.00,0.3686
1666.00,0.3686
1665.00,0.3686
1664.00,0.3688
1663.00,0.3689
1662.00,0.3691
1661.00,0.3694
1660.00,0.3698
1659.00,0.3700
1658.00,0.3703
1657.00,0.3707
1656.00,0.3712
1655.00,0.3716
1654.00,0.3724
1653.00,0.3743
1652.00,0.3764
1651.00,0.3772
1650.00,0.3775
1649.00,0.3779
1648.00,0.3786
1647.00,0.3800
1646.00,0.3821
1645.00,0.3841
1644.00,0.3857
1643.00,0.3870
1642.00,0.3884
1641.00,0.3900
1640.00,0.3918
1639.00,0.3935
1638.00,0.3952
1637.00,0.3973
1636.00,0.4002
1635.00,0.4034
1634.00,0.4061
1633.00,0.4080
1632.00,0.4098
1631.00,0.4116
1630.00,0.4136
1629.00,0.4160
1628.00,0.4189
1627.00,0.4218
1626.00,0.4247
1625.00,0.4281
1624.00,0.4321
1623.00,0.4367
1622.00,0.4417
1621.00,0.4471
1620.00,0.4528
1619.00,0.4590
1618.00,0.4669
1617.00,0.4772
1616.00,0.4893
1615.00,0.5007
1614.00,0.5107
1613.00,0.5204
1612.00,0.5305
1611.00,0.5408
1610.00,0.5510
1609.00,0.5612
1608.00,0.5712
1607.00,0.5802
1606.00,0.5880
1605.00,0.5952
1604.00,0.6022
1603.00,0.6086
1602.00,0.6149
1601.00,0.6219
1600.00,0.6298
1599.00,0.6385
1598.00,0.6481
1597.00,0.6602
1596.00,0.6759
1595.00,0.6956
1594.00,0.7201
1593.00,0.7513
1592.00,0.7911
1591.00,0.8411
1590.00,0.9037
1589.00,0.9832
1588.00,1.0850
1587.00,1.2126
1586.00,1.3685
1585.00,1.5584
1584.00,1.7889
1583.00,2.0422
1582.00,2.2334
1581.00,2.2665
1580.00,2.1629
1579.00,1.9770
1578.00,1.7531
1577.00,1.5355
1576.00,1.3534
1575.00,1.2183
1574.00,1.1248
1573.00,1.0595
1572.00,1.0111
1571.00,0.9733
1570.00,0.9463
1569.00,0.9343
1568.00,0.9384
1567.00,0.9576
1566.00,0.9927
1565.00,1.0471
1564.00,1.1189
1563.00,1.1971
1562.00,1.2671
1561.00,1.3163
1560.00,1.3156
1559.00,1.2346
1558.00,1.1194
1557.00,1.0231
1556.00,0.9449
1555.00,0.8727
1554.00,0.8071
1553.00,0.7538
1552.00,0.7135
1551.00,0.6812
1550.00,0.6539
1549.00,0.6318
1548.00,0.6151
1547.00,0.6018
1546.00,0.5902
1545.00,0.5800
1544.00,0.5718
1543.00,0.5654
1542.00,0.5599
1541.00,0.5545
1540.00,0.5495
1539.00,0.5448
1538.00,0.5406
1537.00,0.5372
1536.00,0.5342
1535.00,0.5312
1534.00,0.5280
1533.00,0.5259
1532.00,0.5252
1531.00,0.5253
1530.00,0.5258
1529.00,0.5267
1528.00,0.5276
1527.00,0.5279
1526.00,0.5275
1525.00,0.5269
1524.00,0.5264
1523.00,0.5261
1522.00,0.5265
1521.00,0.5285
1520.00,0.5316
1519.00,0.5347
1518.00,0.5378
1517.00,0.5413
1516.00,0.5451
1515.00,0.5477
1514.00,0.5490
1513.00,0.5497
1512.00,0.5503
1511.00,0.5510
1510.00,0.5523
1509.00,0.5550
1508.00,0.5605
1507.00,0.5703
1506.00,0.5834
1505.00,0.5961
1504.00,0.6061
1503.00,0.6143
1502.00,0.6218
1501.00,0.6295
1500.00,0.6371
1499.00,0.6441
1498.00,0.6514
1497.00,0.6605
1496.00,0.6715
1495.00,0.6828
1494.00,0.6936
1493.00,0.7048
1492.00,0.7171
1491.00,0.7307
1490.00,0.7464
1489.00,0.7648
1488.00,0.7851
1487.00,0.8066
1486.00,0.8304
1485.00,0.8579
1484.00,0.8897
1483.00,0.9262
1482.00,0.9694
1481.00,1.0206
1480.00,1.0782
1479.00,1.1410
1478.00,1.2124
1477.00,1.2973
1476.00,1.3966
1475.00,1.5093
1474.00,1.6441
1473.00,1.8199
1472.00,2.0471
1471.00,2.3138
1470.00,2.6128
1469.00,2.9793
1468.00,3.4590
1467.00,3.8040
1466.00,3.7913
1465.00,3.8072
1464.00,3.8584
1463.00,3.9895
1462.00,4.0946
1461.00,4.2159
1460.00,4.0822
1459.00,3.7470
1458.00,3.6160
1457.00,3.7903
1456.00,3.9878
1455.00,3.8004
1454.00,3.7833
1453.00,3.9525
1452.00,3.8472
1451.00,3.5705
1450.00,3.4939
1449.00,3.5683
1448.00,3.5033
1447.00,3.2485
1446.00,3.0465
1445.00,2.9119
1444.00,2.7647
1443.00,2.5966
1442.00,2.4449
1441.00,2.3162
1440.00,2.1972
1439.00,2.0798
1438.00,1.9608
1437.00,1.8374
1436.00,1.7161
1435.00,1.6083
1434.00,1.5144
1433.00,1.4270
1432.00,1.3413
1431.00,1.2594
1430.00,1.1855
1429.00,1.1219
1428.00,1.0696
1427.00,1.0279
1426.00,0.9942
1425.00,0.9658
1424.00,0.9423
1423.00,0.9243
1422.00,0.9110
1421.00,0.8998
1420.00,0.8888
1419.00,0.8785
1418.00,0.8698
1417.00,0.8628
1416.00,0.8571
1415.00,0.8529
1414.00,0.8499
1413.00,0.8477
1412.00,0.8464
1411.00,0.8457
1410.00,0.8447
1409.00,0.8423
1408.00,0.8375
1407.00,0.8301
1406.00,0.8198
1405.00,0.8069
1404.00,0.7930
1403.00,0.7799
1402.00,0.7681
1401.00,0.7573
1400.00,0.7476
1399.00,0.7401
1398.00,0.7352
1397.00,0.7328
1396.00,0.7332
1395.00,0.7374
1394.00,0.7457
1393.00,0.7586
1392.00,0.7774
1391.00,0.8044
1390.00,0.8420
1389.00,0.8935
1388.00,0.9624
1387.00,1.0498
1386.00,1.1502
1385.00,1.2561
1384.00,1.3652
1383.00,1.4805
1382.00,1.6059
1381.00,1.7449
1380.00,1.9005
1379.00,2.0633
1378.00,2.1958
1377.00,2.2469
1376.00,2.1965
1375.00,2.0661
1374.00,1.9009
1373.00,1.7435
1372.00,1.6135
1371.00,1.5124
1370.00,1.4379
1369.00,1.3879
1368.00,1.3576
1367.00,1.3357
1366.00,1.3071
1365.00,1.2610
1364.00,1.1971
1363.00,1.1254
1362.00,1.0588
1361.00,1.0048
1360.00,0.9642
1359.00,0.9343
1358.00,0.9124
1357.00,0.8966
1356.00,0.8858
1355.00,0.8790
1354.00,0.8751
1353.00,0.8731
1352.00,0.8717
1351.00,0.8702
1350.00,0.8681
1349.00,0.8653
1348.00,0.8623
1347.00,0.8594
1346.00,0.8568
1345.00,0.8545
1344.00,0.8525
1343.00,0.8503
1342.00,0.8473
1341.00,0.8424
1340.00,0.8355
1339.00,0.8266
1338.00,0.8156
1337.00,0.8028
1336.00,0.7885
1335.00,0.7737
1334.00,0.7592
1333.00,0.7458
1332.00,0.7339
1331.00,0.7240
1330.00,0.7160
1329.00,0.7099
1328.00,0.7055
1327.00,0.7026
1326.00,0.7011
1325.00,0.7005
1324.00,0.7007
1323.00,0.7012
1322.00,0.7018
1321.00,0.7022
1320.00,0.7026
1319.00,0.7034
1318.00,0.7047
1317.00,0.7065
1316.00,0.7088
1315.00,0.7116
1314.00,0.7149
1313.00,0.7187
1312.00,0.7228
1311.00,0.7270
1310.00,0.7309
1309.00,0.7341
1308.00,0.7366
1307.00,0.7384
1306.00,0.7395
1305.00,0.7393
1304.00,0.7377
1303.00,0.7348
1302.00,0.7309
1301.00,0.7261
1300.00,0.7208
1299.00,0.7152
1298.00,0.7093
1297.00,0.7034
1296.00,0.6978
1295.00,0.6927
1294.00,0.6881
1293.00,0.6839
1292.00,0.6799
1291.00,0.6762
1290.00,0.6727
1289.00,0.6694
1288.00,0.6662
1287.00,0.6630
1286.00,0.6594
1285.00,0.6555
1284.00,0.6514
1283.00,0.6473
1282.00,0.6436
1281.00,0.6404
1280.00,0.6378
1279.00,0.6357
1278.00,0.6337
1277.00,0.6315
1276.00,0.6290
1275.00,0.6266
1274.00,0.6244
1273.00,0.6225
1272.00,0.6211
1271.00,0.6202
1270.00,0.6198
1269.00,0.6194
1268.00,0.6182
1267.00,0.6158
1266.00,0.6123
1265.00,0.6081
1264.00,0.6040
1263.00,0.6006
1262.00,0.5980
1261.00,0.5961
1260.00,0.5946
1259.00,0.5931
1258.00,0.5915
1257.00,0.5895
1256.00,0.5872
1255.00,0.5851
1254.00,0.5833
1253.00,0.5819
1252.00,0.5808
1251.00,0.5799
1250.00,0.5791
1249.00,0.5778
1248.00,0.5760
1247.00,0.5737
1246.00,0.5712
1245.00,0.5684
1244.00,0.5654
1243.00,0.5622
1242.00,0.5589
1241.00,0.5554
1240.00,0.5520
1239.00,0.5491
1238.00,0.5467
1237.00,0.5448
1236.00,0.5432
1235.00,0.5422
1234.00,0.5416
1233.00,0.5414
1232.00,0.5416
1231.00,0.5424
1230.00,0.5432
1229.00,0.5434
1228.00,0.5424
1227.00,0.5403
1226.00,0.5375
1225.00,0.5342
1224.00,0.5308
1223.00,0.5278
1222.00,0.5255
1221.00,0.5236
1220.00,0.5224
1219.00,0.5217
1218.00,0.5216
1217.00,0.5220
1216.00,0.5227
1215.00,0.5237
1214.00,0.5248
1213.00,0.5255
1212.00,0.5255
1211.00,0.5249
1210.00,0.5237
1209.00,0.5222
1208.00,0.5206
1207.00,0.5190
1206.00,0.5174
1205.00,0.5157
1204.00,0.5141
1203.00,0.5127
1202.00,0.5114
1201.00,0.5104
1200.00,0.5096
1199.00,0.5092
1198.00,0.5091
1197.00,0.5088
1196.00,0.5082
1195.00,0.5075
1194.00,0.5068
1193.00,0.5060
1192.00,0.5053
1191.00,0.5047
1190.00,0.5041
1189.00,0.5035
1188.00,0.5028
1187.00,0.5022
1186.00,0.5019
1185.00,0.5017
1184.00,0.5014
1183.00,0.5012
1182.00,0.5012
1181.00,0.5014
1180.00,0.5019
1179.00,0.5028
1178.00,0.5040
1177.00,0.5055
1176.00,0.5075
1175.00,0.5103
1174.00,0.5141
1173.00,0.5187
1172.00,0.5235
1171.00,0.5280
1170.00,0.5313
1169.00,0.5331
1168.00,0.5333
1167.00,0.5324
1166.00,0.5311
1165.00,0.5299
1164.00,0.5289
1163.00,0.5286
1162.00,0.5289
1161.00,0.5299
1160.00,0.5312
1159.00,0.5327
1158.00,0.5341
1157.00,0.5352
1156.00,0.5356
1155.00,0.5355
1154.00,0.5346
1153.00,0.5331
1152.00,0.5310
1151.00,0.5286
1150.00,0.5261
1149.00,0.5235
1148.00,0.5210
1147.00,0.5189
1146.00,0.5171
1145.00,0.5158
1144.00,0.5150
1143.00,0.5149
1142.00,0.5160
1141.00,0.5183
1140.00,0.5219
1139.00,0.5267
1138.00,0.5327
1137.00,0.5400
1136.00,0.5484
1135.00,0.5573
1134.00,0.5651
1133.00,0.5698
1132.00,0.5700
1131.00,0.5656
1130.00,0.5580
1129.00,0.5493
1128.00,0.5414
1127.00,0.5352
1126.00,0.5311
1125.00,0.5283
1124.00,0.5264
1123.00,0.5247
1122.00,0.5230
1121.00,0.5212
1120.00,0.5198
1119.00,0.5194
1118.00,0.5204
1117.00,0.5229
1116.00,0.5265
1115.00,0.5303
1114.00,0.5325
1113.00,0.5318
1112.00,0.5277
1111.00,0.5214
1110.00,0.5144
1109.00,0.5081
1108.00,0.5032
1107.00,0.4998
1106.00,0.4977
1105.00,0.4964
1104.00,0.4956
1103.00,0.4951
1102.00,0.4947
1101.00,0.4941
1100.00,0.4932
1099.00,0.4920
1098.00,0.4909
1097.00,0.4899
1096.00,0.4892
1095.00,0.4888
1094.00,0.4887
1093.00,0.4888
1092.00,0.4892
1091.00,0.4900
1090.00,0.4914
1089.00,0.4932
1088.00,0.4956
1087.00,0.4988
1086.00,0.5027
1085.00,0.5075
1084.00,0.5132
1083.00,0.5198
1082.00,0.5272
1081.00,0.5353
1080.00,0.5434
1079.00,0.5509
1078.00,0.5566
1077.00,0.5595
1076.00,0.5593
1075.00,0.5562
1074.00,0.5510
1073.00,0.5446
1072.00,0.5381
1071.00,0.5323
1070.00,0.5275
1069.00,0.5238
1068.00,0.5210
1067.00,0.5189
1066.00,0.5175
1065.00,0.5164
1064.00,0.5158
1063.00,0.5157
1062.00,0.5160
1061.00,0.5166
1060.00,0.5171
1059.00,0.5175
1058.00,0.5175
1057.00,0.5171
1056.00,0.5166
1055.00,0.5159
1054.00,0.5154
1053.00,0.5151
1052.00,0.5154
1051.00,0.5164
1050.00,0.5181
1049.00,0.5201
1048.00,0.5221
1047.00,0.5238
1046.00,0.5252
1045.00,0.5260
1044.00,0.5262
1043.00,0.5261
1042.00,0.5257
1041.00,0.5253
1040.00,0.5249
1039.00,0.5245
1038.00,0.5240
1037.00,0.5233
1036.00,0.5227
1035.00,0.5225
1034.00,0.5232
1033.00,0.5248
1032.00,0.5270
1031.00,0.5294
1030.00,0.5313
1029.00,0.5324
1028.00,0.5321
1027.00,0.5303
1026.00,0.5268
1025.00,0.5220
1024.00,0.5162
1023.00,0.5104
1022.00,0.5048
1021.00,0.4995
1020.00,0.4948
1019.00,0.4906
1018.00,0.4870
1017.00,0.4840
1016.00,0.4813
1015.00,0.4788
1014.00,0.4766
1013.00,0.4748
1012.00,0.4733
1011.00,0.4724
1010.00,0.4719
1009.00,0.4718
1008.00,0.4721
1007.00,0.4729
1006.00,0.4742
1005.00,0.4758
1004.00,0.4777
1003.00,0.4796
1002.00,0.4814
1001.00,0.4831
1000.00,0.4845
999.00,0.4855
998.00,0.4858
997.00,0.4853
996.00,0.4840
995.00,0.4819
994.00,0.4794
993.00,0.4765
992.00,0.4733
991.00,0.4701
990.00,0.4670
989.00,0.4642
988.00,0.4620
987.00,0.4606
986.00,0.4601
985.00,0.4604
984.00,0.4615
983.00,0.4632
982.00,0.4654
981.00,0.4678
980.00,0.4703
979.00,0.4728
978.00,0.4754
977.00,0.4776
976.00,0.4794
975.00,0.4807
974.00,0.4813
973.00,0.4814
972.00,0.4812
971.00,0.4811
970.00,0.4810
969.00,0.4810
968.00,0.4808
967.00,0.4804
966.00,0.4798
965.00,0.4789
964.00,0.4778
963.00,0.4767
962.00,0.4755
961.00,0.4743
960.00,0.4730
959.00,0.4719
958.00,0.4711
957.00,0.4708
956.00,0.4706
955.00,0.4704
954.00,0.4698
953.00,0.4687
952.00,0.4675
951.00,0.4664
950.00,0.4656
949.00,0.4653
948.00,0.4654
947.00,0.4660
946.00,0.4670
945.00,0.4681
944.00,0.4694
943.00,0.4708
942.00,0.4724
941.00,0.4741
940.00,0.4756
939.00,0.4766
938.00,0.4771
937.00,0.4768
936.00,0.4758
935.00,0.4745
934.00,0.4728
933.00,0.4706
932.00,0.4681
931.00,0.4656
930.00,0.4635
929.00,0.4621
928.00,0.4614
927.00,0.4616
926.00,0.4632
925.00,0.4664
924.00,0.4710
923.00,0.4764
922.00,0.4813
921.00,0.4842
920.00,0.4839
919.00,0.4799
918.00,0.4729
917.00,0.4644
916.00,0.4557
915.00,0.4478
914.00,0.4412
913.00,0.4360
912.00,0.4319
911.00,0.4288
910.00,0.4263
909.00,0.4244
908.00,0.4228
907.00,0.4217
906.00,0.4209
905.00,0.4207
904.00,0.4209
903.00,0.4217
902.00,0.4229
901.00,0.4245
900.00,0.4266
899.00,0.4293
898.00,0.4326
897.00,0.4363
896.00,0.4400
895.00,0.4438
894.00,0.4477
893.00,0.4517
892.00,0.4557
891.00,0.4595
890.00,0.4625
889.00,0.4641
888.00,0.4643
887.00,0.4632
886.00,0.4611
885.00,0.4589
884.00,0.4571
883.00,0.4564
882.00,0.4568
881.00,0.4580
880.00,0.4596
879.00,0.4611
878.00,0.4619
877.00,0.4618
876.00,0.4614
875.00,0.4609
874.00,0.4606
873.00,0.4605
872.00,0.4606
871.00,0.4611
870.00,0.4622
869.00,0.4637
868.00,0.4658
867.00,0.4686
866.00,0.4722
865.00,0.4765
864.00,0.4809
863.00,0.4844
862.00,0.4857
861.00,0.4836
860.00,0.4786
859.00,0.4718
858.00,0.4648
857.00,0.4587
856.00,0.4537
855.00,0.4502
854.00,0.4479
853.00,0.4463
852.00,0.4450
851.00,0.4438
850.00,0.4423
849.00,0.4404
848.00,0.4383
847.00,0.4359
846.00,0.4333
845.00,0.4306
844.00,0.4279
843.00,0.4257
842.00,0.4248
841.00,0.4257
840.00,0.4289
839.00,0.4341
838.00,0.4408
837.00,0.4474
836.00,0.4520
835.00,0.4534
834.00,0.4511
833.00,0.4464
832.00,0.4414
831.00,0.4380
830.00,0.4371
829.00,0.4382
828.00,0.4411
827.00,0.4452
826.00,0.4503
825.00,0.4562
824.00,0.4625
823.00,0.4692
822.00,0.4760
821.00,0.4828
820.00,0.4895
819.00,0.4960
818.00,0.5021
817.00,0.5069
816.00,0.5099
815.00,0.5104
814.00,0.5086
813.00,0.5048
812.00,0.4995
811.00,0.4936
810.00,0.4875
809.00,0.4814
808.00,0.4758
807.00,0.4708
806.00,0.4664
805.00,0.4618
804.00,0.4567
803.00,0.4508
802.00,0.4447
801.00,0.4388
800.00,0.4337
799.00,0.4297
798.00,0.4268
797.00,0.4248
796.00,0.4234
795.00,0.4224
794.00,0.4218
793.00,0.4218
792.00,0.4225
791.00,0.4240
790.00,0.4264
789.00,0.4291
788.00,0.4319
787.00,0.4351
786.00,0.4387
785.00,0.4429
784.00,0.4474
783.00,0.4518
782.00,0.4557
781.00,0.4588
780.00,0.4611
779.00,0.4630
778.00,0.4646
777.00,0.4662
776.00,0.4678
775.00,0.4695
774.00,0.4714
773.00,0.4734
772.00,0.4756
771.00,0.4782
770.00,0.4813
769.00,0.4847
768.00,0.4882
767.00,0.4915
766.00,0.4942
765.00,0.4961
764.00,0.4977
763.00,0.4997
762.00,0.5024
761.00,0.5058
760.00,0.5094
759.00,0.5132
758.00,0.5168
757.00,0.5199
756.00,0.5223
755.00,0.5244
754.00,0.5270
753.00,0.5304
752.00,0.5346
751.00,0.5394
750.00,0.5445
749.00,0.5494
748.00,0.5537
747.00,0.5577
746.00,0.5616
745.00,0.5655
744.00,0.5698
743.00,0.5749
742.00,0.5806
741.00,0.5863
740.00,0.5913
739.00,0.5952
738.00,0.5986
737.00,0.6019
736.00,0.6057
735.00,0.6101
734.00,0.6156
733.00,0.6221
732.00,0.6301
731.00,0.6399
730.00,0.6523
729.00,0.6675
728.00,0.6859
727.00,0.7080
726.00,0.7341
725.00,0.7634
724.00,0.7934
723.00,0.8186
722.00,0.8311
721.00,0.8233
720.00,0.7940
719.00,0.7505
718.00,0.7033
717.00,0.6600
716.00,0.6237
715.00,0.5945
714.00,0.5714
713.00,0.5527
712.00,0.5373
711.00,0.5246
710.00,0.5143
709.00,0.5058
708.00,0.4989
707.00,0.4933
706.00,0.4887
705.00,0.4847
704.00,0.4809
703.00,0.4778
702.00,0.4759
701.00,0.4749
700.00,0.4731
699.00,0.4681
698.00,0.4586
697.00,0.4448
696.00,0.4291
695.00,0.4144
694.00,0.4025
693.00,0.3936
692.00,0.3872
691.00,0.3824
690.00,0.3788
689.00,0.3761
688.00,0.3739
687.00,0.3722
686.00,0.3708
685.00,0.3694
684.00,0.3684
683.00,0.3677
682.00,0.3674
681.00,0.3672
680.00,0.3669
679.00,0.3664
678.00,0.3662
677.00,0.3662
676.00,0.3665
675.00,0.3669
674.00,0.3672
673.00,0.3671
672.00,0.3672
671.00,0.3677
670.00,0.3688
669.00,0.3698
668.00,0.3697
667.00,0.3686
666.00,0.3678
665.00,0.3678
664.00,0.3681
663.00,0.3687
662.00,0.3695
661.00,0.3704
660.00,0.3715
659.00,0.3729
658.00,0.3745
657.00,0.3761
656.00,0.3776
655.00,0.3787
654.00,0.3796
653.00,0.3802
652.00,0.3807
651.00,0.3815
650.00,0.3826
649.00,0.3839
648.00,0.3850
647.00,0.3860
646.00,0.3868
645.00,0.3877
644.00,0.3888
643.00,0.3901
642.00,0.3917
641.00,0.3934
640.00,0.3950
639.00,0.3962
638.00,0.3972
637.00,0.3979
636.00,0.3983
635.00,0.3984
634.00,0.3983
633.00,0.3984
632.00,0.3990
631.00,0.4000
630.00,0.4014
629.00,0.4029
628.00,0.4046
627.00,0.4064
626.00,0.4081
625.00,0.4099
624.00,0.4118
623.00,0.4140
622.00,0.4161
621.00,0.4179
620.00,0.4194
619.00,0.4209
618.00,0.4223
617.00,0.4233
616.00,0.4235
615.00,0.4229
614.00,0.4219
613.00,0.4209
612.00,0.4199
611.00,0.4188
610.00,0.4175
609.00,0.4160
608.00,0.4147
607.00,0.4137
606.00,0.4130
605.00,0.4123
604.00,0.4118
603.00,0.4117
602.00,0.4118
601.00,0.4119
600.00,0.4118
599.00,0.4118
598.00,0.4121
597.00,0.4129
596.00,0.4138
595.00,0.4149
594.00,0.4160
593.00,0.4172
592.00,0.4185
591.00,0.4201
590.00,0.4220
589.00,0.4243
588.00,0.4268
587.00,0.4293
586.00,0.4316
585.00,0.4338
584.00,0.4364
583.00,0.4395
582.00,0.4426
581.00,0.4454
580.00,0.4481
579.00,0.4510
578.00,0.4537
577.00,0.4559
576.00,0.4577
575.00,0.4596
574.00,0.4615
573.00,0.4633
572.00,0.4651
571.00,0.4670
570.00,0.4690
569.00,0.4711
568.00,0.4732
567.00,0.4752
566.00,0.4772
565.00,0.4790
564.00,0.4808
563.00,0.4824
562.00,0.4834
561.00,0.4836
560.00,0.4834
559.00,0.4836
558.00,0.4846
557.00,0.4860
556.00,0.4872
555.00,0.4882
554.00,0.4894
553.00,0.4909
552.00,0.4927
551.00,0.4944
550.00,0.4957
