Created as New Dataset,
cm-1,A
4000.00,0.3240
3999.00,0.3237
3998.00,0.3234
3997.00,0.3231
3996.00,0.3228
3995.00,0.3226
3994.00,0.3223
3993.00,0.3220
3992.00,0.3217
3991.00,0.3213
3990.00,0.3210
3989.00,0.3206
3988.00,0.3202
3987.00,0.3198
3986.00,0.3194
3985.00,0.3191
3984.00,0.3188
3983.00,0.3185
3982.00,0.3182
3981.00,0.3178
3980.00,0.3175
3979.00,0.3172
3978.00,0.3168
3977.00,0.3166
3976.00,0.3163
3975.00,0.3160
3974.00,0.3158
3973.00,0.3155
3972.00,0.3152
3971.00,0.3150
3970.00,0.3147
3969.00,0.3144
3968.00,0.3142
3967.00,0.3139
3966.00,0.3137
3965.00,0.3135
3964.00,0.3133
3963.00,0.3132
3962.00,0.3130
3961.00,0.3129
3960.00,0.3127
3959.00,0.3125
3958.00,0.3124
3957.00,0.3122
3956.00,0.3121
3955.00,0.3120
3954.00,0.3119
3953.00,0.3118
3952.00,0.3118
3951.00,0.3117
3950.00,0.3116
3949.00,0.3116
3948.00,0.3115
3947.00,0.3114
3946.00,0.3113
3945.00,0.3112
3944.00,0.3111
3943.00,0.3110
3942.00,0.3107
3941.00,0.3105
3940.00,0.3104
3939.00,0.3102
3938.00,0.3101
3937.00,0.3100
3936.00,0.3099
3935.00,0.3098
3934.00,0.3098
3933.00,0.3098
3932.00,0.3099
3931.00,0.3099
3930.00,0.3099
3929.00,0.3099
3928.00,0.3099
3927.00,0.3099
3926.00,0.3099
3925.00,0.3098
3924.00,0.3097
3923.00,0.3097
3922.00,0.3098
3921.00,0.3098
3920.00,0.3099
3919.00,0.3099
3918.00,0.3098
3917.00,0.3098
3916.00,0.3097
3915.00,0.3096
3914.00,0.3095
3913.00,0.3095
3912.00,0.3093
3911.00,0.3092
3910.00,0.3091
3909.00,0.3090
3908.00,0.3091
3907.00,0.3092
3906.00,0.3094
3905.00,0.3096
3904.00,0.3098
3903.00,0.3099
3902.00,0.3100
3901.00,0.3101
3900.00,0.3101
3899.00,0.3099
3898.00,0.3096
3897.00,0.3093
3896.00,0.3091
3895.00,0.3090
3894.00,0.3088
3893.00,0.3087
3892.00,0.3084
3891.00,0.3082
3890.00,0.3081
3889.00,0.3080
3888.00,0.3081
3887.00,0.3082
3886.00,0.3082
3885.00,0.3083
3884.00,0.3084
3883.00,0.3084
3882.00,0.3084
3881.00,0.3083
3880.00,0.3082
3879.00,0.3080
3878.00,0.3078
3877.00,0.3077
3876.00,0.3077
3875.00,0.3077
3874.00,0.3077
3873.00,0.3078
3872.00,0.3078
3871.00,0.3078
3870.00,0.3077
3869.00,0.3077
3868.00,0.3076
3867.00,0.3075
3866.00,0.3074
3865.00,0.3072
3864.00,0.3070
3863.00,0.3067
3862.00,0.3064
3861.00,0.3061
3860.00,0.3059
3859.00,0.3058
3858.00,0.3059
3857.00,0.3060
3856.00,0.3062
3855.00,0.3064
3854.00,0.3064
3853.00,0.3066
3852.00,0.3067
3851.00,0.3066
3850.00,0.3064
3849.00,0.3061
3848.00,0.3058
3847.00,0.3054
3846.00,0.3052
3845.00,0.3050
3844.00,0.3049
3843.00,0.3049
3842.00,0.3051
3841.00,0.3054
3840.00,0.3056
3839.00,0.3057
3838.00,0.3058
3837.00,0.3058
3836.00,0.3058
3835.00,0.3058
3834.00,0.3056
3833.00,0.3054
3832.00,0.3050
3831.00,0.3047
3830.00,0.3044
3829.00,0.3041
3828.00,0.3039
3827.00,0.3037
3826.00,0.3036
3825.00,0.3036
3824.00,0.3037
3823.00,0.3038
3822.00,0.3039
3821.00,0.3038
3820.00,0.3038
3819.00,0.3037
3818.00,0.3036
3817.00,0.3033
3816.00,0.3031
3815.00,0.3027
3814.00,0.3023
3813.00,0.3020
3812.00,0.3016
3811.00,0.3013
3810.00,0.3009
3809.00,0.3006
3808.00,0.3004
3807.00,0.3003
3806.00,0.3004
3805.00,0.3005
3804.00,0.3006
3803.00,0.3007
3802.00,0.3007
3801.00,0.3007
3800.00,0.3006
3799.00,0.3005
3798.00,0.3003
3797.00,0.2999
3796.00,0.2995
3795.00,0.2991
3794.00,0.2987
3793.00,0.2983
3792.00,0.2980
3791.00,0.2977
3790.00,0.2974
3789.00,0.2971
3788.00,0.2969
3787.00,0.2968
3786.00,0.2967
3785.00,0.2966
3784.00,0.2965
3783.00,0.2964
3782.00,0.2963
3781.00,0.2961
3780.00,0.2959
3779.00,0.2956
3778.00,0.2954
3777.00,0.2953
3776.00,0.2951
3775.00,0.2950
3774.00,0.2948
3773.00,0.2947
3772.00,0.2946
3771.00,0.2945
3770.00,0.2945
3769.00,0.2945
3768.00,0.2946
3767.00,0.2946
3766.00,0.2945
3765.00,0.2944
3764.00,0.2942
3763.00,0.2941
3762.00,0.2940
3761.00,0.2939
3760.00,0.2938
3759.00,0.2937
3758.00,0.2935
3757.00,0.2934
3756.00,0.2934
3755.00,0.2934
3754.00,0.2935
3753.00,0.2934
3752.00,0.2933
3751.00,0.2934
3750.00,0.2935
3749.00,0.2938
3748.00,0.2940
3747.00,0.2941
3746.00,0.2940
3745.00,0.2938
3744.00,0.2934
3743.00,0.2930
3742.00,0.2927
3741.00,0.2924
3740.00,0.2922
3739.00,0.2920
3738.00,0.2918
3737.00,0.2917
3736.00,0.2916
3735.00,0.2916
3734.00,0.2916
3733.00,0.2915
3732.00,0.2913
3731.00,0.2911
3730.00,0.2908
3729.00,0.2906
3728.00,0.2903
3727.00,0.2900
3726.00,0.2896
3725.00,0.2893
3724.00,0.2890
3723.00,0.2889
3722.00,0.2887
3721.00,0.2885
3720.00,0.2883
3719.00,0.2880
3718.00,0.2877
3717.00,0.2875
3716.00,0.2874
3715.00,0.2874
3714.00,0.2875
3713.00,0.2875
3712.00,0.2876
3711.00,0.2877
3710.00,0.2878
3709.00,0.2878
3708.00,0.2877
3707.00,0.2875
3706.00,0.2873
3705.00,0.2870
3704.00,0.2869
3703.00,0.2867
3702.00,0.2866
3701.00,0.2866
3700.00,0.2865
3699.00,0.2865
3698.00,0.2864
3697.00,0.2864
3696.00,0.2864
3695.00,0.2864
3694.00,0.2866
3693.00,0.2868
3692.00,0.2872
3691.00,0.2875
3690.00,0.2877
3689.00,0.2879
3688.00,0.2880
3687.00,0.2880
3686.00,0.2879
3685.00,0.2877
3684.00,0.2874
3683.00,0.2871
3682.00,0.2868
3681.00,0.2866
3680.00,0.2865
3679.00,0.2867
3678.00,0.2869
3677.00,0.2871
3676.00,0.2872
3675.00,0.2875
3674.00,0.2877
3673.00,0.2879
3672.00,0.2880
3671.00,0.2879
3670.00,0.2878
3669.00,0.2875
3668.00,0.2872
3667.00,0.2870
3666.00,0.2867
3665.00,0.2865
3664.00,0.2863
3663.00,0.2861
3662.00,0.2860
3661.00,0.2859
3660.00,0.2860
3659.00,0.2862
3658.00,0.2864
3657.00,0.2867
3656.00,0.2870
3655.00,0.2874
3654.00,0.2878
3653.00,0.2882
3652.00,0.2886
3651.00,0.2890
3650.00,0.2893
3649.00,0.2898
3648.00,0.2902
3647.00,0.2905
3646.00,0.2905
3645.00,0.2904
3644.00,0.2901
3643.00,0.2897
3642.00,0.2894
3641.00,0.2892
3640.00,0.2891
3639.00,0.2892
3638.00,0.2893
3637.00,0.2896
3636.00,0.2899
3635.00,0.2902
3634.00,0.2906
3633.00,0.2910
3632.00,0.2916
3631.00,0.2922
3630.00,0.2929
3629.00,0.2937
3628.00,0.2946
3627.00,0.2953
3626.00,0.2959
3625.00,0.2963
3624.00,0.2966
3623.00,0.2967
3622.00,0.2967
3621.00,0.2966
3620.00,0.2963
3619.00,0.2961
3618.00,0.2959
3617.00,0.2957
3616.00,0.2954
3615.00,0.2952
3614.00,0.2951
3613.00,0.2950
3612.00,0.2950
3611.00,0.2950
3610.00,0.2950
3609.00,0.2950
3608.00,0.2949
3607.00,0.2949
3606.00,0.2947
3605.00,0.2944
3604.00,0.2942
3603.00,0.2939
3602.00,0.2936
3601.00,0.2932
3600.00,0.2928
3599.00,0.2923
3598.00,0.2918
3597.00,0.2913
3596.00,0.2908
3595.00,0.2904
3594.00,0.2900
3593.00,0.2896
3592.00,0.2893
3591.00,0.2892
3590.00,0.2891
3589.00,0.2890
3588.00,0.2890
3587.00,0.2889
3586.00,0.2888
3585.00,0.2887
3584.00,0.2886
3583.00,0.2884
3582.00,0.2883
3581.00,0.2881
3580.00,0.2880
3579.00,0.2879
3578.00,0.2879
3577.00,0.2879
3576.00,0.2880
3575.00,0.2880
3574.00,0.2881
3573.00,0.2882
3572.00,0.2884
3571.00,0.2887
3570.00,0.2890
3569.00,0.2893
3568.00,0.2896
3567.00,0.2900
3566.00,0.2903
3565.00,0.2906
3564.00,0.2909
3563.00,0.2910
3562.00,0.2911
3561.00,0.2912
3560.00,0.2913
3559.00,0.2915
3558.00,0.2917
3557.00,0.2920
3556.00,0.2923
3555.00,0.2927
3554.00,0.2932
3553.00,0.2936
3552.00,0.2941
3551.00,0.2946
3550.00,0.2951
3549.00,0.2956
3548.00,0.2962
3547.00,0.2967
3546.00,0.2972
3545.00,0.2977
3544.00,0.2982
3543.00,0.2986
3542.00,0.2990
3541.00,0.2994
3540.00,0.2996
3539.00,0.2999
3538.00,0.3002
3537.00,0.3005
3536.00,0.3008
3535.00,0.3011
3534.00,0.3015
3533.00,0.3018
3532.00,0.3021
3531.00,0.3024
3530.00,0.3027
3529.00,0.3030
3528.00,0.3034
3527.00,0.3038
3526.00,0.3043
3525.00,0.3048
3524.00,0.3053
3523.00,0.3057
3522.00,0.3061
3521.00,0.3064
3520.00,0.3069
3519.00,0.3073
3518.00,0.3078
3517.00,0.3082
3516.00,0.3087
3515.00,0.3092
3514.00,0.3098
3513.00,0.3104
3512.00,0.3110
3511.00,0.3116
3510.00,0.3123
3509.00,0.3128
3508.00,0.3133
3507.00,0.3139
3506.00,0.3145
3505.00,0.3152
3504.00,0.3158
3503.00,0.3164
3502.00,0.3169
3501.00,0.3174
3500.00,0.3179
3499.00,0.3184
3498.00,0.3189
3497.00,0.3194
3496.00,0.3201
3495.00,0.3208
3494.00,0.3215
3493.00,0.3222
3492.00,0.3230
3491.00,0.3238
3490.00,0.3246
3489.00,0.3255
3488.00,0.3264
3487.00,0.3272
3486.00,0.3279
3485.00,0.3286
3484.00,0.3293
3483.00,0.3301
3482.00,0.3308
3481.00,0.3315
3480.00,0.3321
3479.00,0.3327
3478.00,0.3333
3477.00,0.3339
3476.00,0.3345
3475.00,0.3351
3474.00,0.3358
3473.00,0.3364
3472.00,0.3370
3471.00,0.3376
3470.00,0.3382
3469.00,0.3388
3468.00,0.3394
3467.00,0.3399
3466.00,0.3405
3465.00,0.3411
3464.00,0.3418
3463.00,0.3426
3462.00,0.3433
3461.00,0.3441
3460.00,0.3448
3459.00,0.3455
3458.00,0.3462
3457.00,0.3470
3456.00,0.3478
3455.00,0.3486
3454.00,0.3494
3453.00,0.3501
3452.00,0.3509
3451.00,0.3518
3450.00,0.3526
3449.00,0.3535
3448.00,0.3543
3447.00,0.3552
3446.00,0.3561
3445.00,0.3570
3444.00,0.3579
3443.00,0.3587
3442.00,0.3595
3441.00,0.3604
3440.00,0.3613
3439.00,0.3622
3438.00,0.3631
3437.00,0.3639
3436.00,0.3648
3435.00,0.3656
3434.00,0.3665
3433.00,0.3673
3432.00,0.3682
3431.00,0.3690
3430.00,0.3699
3429.00,0.3708
3428.00,0.3717
3427.00,0.3727
3426.00,0.3736
3425.00,0.3746
3424.00,0.3755
3423.00,0.3765
3422.00,0.3775
3421.00,0.3785
3420.00,0.3795
3419.00,0.3804
3418.00,0.3814
3417.00,0.3825
3416.00,0.3836
3415.00,0.3847
3414.00,0.3858
3413.00,0.3869
3412.00,0.3880
3411.00,0.3891
3410.00,0.3902
3409.00,0.3914
3408.00,0.3926
3407.00,0.3938
3406.00,0.3949
3405.00,0.3961
3404.00,0.3972
3403.00,0.3983
3402.00,0.3993
3401.00,0.4004
3400.00,0.4016
3399.00,0.4027
3398.00,0.4039
3397.00,0.4051
3396.00,0.4063
3395.00,0.4074
3394.00,0.4085
3393.00,0.4097
3392.00,0.4108
3391.00,0.4119
3390.00,0.4130
3389.00,0.4141
3388.00,0.4153
3387.00,0.4164
3386.00,0.4175
3385.00,0.4186
3384.00,0.4197
3383.00,0.4209
3382.00,0.4222
3381.00,0.4236
3380.00,0.4249
3379.00,0.4263
3378.00,0.4276
3377.00,0.4289
3376.00,0.4302
3375.00,0.4316
3374.00,0.4329
3373.00,0.4343
3372.00,0.4357
3371.00,0.4371
3370.00,0.4386
3369.00,0.4401
3368.00,0.4417
3367.00,0.4432
3366.00,0.4447
3365.00,0.4461
3364.00,0.4476
3363.00,0.4492
3362.00,0.4508
3361.00,0.4524
3360.00,0.4540
3359.00,0.4556
3358.00,0.4572
3357.00,0.4588
3356.00,0.4603
3355.00,0.4620
3354.00,0.4636
3353.00,0.4653
3352.00,0.4670
3351.00,0.4687
3350.00,0.4704
3349.00,0.4720
3348.00,0.4737
3347.00,0.4752
3346.00,0.4768
3345.00,0.4783
3344.00,0.4797
3343.00,0.4812
3342.00,0.4826
3341.00,0.4840
3340.00,0.4852
3339.00,0.4864
3338.00,0.4875
3337.00,0.4886
3336.00,0.4897
3335.00,0.4906
3334.00,0.4914
3333.00,0.4921
3332.00,0.4927
3331.00,0.4932
3330.00,0.4936
3329.00,0.4940
3328.00,0.4943
3327.00,0.4945
3326.00,0.4947
3325.00,0.4946
3324.00,0.4945
3323.00,0.4943
3322.00,0.4940
3321.00,0.4936
3320.00,0.4933
3319.00,0.4928
3318.00,0.4922
3317.00,0.4916
3316.00,0.4910
3315.00,0.4903
3314.00,0.4897
3313.00,0.4890
3312.00,0.4883
3311.00,0.4875
3310.00,0.4867
3309.00,0.4859
3308.00,0.4851
3307.00,0.4842
3306.00,0.4834
3305.00,0.4826
3304.00,0.4818
3303.00,0.4809
3302.00,0.4801
3301.00,0.4793
3300.00,0.4785
3299.00,0.4777
3298.00,0.4769
3297.00,0.4763
3296.00,0.4757
3295.00,0.4751
3294.00,0.4746
3293.00,0.4741
3292.00,0.4736
3291.00,0.4731
3290.00,0.4726
3289.00,0.4722
3288.00,0.4718
3287.00,0.4716
3286.00,0.4713
3285.00,0.4712
3284.00,0.4711
3283.00,0.4711
3282.00,0.4711
3281.00,0.4712
3280.00,0.4713
3279.00,0.4714
3278.00,0.4715
3277.00,0.4717
3276.00,0.4719
3275.00,0.4722
3274.00,0.4726
3273.00,0.4729
3272.00,0.4733
3271.00,0.4736
3270.00,0.4740
3269.00,0.4745
3268.00,0.4750
3267.00,0.4754
3266.00,0.4759
3265.00,0.4763
3264.00,0.4768
3263.00,0.4772
3262.00,0.4777
3261.00,0.4781
3260.00,0.4786
3259.00,0.4791
3258.00,0.4797
3257.00,0.4802
3256.00,0.4806
3255.00,0.4810
3254.00,0.4813
3253.00,0.4817
3252.00,0.4821
3251.00,0.4825
3250.00,0.4830
3249.00,0.4834
3248.00,0.4837
3247.00,0.4839
3246.00,0.4841
3245.00,0.4844
3244.00,0.4847
3243.00,0.4849
3242.00,0.4851
3241.00,0.4853
3240.00,0.4855
3239.00,0.4856
3238.00,0.4857
3237.00,0.4858
3236.00,0.4859
3235.00,0.4860
3234.00,0.4860
3233.00,0.4860
3232.00,0.4858
3231.00,0.4857
3230.00,0.4855
3229.00,0.4853
3228.00,0.4852
3227.00,0.4849
3226.00,0.4846
3225.00,0.4844
3224.00,0.4841
3223.00,0.4838
3222.00,0.4834
3221.00,0.4830
3220.00,0.4826
3219.00,0.4823
3218.00,0.4819
3217.00,0.4816
3216.00,0.4812
3215.00,0.4807
3214.00,0.4802
3213.00,0.4797
3212.00,0.4792
3211.00,0.4787
3210.00,0.4783
3209.00,0.4778
3208.00,0.4773
3207.00,0.4769
3206.00,0.4764
3205.00,0.4761
3204.00,0.4757
3203.00,0.4752
3202.00,0.4748
3201.00,0.4744
3200.00,0.4739
3199.00,0.4734
3198.00,0.4729
3197.00,0.4723
3196.00,0.4717
3195.00,0.4712
3194.00,0.4706
3193.00,0.4701
3192.00,0.4696
3191.00,0.4691
3190.00,0.4685
3189.00,0.4678
3188.00,0.4671
3187.00,0.4663
3186.00,0.4655
3185.00,0.4647
3184.00,0.4639
3183.00,0.4632
3182.00,0.4624
3181.00,0.4617
3180.00,0.4609
3179.00,0.4601
3178.00,0.4593
3177.00,0.4584
3176.00,0.4576
3175.00,0.4567
3174.00,0.4558
3173.00,0.4550
3172.00,0.4541
3171.00,0.4532
3170.00,0.4524
3169.00,0.4516
3168.00,0.4508
3167.00,0.4500
3166.00,0.4491
3165.00,0.4482
3164.00,0.4474
3163.00,0.4465
3162.00,0.4457
3161.00,0.4448
3160.00,0.4439
3159.00,0.4430
3158.00,0.4422
3157.00,0.4413
3156.00,0.4404
3155.00,0.4394
3154.00,0.4385
3153.00,0.4377
3152.00,0.4369
3151.00,0.4361
3150.00,0.4353
3149.00,0.4346
3148.00,0.4338
3147.00,0.4330
3146.00,0.4322
3145.00,0.4315
3144.00,0.4307
3143.00,0.4300
3142.00,0.4292
3141.00,0.4286
3140.00,0.4280
3139.00,0.4275
3138.00,0.4270
3137.00,0.4266
3136.00,0.4262
3135.00,0.4258
3134.00,0.4255
3133.00,0.4252
3132.00,0.4249
3131.00,0.4246
3130.00,0.4244
3129.00,0.4244
3128.00,0.4244
3127.00,0.4244
3126.00,0.4243
3125.00,0.4242
3124.00,0.4242
3123.00,0.4242
3122.00,0.4242
3121.00,0.4243
3120.00,0.4244
3119.00,0.4246
3118.00,0.4247
3117.00,0.4248
3116.00,0.4250
3115.00,0.4252
3114.00,0.4255
3113.00,0.4259
3112.00,0.4264
3111.00,0.4269
3110.00,0.4275
3109.00,0.4281
3108.00,0.4289
3107.00,0.4296
3106.00,0.4304
3105.00,0.4313
3104.00,0.4321
3103.00,0.4329
3102.00,0.4337
3101.00,0.4346
3100.00,0.4355
3099.00,0.4364
3098.00,0.4374
3097.00,0.4386
3096.00,0.4399
3095.00,0.4413
3094.00,0.4429
3093.00,0.4445
3092.00,0.4463
3091.00,0.4482
3090.00,0.4503
3089.00,0.4526
3088.00,0.4550
3087.00,0.4574
3086.00,0.4599
3085.00,0.4626
3084.00,0.4653
3083.00,0.4683
3082.00,0.4714
3081.00,0.4746
3080.00,0.4780
3079.00,0.4815
3078.00,0.4853
3077.00,0.4892
3076.00,0.4934
3075.00,0.4976
3074.00,0.5019
3073.00,0.5063
3072.00,0.5106
3071.00,0.5150
3070.00,0.5193
3069.00,0.5237
3068.00,0.5280
3067.00,0.5323
3066.00,0.5365
3065.00,0.5406
3064.00,0.5446
3063.00,0.5483
3062.00,0.5516
3061.00,0.5545
3060.00,0.5571
3059.00,0.5597
3058.00,0.5622
3057.00,0.5649
3056.00,0.5676
3055.00,0.5706
3054.00,0.5737
3053.00,0.5770
3052.00,0.5805
3051.00,0.5842
3050.00,0.5882
3049.00,0.5923
3048.00,0.5968
3047.00,0.6014
3046.00,0.6060
3045.00,0.6106
3044.00,0.6152
3043.00,0.6197
3042.00,0.6244
3041.00,0.6290
3040.00,0.6336
3039.00,0.6383
3038.00,0.6431
3037.00,0.6481
3036.00,0.6535
3035.00,0.6592
3034.00,0.6653
3033.00,0.6719
3032.00,0.6790
3031.00,0.6866
3030.00,0.6946
3029.00,0.7030
3028.00,0.7118
3027.00,0.7209
3026.00,0.7304
3025.00,0.7402
3024.00,0.7504
3023.00,0.7608
3022.00,0.7715
3021.00,0.7826
3020.00,0.7939
3019.00,0.8056
3018.00,0.8174
3017.00,0.8293
3016.00,0.8412
3015.00,0.8532
3014.00,0.8655
3013.00,0.8780
3012.00,0.8908
3011.00,0.9038
3010.00,0.9172
3009.00,0.9311
3008.00,0.9456
3007.00,0.9609
3006.00,0.9771
3005.00,0.9939
3004.00,1.0112
3003.00,1.0290
3002.00,1.0472
3001.00,1.0662
3000.00,1.0860
2999.00,1.1068
2998.00,1.1290
2997.00,1.1531
2996.00,1.1795
2995.00,1.2088
2994.00,1.2419
2993.00,1.2789
2992.00,1.3203
2991.00,1.3661
2990.00,1.4169
2989.00,1.4733
2988.00,1.5364
2987.00,1.6071
2986.00,1.6861
2985.00,1.7743
2984.00,1.8722
2983.00,1.9799
2982.00,2.0971
2981.00,2.2236
2980.00,2.3601
2979.00,2.5079
2978.00,2.6669
2977.00,2.8328
2976.00,3.0034
2975.00,3.1828
2974.00,3.3701
2973.00,3.5377
2972.00,3.6514
2971.00,3.7504
2970.00,3.8982
2969.00,4.0765
2968.00,4.1392
2967.00,4.0432
2966.00,3.9836
2965.00,4.0558
2964.00,4.1633
2963.00,4.0842
2962.00,4.0140
2961.00,4.1014
2960.00,4.4060
2959.00,4.7985
2958.00,4.2749
2957.00,3.9157
2956.00,3.7463
2955.00,3.7800
2954.00,4.0652
2953.00,4.3476
2952.00,4.2119
2951.00,4.1749
2950.00,4.2322
2949.00,4.1133
2948.00,3.9470
2947.00,3.9858
2946.00,4.2276
2945.00,4.1281
2944.00,3.9680
2943.00,4.0381
2942.00,4.3833
2941.00,4.3210
2940.00,4.0441
2939.00,3.8932
2938.00,3.8968
2937.00,3.9457
2936.00,3.9808
2935.00,4.0041
2934.00,4.0028
2933.00,4.1150
2932.00,4.3326
2931.00,4.4038
2930.00,4.4965
2929.00,4.6746
2928.00,4.4841
2927.00,4.1854
2926.00,4.1399
2925.00,4.4734
2924.00,4.4541
2923.00,4.0980
2922.00,3.8589
2921.00,3.8012
2920.00,3.8306
2919.00,3.9473
2918.00,4.2359
2917.00,4.2688
2916.00,4.0538
2915.00,3.9003
2914.00,3.8910
2913.00,3.9653
2912.00,4.0183
2911.00,4.1751
2910.00,4.4815
2909.00,4.3464
2908.00,4.0650
2907.00,3.8622
2906.00,3.8483
2905.00,3.9443
2904.00,4.0178
2903.00,4.0320
2902.00,4.0763
2901.00,4.3634
2900.00,4.5985
2899.00,4.2893
2898.00,4.1050
2897.00,4.2504
2896.00,4.4386
2895.00,4.1515
2894.00,3.9922
2893.00,4.0263
2892.00,4.2232
2891.00,4.3618
2890.00,4.2434
2889.00,4.2973
2888.00,4.5319
2887.00,4.4990
2886.00,4.3356
2885.00,4.2458
2884.00,4.4220
2883.00,4.5712
2882.00,4.5069
2881.00,4.5411
2880.00,4.5534
2879.00,4.3234
2878.00,4.0686
2877.00,3.9007
2876.00,3.8704
2875.00,3.8999
2874.00,3.9853
2873.00,4.1692
2872.00,4.1659
2871.00,3.9809
2870.00,3.8386
2869.00,3.8633
2868.00,3.9869
2867.00,4.2287
2866.00,4.5442
2865.00,4.1303
2864.00,3.9137
2863.00,3.9073
2862.00,4.1244
2861.00,4.3508
2860.00,4.5133
2859.00,4.6194
2858.00,4.3083
2857.00,4.1917
2856.00,4.2464
2855.00,4.1588
2854.00,3.9334
2853.00,3.7899
2852.00,3.7393
2851.00,3.7278
2850.00,3.7755
2849.00,3.9311
2848.00,4.2626
2847.00,4.5648
2846.00,4.1753
2845.00,3.8270
2844.00,3.6700
2843.00,3.6519
2842.00,3.6893
2841.00,3.6978
2840.00,3.6029
2839.00,3.4437
2838.00,3.2753
2837.00,3.0982
2836.00,2.9145
2835.00,2.7283
2834.00,2.5460
2833.00,2.3748
2832.00,2.2196
2831.00,2.0827
2830.00,1.9630
2829.00,1.8578
2828.00,1.7640
2827.00,1.6795
2826.00,1.6026
2825.00,1.5325
2824.00,1.4691
2823.00,1.4119
2822.00,1.3596
2821.00,1.3114
2820.00,1.2665
2819.00,1.2248
2818.00,1.1861
2817.00,1.1503
2816.00,1.1170
2815.00,1.0860
2814.00,1.0570
2813.00,1.0296
2812.00,1.0038
2811.00,0.9795
2810.00,0.9567
2809.00,0.9352
2808.00,0.9148
2807.00,0.8953
2806.00,0.8766
2805.00,0.8588
2804.00,0.8419
2803.00,0.8260
2802.00,0.8108
2801.00,0.7964
2800.00,0.7826
2799.00,0.7695
2798.00,0.7569
2797.00,0.7449
2796.00,0.7334
2795.00,0.7223
2794.00,0.7114
2793.00,0.7008
2792.00,0.6904
2791.00,0.6803
2790.00,0.6705
2789.00,0.6610
2788.00,0.6516
2787.00,0.6425
2786.00,0.6337
2785.00,0.6251
2784.00,0.6167
2783.00,0.6086
2782.00,0.6007
2781.00,0.5932
2780.00,0.5860
2779.00,0.5791
2778.00,0.5725
2777.00,0.5662
2776.00,0.5602
2775.00,0.5545
2774.00,0.5491
2773.00,0.5441
2772.00,0.5395
2771.00,0.5353
2770.00,0.5313
2769.00,0.5277
2768.00,0.5244
2767.00,0.5214
2766.00,0.5187
2765.00,0.5164
2764.00,0.5143
2763.00,0.5124
2762.00,0.5108
2761.00,0.5094
2760.00,0.5081
2759.00,0.5070
2758.00,0.5058
2757.00,0.5047
2756.00,0.5036
2755.00,0.5026
2754.00,0.5017
2753.00,0.5010
2752.00,0.5005
2751.00,0.5002
2750.00,0.5001
2749.00,0.5002
2748.00,0.5004
2747.00,0.5009
2746.00,0.5015
2745.00,0.5025
2744.00,0.5037
2743.00,0.5052
2742.00,0.5071
2741.00,0.5093
2740.00,0.5119
2739.00,0.5150
2738.00,0.5186
2737.00,0.5228
2736.00,0.5274
2735.00,0.5325
2734.00,0.5377
2733.00,0.5428
2732.00,0.5475
2731.00,0.5514
2730.00,0.5543
2729.00,0.5561
2728.00,0.5568
2727.00,0.5565
2726.00,0.5556
2725.00,0.5541
2724.00,0.5522
2723.00,0.5500
2722.00,0.5473
2721.00,0.5443
2720.00,0.5410
2719.00,0.5375
2718.00,0.5338
2717.00,0.5298
2716.00,0.5255
2715.00,0.5211
2714.00,0.5166
2713.00,0.5123
2712.00,0.5081
2711.00,0.5043
2710.00,0.5009
2709.00,0.4979
2708.00,0.4953
2707.00,0.4930
2706.00,0.4912
2705.00,0.4896
2704.00,0.4884
2703.00,0.4875
2702.00,0.4869
2701.00,0.4865
2700.00,0.4864
2699.00,0.4865
2698.00,0.4868
2697.00,0.4873
2696.00,0.4879
2695.00,0.4886
2694.00,0.4893
2693.00,0.4902
2692.00,0.4911
2691.00,0.4920
2690.00,0.4930
2689.00,0.4938
2688.00,0.4947
2687.00,0.4954
2686.00,0.4961
2685.00,0.4967
2684.00,0.4972
2683.00,0.4976
2682.00,0.4979
2681.00,0.4982
2680.00,0.4985
2679.00,0.4988
2678.00,0.4992
2677.00,0.4996
2676.00,0.5000
2675.00,0.5002
2674.00,0.5005
2673.00,0.5006
2672.00,0.5007
2671.00,0.5007
2670.00,0.5006
2669.00,0.5002
2668.00,0.4994
2667.00,0.4984
2666.00,0.4972
2665.00,0.4957
2664.00,0.4940
2663.00,0.4921
2662.00,0.4902
2661.00,0.4883
2660.00,0.4863
2659.00,0.4843
2658.00,0.4823
2657.00,0.4803
2656.00,0.4783
2655.00,0.4765
2654.00,0.4747
2653.00,0.4731
2652.00,0.4715
2651.00,0.4699
2650.00,0.4684
2649.00,0.4669
2648.00,0.4654
2647.00,0.4640
2646.00,0.4626
2645.00,0.4613
2644.00,0.4600
2643.00,0.4588
2642.00,0.4577
2641.00,0.4567
2640.00,0.4557
2639.00,0.4546
2638.00,0.4536
2637.00,0.4526
2636.00,0.4517
2635.00,0.4508
2634.00,0.4499
2633.00,0.4490
2632.00,0.4481
2631.00,0.4473
2630.00,0.4465
2629.00,0.4457
2628.00,0.4449
2627.00,0.4441
2626.00,0.4433
2625.00,0.4425
2624.00,0.4417
2623.00,0.4409
2622.00,0.4401
2621.00,0.4393
2620.00,0.4383
2619.00,0.4374
2618.00,0.4365
2617.00,0.4355
2616.00,0.4346
2615.00,0.4337
2614.00,0.4327
2613.00,0.4317
2612.00,0.4308
2611.00,0.4299
2610.00,0.4289
2609.00,0.4278
2608.00,0.4268
2607.00,0.4257
2606.00,0.4247
2605.00,0.4237
2604.00,0.4226
2603.00,0.4215
2602.00,0.4204
2601.00,0.4193
2600.00,0.4181
2599.00,0.4168
2598.00,0.4155
2597.00,0.4142
2596.00,0.4127
2595.00,0.4113
2594.00,0.4099
2593.00,0.4085
2592.00,0.4071
2591.00,0.4057
2590.00,0.4041
2589.00,0.4026
2588.00,0.4011
2587.00,0.3995
2586.00,0.3980
2585.00,0.3964
2584.00,0.3949
2583.00,0.3933
2582.00,0.3917
2581.00,0.3899
2580.00,0.3882
2579.00,0.3864
2578.00,0.3847
2577.00,0.3830
2576.00,0.3813
2575.00,0.3796
2574.00,0.3780
2573.00,0.3765
2572.00,0.3750
2571.00,0.3734
2570.00,0.3719
2569.00,0.3704
2568.00,0.3688
2567.00,0.3673
2566.00,0.3659
2565.00,0.3644
2564.00,0.3630
2563.00,0.3616
2562.00,0.3602
2561.00,0.3589
2560.00,0.3577
2559.00,0.3565
2558.00,0.3553
2557.00,0.3542
2556.00,0.3530
2555.00,0.3519
2554.00,0.3508
2553.00,0.3498
2552.00,0.3488
2551.00,0.3479
2550.00,0.3471
2549.00,0.3462
2548.00,0.3454
2547.00,0.3445
2546.00,0.3436
2545.00,0.3427
2544.00,0.3418
2543.00,0.3410
2542.00,0.3403
2541.00,0.3395
2540.00,0.3387
2539.00,0.3379
2538.00,0.3371
2537.00,0.3363
2536.00,0.3356
2535.00,0.3348
2534.00,0.3342
2533.00,0.3335
2532.00,0.3328
2531.00,0.3320
2530.00,0.3311
2529.00,0.3302
2528.00,0.3292
2527.00,0.3282
2526.00,0.3273
2525.00,0.3263
2524.00,0.3253
2523.00,0.3243
2522.00,0.3234
2521.00,0.3225
2520.00,0.3216
2519.00,0.3208
2518.00,0.3200
2517.00,0.3192
2516.00,0.3185
2515.00,0.3178
2514.00,0.3172
2513.00,0.3165
2512.00,0.3158
2511.00,0.3151
2510.00,0.3145
2509.00,0.3138
2508.00,0.3132
2507.00,0.3125
2506.00,0.3119
2505.00,0.3113
2504.00,0.3109
2503.00,0.3104
2502.00,0.3099
2501.00,0.3093
2500.00,0.3087
2499.00,0.3082
2498.00,0.3076
2497.00,0.3071
2496.00,0.3067
2495.00,0.3062
2494.00,0.3057
2493.00,0.3052
2492.00,0.3048
2491.00,0.3043
2490.00,0.3039
2489.00,0.3035
2488.00,0.3031
2487.00,0.3027
2486.00,0.3023
2485.00,0.3020
2484.00,0.3017
2483.00,0.3013
2482.00,0.3010
2481.00,0.3006
2480.00,0.3003
2479.00,0.3000
2478.00,0.2997
2477.00,0.2995
2476.00,0.2992
2475.00,0.2990
2474.00,0.2987
2473.00,0.2985
2472.00,0.2982
2471.00,0.2979
2470.00,0.2976
2469.00,0.2974
2468.00,0.2971
2467.00,0.2968
2466.00,0.2965
2465.00,0.2962
2464.00,0.2958
2463.00,0.2954
2462.00,0.2951
2461.00,0.2947
2460.00,0.2944
2459.00,0.2941
2458.00,0.2938
2457.00,0.2935
2456.00,0.2933
2455.00,0.2931
2454.00,0.2929
2453.00,0.2927
2452.00,0.2925
2451.00,0.2924
2450.00,0.2923
2449.00,0.2922
2448.00,0.2922
2447.00,0.2922
2446.00,0.2922
2445.00,0.2922
2444.00,0.2922
2443.00,0.2922
2442.00,0.2922
2441.00,0.2923
2440.00,0.2924
2439.00,0.2925
2438.00,0.2926
2437.00,0.2927
2436.00,0.2928
2435.00,0.2928
2434.00,0.2929
2433.00,0.2929
2432.00,0.2930
2431.00,0.2930
2430.00,0.2930
2429.00,0.2930
2428.00,0.2931
2427.00,0.2931
2426.00,0.2931
2425.00,0.2931
2424.00,0.2931
2423.00,0.2931
2422.00,0.2930
2421.00,0.2930
2420.00,0.2930
2419.00,0.2930
2418.00,0.2930
2417.00,0.2931
2416.00,0.2931
2415.00,0.2932
2414.00,0.2932
2413.00,0.2932
2412.00,0.2932
2411.00,0.2932
2410.00,0.2932
2409.00,0.2932
2408.00,0.2931
2407.00,0.2931
2406.00,0.2930
2405.00,0.2930
2404.00,0.2930
2403.00,0.2929
2402.00,0.2929
2401.00,0.2928
2400.00,0.2927
2399.00,0.2926
2398.00,0.2924
2397.00,0.2922
2396.00,0.2921
2395.00,0.2919
2394.00,0.2918
2393.00,0.2917
2392.00,0.2916
2391.00,0.2914
2390.00,0.2913
2389.00,0.2911
2388.00,0.2909
2387.00,0.2907
2386.00,0.2905
2385.00,0.2904
2384.00,0.2903
2383.00,0.2901
2382.00,0.2901
2381.00,0.2901
2380.00,0.2901
2379.00,0.2902
2378.00,0.2903
2377.00,0.2903
2376.00,0.2903
2375.00,0.2903
2374.00,0.2902
2373.00,0.2901
2372.00,0.2899
2371.00,0.2897
2370.00,0.2895
2369.00,0.2894
2368.00,0.2892
2367.00,0.2891
2366.00,0.2889
2365.00,0.2889
2364.00,0.2889
2363.00,0.2890
2362.00,0.2891
2361.00,0.2893
2360.00,0.2895
2359.00,0.2899
2358.00,0.2903
2357.00,0.2907
2356.00,0.2910
2355.00,0.2910
2354.00,0.2907
2353.00,0.2901
2352.00,0.2893
2351.00,0.2887
2350.00,0.2886
2349.00,0.2889
2348.00,0.2892
2347.00,0.2892
2346.00,0.2887
2345.00,0.2882
2344.00,0.2880
2343.00,0.2879
2342.00,0.2878
2341.00,0.2878
2340.00,0.2877
2339.00,0.2875
2338.00,0.2873
2337.00,0.2871
2336.00,0.2869
2335.00,0.2868
2334.00,0.2866
2333.00,0.2864
2332.00,0.2863
2331.00,0.2860
2330.00,0.2858
2329.00,0.2857
2328.00,0.2857
2327.00,0.2857
2326.00,0.2856
2325.00,0.2855
2324.00,0.2852
2323.00,0.2850
2322.00,0.2848
2321.00,0.2847
2320.00,0.2845
2319.00,0.2844
2318.00,0.2841
2317.00,0.2839
2316.00,0.2836
2315.00,0.2833
2314.00,0.2830
2313.00,0.2827
2312.00,0.2825
2311.00,0.2822
2310.00,0.2819
2309.00,0.2815
2308.00,0.2811
2307.00,0.2808
2306.00,0.2804
2305.00,0.2801
2304.00,0.2798
2303.00,0.2795
2302.00,0.2793
2301.00,0.2790
2300.00,0.2787
2299.00,0.2785
2298.00,0.2782
2297.00,0.2779
2296.00,0.2775
2295.00,0.2772
2294.00,0.2769
2293.00,0.2766
2292.00,0.2763
2291.00,0.2760
2290.00,0.2756
2289.00,0.2753
2288.00,0.2750
2287.00,0.2747
2286.00,0.2745
2285.00,0.2742
2284.00,0.2740
2283.00,0.2738
2282.00,0.2736
2281.00,0.2734
2280.00,0.2731
2279.00,0.2729
2278.00,0.2726
2277.00,0.2724
2276.00,0.2722
2275.00,0.2719
2274.00,0.2716
2273.00,0.2714
2272.00,0.2712
2271.00,0.2710
2270.00,0.2709
2269.00,0.2708
2268.00,0.2707
2267.00,0.2705
2266.00,0.2703
2265.00,0.2700
2264.00,0.2698
2263.00,0.2694
2262.00,0.2691
2261.00,0.2687
2260.00,0.2684
2259.00,0.2681
2258.00,0.2678
2257.00,0.2675
2256.00,0.2673
2255.00,0.2670
2254.00,0.2667
2253.00,0.2664
2252.00,0.2662
2251.00,0.2659
2250.00,0.2657
2249.00,0.2655
2248.00,0.2654
2247.00,0.2652
2246.00,0.2651
2245.00,0.2650
2244.00,0.2648
2243.00,0.2646
2242.00,0.2645
2241.00,0.2643
2240.00,0.2643
2239.00,0.2642
2238.00,0.2641
2237.00,0.2641
2236.00,0.2640
2235.00,0.2639
2234.00,0.2638
2233.00,0.2637
2232.00,0.2637
2231.00,0.2636
2230.00,0.2635
2229.00,0.2634
2228.00,0.2633
2227.00,0.2631
2226.00,0.2629
2225.00,0.2627
2224.00,0.2626
2223.00,0.2624
2222.00,0.2622
2221.00,0.2620
2220.00,0.2618
2219.00,0.2617
2218.00,0.2615
2217.00,0.2614
2216.00,0.2613
2215.00,0.2612
2214.00,0.2611
2213.00,0.2610
2212.00,0.2610
2211.00,0.2609
2210.00,0.2609
2209.00,0.2609
2208.00,0.2609
2207.00,0.2609
2206.00,0.2609
2205.00,0.2610
2204.00,0.2611
2203.00,0.2611
2202.00,0.2611
2201.00,0.2612
2200.00,0.2613
2199.00,0.2613
2198.00,0.2614
2197.00,0.2615
2196.00,0.2616
2195.00,0.2616
2194.00,0.2617
2193.00,0.2617
2192.00,0.2617
2191.00,0.2616
2190.00,0.2616
2189.00,0.2615
2188.00,0.2615
2187.00,0.2613
2186.00,0.2612
2185.00,0.2611
2184.00,0.2610
2183.00,0.2609
2182.00,0.2608
2181.00,0.2606
2180.00,0.2605
2179.00,0.2603
2178.00,0.2601
2177.00,0.2599
2176.00,0.2598
2175.00,0.2597
2174.00,0.2595
2173.00,0.2594
2172.00,0.2593
2171.00,0.2593
2170.00,0.2592
2169.00,0.2592
2168.00,0.2591
2167.00,0.2591
2166.00,0.2590
2165.00,0.2590
2164.00,0.2590
2163.00,0.2589
2162.00,0.2588
2161.00,0.2588
2160.00,0.2588
2159.00,0.2587
2158.00,0.2586
2157.00,0.2584
2156.00,0.2583
2155.00,0.2582
2154.00,0.2580
2153.00,0.2578
2152.00,0.2576
2151.00,0.2573
2150.00,0.2570
2149.00,0.2567
2148.00,0.2563
2147.00,0.2559
2146.00,0.2555
2145.00,0.2550
2144.00,0.2545
2143.00,0.2540
2142.00,0.2535
2141.00,0.2531
2140.00,0.2527
2139.00,0.2523
2138.00,0.2519
2137.00,0.2517
2136.00,0.2515
2135.00,0.2513
2134.00,0.2512
2133.00,0.2510
2132.00,0.2508
2131.00,0.2507
2130.00,0.2506
2129.00,0.2505
2128.00,0.2505
2127.00,0.2504
2126.00,0.2504
2125.00,0.2504
2124.00,0.2503
2123.00,0.2502
2122.00,0.2500
2121.00,0.2499
2120.00,0.2499
2119.00,0.2498
2118.00,0.2497
2117.00,0.2496
2116.00,0.2496
2115.00,0.2494
2114.00,0.2493
2113.00,0.2491
2112.00,0.2490
2111.00,0.2488
2110.00,0.2487
2109.00,0.2485
2108.00,0.2484
2107.00,0.2482
2106.00,0.2481
2105.00,0.2480
2104.00,0.2479
2103.00,0.2478
2102.00,0.2477
2101.00,0.2476
2100.00,0.2475
2099.00,0.2474
2098.00,0.2474
2097.00,0.2473
2096.00,0.2473
2095.00,0.2473
2094.00,0.2473
2093.00,0.2473
2092.00,0.2473
2091.00,0.2474
2090.00,0.2474
2089.00,0.2475
2088.00,0.2475
2087.00,0.2476
2086.00,0.2476
2085.00,0.2477
2084.00,0.2478
2083.00,0.2477
2082.00,0.2477
2081.00,0.2477
2080.00,0.2477
2079.00,0.2478
2078.00,0.2478
2077.00,0.2478
2076.00,0.2478
2075.00,0.2479
2074.00,0.2479
2073.00,0.2479
2072.00,0.2479
2071.00,0.2478
2070.00,0.2478
2069.00,0.2478
2068.00,0.2478
2067.00,0.2479
2066.00,0.2481
2065.00,0.2482
2064.00,0.2483
2063.00,0.2484
2062.00,0.2484
2061.00,0.2485
2060.00,0.2486
2059.00,0.2487
2058.00,0.2487
2057.00,0.2488
2056.00,0.2490
2055.00,0.2492
2054.00,0.2493
2053.00,0.2495
2052.00,0.2497
2051.00,0.2498
2050.00,0.2500
2049.00,0.2502
2048.00,0.2505
2047.00,0.2507
2046.00,0.2508
2045.00,0.2510
2044.00,0.2511
2043.00,0.2513
2042.00,0.2515
2041.00,0.2516
2040.00,0.2517
2039.00,0.2518
2038.00,0.2518
2037.00,0.2519
2036.00,0.2520
2035.00,0.2520
2034.00,0.2520
2033.00,0.2520
2032.00,0.2520
2031.00,0.2520
2030.00,0.2519
2029.00,0.2519
2028.00,0.2519
2027.00,0.2518
2026.00,0.2517
2025.00,0.2516
2024.00,0.2515
2023.00,0.2513
2022.00,0.2510
2021.00,0.2507
2020.00,0.2504
2019.00,0.2501
2018.00,0.2497
2017.00,0.2492
2016.00,0.2486
2015.00,0.2480
2014.00,0.2473
2013.00,0.2467
2012.00,0.2462
2011.00,0.2458
2010.00,0.2453
2009.00,0.2450
2008.00,0.2447
2007.00,0.2444
2006.00,0.2441
2005.00,0.2438
2004.00,0.2436
2003.00,0.2434
2002.00,0.2432
2001.00,0.2430
2000.00,0.2430
1999.00,0.2429
1998.00,0.2428
1997.00,0.2426
1996.00,0.2425
1995.00,0.2425
1994.00,0.2424
1993.00,0.2425
1992.00,0.2425
1991.00,0.2424
1990.00,0.2423
1989.00,0.2422
1988.00,0.2421
1987.00,0.2419
1986.00,0.2417
1985.00,0.2415
1984.00,0.2414
1983.00,0.2413
1982.00,0.2412
1981.00,0.2412
1980.00,0.2412
1979.00,0.2412
1978.00,0.2412
1977.00,0.2412
1976.00,0.2412
1975.00,0.2412
1974.00,0.2411
1973.00,0.2411
1972.00,0.2412
1971.00,0.2412
1970.00,0.2413
1969.00,0.2415
1968.00,0.2417
1967.00,0.2419
1966.00,0.2419
1965.00,0.2418
1964.00,0.2418
1963.00,0.2418
1962.00,0.2418
1961.00,0.2419
1960.00,0.2420
1959.00,0.2421
1958.00,0.2422
1957.00,0.2424
1956.00,0.2426
1955.00,0.2428
1954.00,0.2430
1953.00,0.2431
1952.00,0.2431
1951.00,0.2431
1950.00,0.2431
1949.00,0.2432
1948.00,0.2434
1947.00,0.2436
1946.00,0.2439
1945.00,0.2442
1944.00,0.2446
1943.00,0.2451
1942.00,0.2455
1941.00,0.2458
1940.00,0.2462
1939.00,0.2464
1938.00,0.2465
1937.00,0.2465
1936.00,0.2465
1935.00,0.2463
1934.00,0.2462
1933.00,0.2462
1932.00,0.2462
1931.00,0.2462
1930.00,0.2462
1929.00,0.2463
1928.00,0.2464
1927.00,0.2466
1926.00,0.2468
1925.00,0.2471
1924.00,0.2477
1923.00,0.2482
1922.00,0.2486
1921.00,0.2488
1920.00,0.2490
1919.00,0.2492
1918.00,0.2495
1917.00,0.2499
1916.00,0.2501
1915.00,0.2503
1914.00,0.2504
1913.00,0.2505
1912.00,0.2507
1911.00,0.2509
1910.00,0.2511
1909.00,0.2512
1908.00,0.2513
1907.00,0.2512
1906.00,0.2510
1905.00,0.2510
1904.00,0.2510
1903.00,0.2510
1902.00,0.2509
1901.00,0.2509
1900.00,0.2510
1899.00,0.2510
1898.00,0.2511
1897.00,0.2514
1896.00,0.2517
1895.00,0.2520
1894.00,0.2520
1893.00,0.2520
1892.00,0.2521
1891.00,0.2523
1890.00,0.2525
1889.00,0.2527
1888.00,0.2528
1887.00,0.2529
1886.00,0.2529
1885.00,0.2531
1884.00,0.2532
1883.00,0.2531
1882.00,0.2531
1881.00,0.2531
1880.00,0.2530
1879.00,0.2530
1878.00,0.2528
1877.00,0.2527
1876.00,0.2526
1875.00,0.2524
1874.00,0.2521
1873.00,0.2519
1872.00,0.2517
1871.00,0.2515
1870.00,0.2515
1869.00,0.2517
1868.00,0.2519
1867.00,0.2517
1866.00,0.2513
1865.00,0.2508
1864.00,0.2504
1863.00,0.2501
1862.00,0.2497
1861.00,0.2495
1860.00,0.2492
1859.00,0.2490
1858.00,0.2487
1857.00,0.2485
1856.00,0.2484
1855.00,0.2481
1854.00,0.2479
1853.00,0.2478
1852.00,0.2477
1851.00,0.2476
1850.00,0.2476
1849.00,0.2477
1848.00,0.2478
1847.00,0.2477
1846.00,0.2474
1845.00,0.2472
1844.00,0.2471
1843.00,0.2470
1842.00,0.2470
1841.00,0.2470
1840.00,0.2470
1839.00,0.2470
1838.00,0.2469
1837.00,0.2469
1836.00,0.2469
1835.00,0.2467
1834.00,0.2465
1833.00,0.2464
1832.00,0.2463
1831.00,0.2464
1830.00,0.2465
1829.00,0.2466
1828.00,0.2464
1827.00,0.2462
1826.00,0.2460
1825.00,0.2459
1824.00,0.2459
1823.00,0.2459
1822.00,0.2459
1821.00,0.2458
1820.00,0.2458
1819.00,0.2458
1818.00,0.2457
1817.00,0.2458
1816.00,0.2460
1815.00,0.2461
1814.00,0.2463
1813.00,0.2467
1812.00,0.2472
1811.00,0.2476
1810.00,0.2477
1809.00,0.2479
1808.00,0.2481
1807.00,0.2483
1806.00,0.2485
1805.00,0.2488
1804.00,0.2493
1803.00,0.2498
1802.00,0.2504
1801.00,0.2510
1800.00,0.2518
1799.00,0.2524
1798.00,0.2530
1797.00,0.2536
1796.00,0.2541
1795.00,0.2544
1794.00,0.2544
1793.00,0.2547
1792.00,0.2552
1791.00,0.2557
1790.00,0.2560
1789.00,0.2564
1788.00,0.2568
1787.00,0.2571
1786.00,0.2572
1785.00,0.2575
1784.00,0.2580
1783.00,0.2586
1782.00,0.2592
1781.00,0.2600
1780.00,0.2606
1779.00,0.2609
1778.00,0.2612
1777.00,0.2615
1776.00,0.2621
1775.00,0.2627
1774.00,0.2633
1773.00,0.2643
1772.00,0.2652
1771.00,0.2658
1770.00,0.2662
1769.00,0.2668
1768.00,0.2677
1767.00,0.2686
1766.00,0.2696
1765.00,0.2706
1764.00,0.2718
1763.00,0.2732
1762.00,0.2748
1761.00,0.2768
1760.00,0.2789
1759.00,0.2810
1758.00,0.2832
1757.00,0.2857
1756.00,0.2885
1755.00,0.2914
1754.00,0.2942
1753.00,0.2974
1752.00,0.3011
1751.00,0.3053
1750.00,0.3094
1749.00,0.3131
1748.00,0.3162
1747.00,0.3186
1746.00,0.3206
1745.00,0.3224
1744.00,0.3239
1743.00,0.3249
1742.00,0.3254
1741.00,0.3257
1740.00,0.3259
1739.00,0.3261
1738.00,0.3259
1737.00,0.3258
1736.00,0.3254
1735.00,0.3249
1734.00,0.3246
1733.00,0.3246
1732.00,0.3245
1731.00,0.3242
1730.00,0.3238
1729.00,0.3237
1728.00,0.3239
1727.00,0.3245
1726.00,0.3257
1725.00,0.3276
1724.00,0.3302
1723.00,0.3332
1722.00,0.3363
1721.00,0.3398
1720.00,0.3444
1719.00,0.3511
1718.00,0.3608
1717.00,0.3723
1716.00,0.3838
1715.00,0.3952
1714.00,0.4074
1713.00,0.4204
1712.00,0.4332
1711.00,0.4454
1710.00,0.4565
1709.00,0.4651
1708.00,0.4703
1707.00,0.4718
1706.00,0.4698
1705.00,0.4641
1704.00,0.4560
1703.00,0.4472
1702.00,0.4365
1701.00,0.4218
1700.00,0.4055
1699.00,0.3934
1698.00,0.3860
1697.00,0.3791
1696.00,0.3699
1695.00,0.3599
1694.00,0.3523
1693.00,0.3472
1692.00,0.3433
1691.00,0.3398
1690.00,0.3364
1689.00,0.3335
1688.00,0.3313
1687.00,0.3297
1686.00,0.3282
1685.00,0.3265
1684.00,0.3243
1683.00,0.3216
1682.00,0.3198
1681.00,0.3189
1680.00,0.3180
1679.00,0.3166
1678.00,0.3150
1677.00,0.3135
1676.00,0.3122
1675.00,0.3115
1674.00,0.3114
1673.00,0.3116
1672.00,0.3118
1671.00,0.3116
1670.00,0.3115
1669.00,0.3114
1668.00,0.3114
1667.00,0.3113
1666.00,0.3113
1665.00,0.3112
1664.00,0.3110
1663.00,0.3110
1662.00,0.3112
1661.00,0.3117
1660.00,0.3122
1659.00,0.3126
1658.00,0.3129
1657.00,0.3131
1656.00,0.3136
1655.00,0.3142
1654.00,0.3156
1653.00,0.3176
1652.00,0.3187
1651.00,0.3193
1650.00,0.3197
1649.00,0.3202
1648.00,0.3216
1647.00,0.3231
1646.00,0.3239
1645.00,0.3246
1644.00,0.3257
1643.00,0.3268
1642.00,0.3280
1641.00,0.3295
1640.00,0.3310
1639.00,0.3325
1638.00,0.3341
1637.00,0.3364
1636.00,0.3390
1635.00,0.3411
1634.00,0.3430
1633.00,0.3453
1632.00,0.3477
1631.00,0.3499
1630.00,0.3521
1629.00,0.3547
1628.00,0.3578
1627.00,0.3607
1626.00,0.3635
1625.00,0.3668
1624.00,0.3710
1623.00,0.3760
1622.00,0.3813
1621.00,0.3867
1620.00,0.3925
1619.00,0.3991
1618.00,0.4075
1617.00,0.4185
1616.00,0.4304
1615.00,0.4408
1614.00,0.4498
1613.00,0.4590
1612.00,0.4690
1611.00,0.4794
1610.00,0.4899
1609.00,0.5005
1608.00,0.5107
1607.00,0.5197
1606.00,0.5274
1605.00,0.5346
1604.00,0.5420
1603.00,0.5491
1602.00,0.5558
1601.00,0.5629
1600.00,0.5709
1599.00,0.5798
1598.00,0.5900
1597.00,0.6029
1596.00,0.6197
1595.00,0.6404
1594.00,0.6657
1593.00,0.6976
1592.00,0.7383
1591.00,0.7893
1590.00,0.8528
1589.00,0.9337
1588.00,1.0376
1587.00,1.1683
1586.00,1.3280
1585.00,1.5228
1584.00,1.7645
1583.00,2.0480
1582.00,2.3044
1581.00,2.4347
1580.00,2.4226
1579.00,2.2473
1578.00,1.9587
1577.00,1.6709
1576.00,1.4364
1575.00,1.2660
1574.00,1.1493
1573.00,1.0679
1572.00,1.0067
1571.00,0.9566
1570.00,0.9177
1569.00,0.8959
1568.00,0.8943
1567.00,0.9111
1566.00,0.9463
1565.00,1.0034
1564.00,1.0808
1563.00,1.1664
1562.00,1.2457
1561.00,1.3106
1560.00,1.3367
1559.00,1.2677
1558.00,1.1422
1557.00,1.0381
1556.00,0.9547
1555.00,0.8733
1554.00,0.7967
1553.00,0.7347
1552.00,0.6888
1551.00,0.6522
1550.00,0.6202
1549.00,0.5937
1548.00,0.5739
1547.00,0.5587
1546.00,0.5459
1545.00,0.5351
1544.00,0.5266
1543.00,0.5197
1542.00,0.5136
1541.00,0.5083
1540.00,0.5027
1539.00,0.4960
1538.00,0.4900
1537.00,0.4858
1536.00,0.4825
1535.00,0.4792
1534.00,0.4761
1533.00,0.4740
1532.00,0.4734
1531.00,0.4738
1530.00,0.4747
1529.00,0.4759
1528.00,0.4774
1527.00,0.4782
1526.00,0.4777
1525.00,0.4767
1524.00,0.4761
1523.00,0.4759
1522.00,0.4764
1521.00,0.4777
1520.00,0.4796
1519.00,0.4819
1518.00,0.4849
1517.00,0.4886
1516.00,0.4921
1515.00,0.4940
1514.00,0.4946
1513.00,0.4950
1512.00,0.4959
1511.00,0.4973
1510.00,0.4995
1509.00,0.5036
1508.00,0.5109
1507.00,0.5211
1506.00,0.5312
1505.00,0.5408
1504.00,0.5499
1503.00,0.5576
1502.00,0.5646
1501.00,0.5715
1500.00,0.5785
1499.00,0.5854
1498.00,0.5929
1497.00,0.6024
1496.00,0.6134
1495.00,0.6237
1494.00,0.6332
1493.00,0.6436
1492.00,0.6558
1491.00,0.6703
1490.00,0.6872
1489.00,0.7061
1488.00,0.7256
1487.00,0.7457
1486.00,0.7680
1485.00,0.7942
1484.00,0.8248
1483.00,0.8603
1482.00,0.9029
1481.00,0.9536
1480.00,1.0101
1479.00,1.0706
1478.00,1.1391
1477.00,1.2222
1476.00,1.3209
1475.00,1.4327
1474.00,1.5665
1473.00,1.7459
1472.00,1.9856
1471.00,2.2691
1470.00,2.5770
1469.00,2.9274
1468.00,3.3027
1467.00,3.4899
1466.00,3.5349
1465.00,3.5772
1464.00,3.5983
1463.00,3.7005
1462.00,3.8170
1461.00,4.2109
1460.00,4.2610
1459.00,3.6880
1458.00,3.5792
1457.00,3.8010
1456.00,3.9161
1455.00,3.6450
1454.00,3.5668
1453.00,3.7957
1452.00,3.9599
1451.00,3.6229
1450.00,3.4360
1449.00,3.3989
1448.00,3.2918
1447.00,3.1011
1446.00,2.9653
1445.00,2.8607
1444.00,2.7104
1443.00,2.5316
1442.00,2.3755
1441.00,2.2473
1440.00,2.1298
1439.00,2.0134
1438.00,1.8936
1437.00,1.7665
1436.00,1.6418
1435.00,1.5346
1434.00,1.4445
1433.00,1.3608
1432.00,1.2771
1431.00,1.1956
1430.00,1.1214
1429.00,1.0581
1428.00,1.0068
1427.00,0.9670
1426.00,0.9354
1425.00,0.9086
1424.00,0.8861
1423.00,0.8689
1422.00,0.8567
1421.00,0.8469
1420.00,0.8381
1419.00,0.8303
1418.00,0.8235
1417.00,0.8176
1416.00,0.8127
1415.00,0.8094
1414.00,0.8075
1413.00,0.8067
1412.00,0.8067
1411.00,0.8072
1410.00,0.8070
1409.00,0.8047
1408.00,0.7998
1407.00,0.7920
1406.00,0.7811
1405.00,0.7669
1404.00,0.7513
1403.00,0.7367
1402.00,0.7238
1401.00,0.7119
1400.00,0.7011
1399.00,0.6923
1398.00,0.6861
1397.00,0.6825
1396.00,0.6817
1395.00,0.6845
1394.00,0.6914
1393.00,0.7028
1392.00,0.7202
1391.00,0.7456
1390.00,0.7809
1389.00,0.8298
1388.00,0.8971
1387.00,0.9840
1386.00,1.0836
1385.00,1.1867
1384.00,1.2921
1383.00,1.4044
1382.00,1.5279
1381.00,1.6657
1380.00,1.8206
1379.00,1.9837
1378.00,2.1157
1377.00,2.1637
1376.00,2.1122
1375.00,1.9837
1374.00,1.8193
1373.00,1.6629
1372.00,1.5355
1371.00,1.4376
1370.00,1.3651
1369.00,1.3157
1368.00,1.2853
1367.00,1.2634
1366.00,1.2356
1365.00,1.1911
1364.00,1.1290
1363.00,1.0586
1362.00,0.9927
1361.00,0.9394
1360.00,0.8995
1359.00,0.8704
1358.00,0.8492
1357.00,0.8342
1356.00,0.8242
1355.00,0.8182
1354.00,0.8149
1353.00,0.8132
1352.00,0.8121
1351.00,0.8109
1350.00,0.8090
1349.00,0.8064
1348.00,0.8036
1347.00,0.8008
1346.00,0.7985
1345.00,0.7964
1344.00,0.7946
1343.00,0.7926
1342.00,0.7901
1341.00,0.7860
1340.00,0.7795
1339.00,0.7701
1338.00,0.7580
1337.00,0.7438
1336.00,0.7286
1335.00,0.7133
1334.00,0.6986
1333.00,0.6853
1332.00,0.6737
1331.00,0.6640
1330.00,0.6563
1329.00,0.6501
1328.00,0.6455
1327.00,0.6424
1326.00,0.6406
1325.00,0.6398
1324.00,0.6398
1323.00,0.6403
1322.00,0.6410
1321.00,0.6416
1320.00,0.6423
1319.00,0.6431
1318.00,0.6444
1317.00,0.6461
1316.00,0.6483
1315.00,0.6512
1314.00,0.6547
1313.00,0.6587
1312.00,0.6629
1311.00,0.6670
1310.00,0.6708
1309.00,0.6741
1308.00,0.6768
1307.00,0.6789
1306.00,0.6800
1305.00,0.6799
1304.00,0.6781
1303.00,0.6750
1302.00,0.6708
1301.00,0.6658
1300.00,0.6606
1299.00,0.6552
1298.00,0.6498
1297.00,0.6442
1296.00,0.6388
1295.00,0.6337
1294.00,0.6293
1293.00,0.6254
1292.00,0.6216
1291.00,0.6181
1290.00,0.6147
1289.00,0.6114
1288.00,0.6081
1287.00,0.6047
1286.00,0.6011
1285.00,0.5971
1284.00,0.5928
1283.00,0.5886
1282.00,0.5848
1281.00,0.5815
1280.00,0.5789
1279.00,0.5766
1278.00,0.5745
1277.00,0.5722
1276.00,0.5698
1275.00,0.5675
1274.00,0.5657
1273.00,0.5642
1272.00,0.5631
1271.00,0.5626
1270.00,0.5624
1269.00,0.5620
1268.00,0.5608
1267.00,0.5583
1266.00,0.5546
1265.00,0.5503
1264.00,0.5462
1263.00,0.5428
1262.00,0.5402
1261.00,0.5382
1260.00,0.5366
1259.00,0.5352
1258.00,0.5338
1257.00,0.5320
1256.00,0.5297
1255.00,0.5274
1254.00,0.5254
1253.00,0.5237
1252.00,0.5224
1251.00,0.5213
1250.00,0.5201
1249.00,0.5186
1248.00,0.5168
1247.00,0.5147
1246.00,0.5125
1245.00,0.5098
1244.00,0.5069
1243.00,0.5037
1242.00,0.5004
1241.00,0.4970
1240.00,0.4938
1239.00,0.4911
1238.00,0.4887
1237.00,0.4867
1236.00,0.4851
1235.00,0.4840
1234.00,0.4836
1233.00,0.4837
1232.00,0.4845
1231.00,0.4858
1230.00,0.4869
1229.00,0.4872
1228.00,0.4863
1227.00,0.4843
1226.00,0.4815
1225.00,0.4780
1224.00,0.4742
1223.00,0.4709
1222.00,0.4682
1221.00,0.4661
1220.00,0.4647
1219.00,0.4639
1218.00,0.4637
1217.00,0.4639
1216.00,0.4645
1215.00,0.4656
1214.00,0.4666
1213.00,0.4671
1212.00,0.4668
1211.00,0.4659
1210.00,0.4645
1209.00,0.4629
1208.00,0.4611
1207.00,0.4594
1206.00,0.4577
1205.00,0.4560
1204.00,0.4542
1203.00,0.4526
1202.00,0.4513
1201.00,0.4505
1200.00,0.4501
1199.00,0.4501
1198.00,0.4500
1197.00,0.4496
1196.00,0.4489
1195.00,0.4481
1194.00,0.4473
1193.00,0.4465
1192.00,0.4457
1191.00,0.4451
1190.00,0.4446
1189.00,0.4440
1188.00,0.4433
1187.00,0.4426
1186.00,0.4421
1185.00,0.4416
1184.00,0.4411
1183.00,0.4407
1182.00,0.4406
1181.00,0.4408
1180.00,0.4413
1179.00,0.4420
1178.00,0.4432
1177.00,0.4447
1176.00,0.4466
1175.00,0.4493
1174.00,0.4529
1173.00,0.4573
1172.00,0.4619
1171.00,0.4662
1170.00,0.4693
1169.00,0.4707
1168.00,0.4705
1167.00,0.4692
1166.00,0.4675
1165.00,0.4660
1164.00,0.4649
1163.00,0.4646
1162.00,0.4649
1161.00,0.4658
1160.00,0.4673
1159.00,0.4690
1158.00,0.4708
1157.00,0.4721
1156.00,0.4728
1155.00,0.4729
1154.00,0.4723
1153.00,0.4710
1152.00,0.4692
1151.00,0.4671
1150.00,0.4649
1149.00,0.4625
1148.00,0.4603
1147.00,0.4585
1146.00,0.4571
1145.00,0.4562
1144.00,0.4559
1143.00,0.4566
1142.00,0.4585
1141.00,0.4614
1140.00,0.4654
1139.00,0.4708
1138.00,0.4775
1137.00,0.4855
1136.00,0.4944
1135.00,0.5035
1134.00,0.5112
1133.00,0.5154
1132.00,0.5149
1131.00,0.5099
1130.00,0.5019
1129.00,0.4929
1128.00,0.4847
1127.00,0.4783
1126.00,0.4740
1125.00,0.4712
1124.00,0.4693
1123.00,0.4676
1122.00,0.4660
1121.00,0.4644
1120.00,0.4633
1119.00,0.4634
1118.00,0.4650
1117.00,0.4680
1116.00,0.4721
1115.00,0.4762
1114.00,0.4785
1113.00,0.4776
1112.00,0.4731
1111.00,0.4661
1110.00,0.4585
1109.00,0.4517
1108.00,0.4464
1107.00,0.4429
1106.00,0.4409
1105.00,0.4398
1104.00,0.4393
1103.00,0.4391
1102.00,0.4388
1101.00,0.4382
1100.00,0.4373
1099.00,0.4363
1098.00,0.4353
1097.00,0.4343
1096.00,0.4333
1095.00,0.4327
1094.00,0.4324
1093.00,0.4324
1092.00,0.4328
1091.00,0.4336
1090.00,0.4349
1089.00,0.4368
1088.00,0.4394
1087.00,0.4430
1086.00,0.4477
1085.00,0.4532
1084.00,0.4595
1083.00,0.4665
1082.00,0.4743
1081.00,0.4824
1080.00,0.4904
1079.00,0.4977
1078.00,0.5033
1077.00,0.5062
1076.00,0.5060
1075.00,0.5029
1074.00,0.4974
1073.00,0.4906
1072.00,0.4836
1071.00,0.4775
1070.00,0.4728
1069.00,0.4691
1068.00,0.4663
1067.00,0.4641
1066.00,0.4625
1065.00,0.4614
1064.00,0.4608
1063.00,0.4609
1062.00,0.4613
1061.00,0.4616
1060.00,0.4619
1059.00,0.4621
1058.00,0.4622
1057.00,0.4620
1056.00,0.4613
1055.00,0.4603
1054.00,0.4592
1053.00,0.4582
1052.00,0.4577
1051.00,0.4581
1050.00,0.4595
1049.00,0.4616
1048.00,0.4637
1047.00,0.4655
1046.00,0.4669
1045.00,0.4675
1044.00,0.4674
1043.00,0.4670
1042.00,0.4665
1041.00,0.4661
1040.00,0.4658
1039.00,0.4657
1038.00,0.4653
1037.00,0.4648
1036.00,0.4643
1035.00,0.4643
1034.00,0.4654
1033.00,0.4673
1032.00,0.4698
1031.00,0.4726
1030.00,0.4749
1029.00,0.4763
1028.00,0.4763
1027.00,0.4747
1026.00,0.4713
1025.00,0.4661
1024.00,0.4597
1023.00,0.4530
1022.00,0.4469
1021.00,0.4415
1020.00,0.4368
1019.00,0.4327
1018.00,0.4292
1017.00,0.4259
1016.00,0.4229
1015.00,0.4203
1014.00,0.4180
1013.00,0.4160
1012.00,0.4145
1011.00,0.4135
1010.00,0.4132
1009.00,0.4132
1008.00,0.4136
1007.00,0.4143
1006.00,0.4154
1005.00,0.4169
1004.00,0.4188
1003.00,0.4211
1002.00,0.4235
1001.00,0.4256
1000.00,0.4274
999.00,0.4285
998.00,0.4290
997.00,0.4285
996.00,0.4270
995.00,0.4248
994.00,0.4220
993.00,0.4188
992.00,0.4154
991.00,0.4118
990.00,0.4084
989.00,0.4053
988.00,0.4029
987.00,0.4013
986.00,0.4006
985.00,0.4007
984.00,0.4015
983.00,0.4029
982.00,0.4049
981.00,0.4071
980.00,0.4094
979.00,0.4117
978.00,0.4139
977.00,0.4158
976.00,0.4172
975.00,0.4182
974.00,0.4189
973.00,0.4191
972.00,0.4190
971.00,0.4188
970.00,0.4186
969.00,0.4183
968.00,0.4180
967.00,0.4177
966.00,0.4173
965.00,0.4167
964.00,0.4157
963.00,0.4145
962.00,0.4132
961.00,0.4118
960.00,0.4106
959.00,0.4099
958.00,0.4097
957.00,0.4097
956.00,0.4096
955.00,0.4092
954.00,0.4085
953.00,0.4076
952.00,0.4067
951.00,0.4059
950.00,0.4054
949.00,0.4052
948.00,0.4054
947.00,0.4059
946.00,0.4066
945.00,0.4076
944.00,0.4089
943.00,0.4106
942.00,0.4124
941.00,0.4141
940.00,0.4156
939.00,0.4167
938.00,0.4173
937.00,0.4171
936.00,0.4161
935.00,0.4147
934.00,0.4128
933.00,0.4105
932.00,0.4080
931.00,0.4057
930.00,0.4037
929.00,0.4024
928.00,0.4018
927.00,0.4023
926.00,0.4040
925.00,0.4073
924.00,0.4122
923.00,0.4181
922.00,0.4238
921.00,0.4274
920.00,0.4273
919.00,0.4233
918.00,0.4162
917.00,0.4073
916.00,0.3982
915.00,0.3899
914.00,0.3830
913.00,0.3775
912.00,0.3732
911.00,0.3698
910.00,0.3672
909.00,0.3650
908.00,0.3634
907.00,0.3622
906.00,0.3615
905.00,0.3612
904.00,0.3614
903.00,0.3620
902.00,0.3631
901.00,0.3647
900.00,0.3668
899.00,0.3696
898.00,0.3730
897.00,0.3767
896.00,0.3805
895.00,0.3846
894.00,0.3888
893.00,0.3930
892.00,0.3969
891.00,0.4005
890.00,0.4035
889.00,0.4051
888.00,0.4053
887.00,0.4042
886.00,0.4021
885.00,0.3998
884.00,0.3977
883.00,0.3965
882.00,0.3962
881.00,0.3968
880.00,0.3979
879.00,0.3990
878.00,0.4000
877.00,0.4004
876.00,0.4004
875.00,0.4004
874.00,0.4006
873.00,0.4011
872.00,0.4018
871.00,0.4029
870.00,0.4045
869.00,0.4064
868.00,0.4088
867.00,0.4118
866.00,0.4157
865.00,0.4202
864.00,0.4250
863.00,0.4289
862.00,0.4308
861.00,0.4293
860.00,0.4245
859.00,0.4174
858.00,0.4096
857.00,0.4026
856.00,0.3969
855.00,0.3928
854.00,0.3898
853.00,0.3875
852.00,0.3856
851.00,0.3840
850.00,0.3825
849.00,0.3806
848.00,0.3782
847.00,0.3755
846.00,0.3729
845.00,0.3706
844.00,0.3686
843.00,0.3672
842.00,0.3667
841.00,0.3677
840.00,0.3711
839.00,0.3769
838.00,0.3845
837.00,0.3922
836.00,0.3977
835.00,0.3992
834.00,0.3966
833.00,0.3912
832.00,0.3853
831.00,0.3810
830.00,0.3793
829.00,0.3802
828.00,0.3830
827.00,0.3873
826.00,0.3923
825.00,0.3979
824.00,0.4037
823.00,0.4102
822.00,0.4171
821.00,0.4242
820.00,0.4310
819.00,0.4371
818.00,0.4425
817.00,0.4467
816.00,0.4493
815.00,0.4498
814.00,0.4481
813.00,0.4444
812.00,0.4393
811.00,0.4336
810.00,0.4277
809.00,0.4220
808.00,0.4166
807.00,0.4117
806.00,0.4073
805.00,0.4030
804.00,0.3983
803.00,0.3931
802.00,0.3875
801.00,0.3818
800.00,0.3766
799.00,0.3726
798.00,0.3699
797.00,0.3680
796.00,0.3667
795.00,0.3659
794.00,0.3656
793.00,0.3660
792.00,0.3670
791.00,0.3688
790.00,0.3711
789.00,0.3737
788.00,0.3763
787.00,0.3790
786.00,0.3824
785.00,0.3865
784.00,0.3911
783.00,0.3956
782.00,0.3993
781.00,0.4020
780.00,0.4039
779.00,0.4055
778.00,0.4071
777.00,0.4088
776.00,0.4104
775.00,0.4120
774.00,0.4137
773.00,0.4157
772.00,0.4182
771.00,0.4210
770.00,0.4241
769.00,0.4273
768.00,0.4304
767.00,0.4334
766.00,0.4359
765.00,0.4380
764.00,0.4398
763.00,0.4420
762.00,0.4451
761.00,0.4489
760.00,0.4532
759.00,0.4575
758.00,0.4614
757.00,0.4644
756.00,0.4665
755.00,0.4683
754.00,0.4707
753.00,0.4739
752.00,0.4783
751.00,0.4833
750.00,0.4887
749.00,0.4938
748.00,0.4983
747.00,0.5024
746.00,0.5062
745.00,0.5101
744.00,0.5145
743.00,0.5194
742.00,0.5249
741.00,0.5305
740.00,0.5358
739.00,0.5406
738.00,0.5450
737.00,0.5492
736.00,0.5535
735.00,0.5582
734.00,0.5634
733.00,0.5694
732.00,0.5767
731.00,0.5862
730.00,0.5986
729.00,0.6142
728.00,0.6332
727.00,0.6563
726.00,0.6839
725.00,0.7151
724.00,0.7469
723.00,0.7733
722.00,0.7858
721.00,0.7769
720.00,0.7460
719.00,0.7015
718.00,0.6540
717.00,0.6105
716.00,0.5735
715.00,0.5436
714.00,0.5199
713.00,0.5013
712.00,0.4862
711.00,0.4740
710.00,0.4640
709.00,0.4556
708.00,0.4485
707.00,0.4425
706.00,0.4375
705.00,0.4331
704.00,0.4292
703.00,0.4262
702.00,0.4247
701.00,0.4239
700.00,0.4220
699.00,0.4167
698.00,0.4065
697.00,0.3920
696.00,0.3759
695.00,0.3612
694.00,0.3492
693.00,0.3400
692.00,0.3331
691.00,0.3278
690.00,0.3239
689.00,0.3209
688.00,0.3186
687.00,0.3169
686.00,0.3156
685.00,0.3144
684.00,0.3132
683.00,0.3122
682.00,0.3116
681.00,0.3111
680.00,0.3107
679.00,0.3104
678.00,0.3103
677.00,0.3104
676.00,0.3105
675.00,0.3106
674.00,0.3106
673.00,0.3103
672.00,0.3100
671.00,0.3101
670.00,0.3111
669.00,0.3126
668.00,0.3136
667.00,0.3137
666.00,0.3135
665.00,0.3136
664.00,0.3142
663.00,0.3152
662.00,0.3164
661.00,0.3175
660.00,0.3185
659.00,0.3193
658.00,0.3202
657.00,0.3209
656.00,0.3214
655.00,0.3220
654.00,0.3228
653.00,0.3238
652.00,0.3248
651.00,0.3259
650.00,0.3270
649.00,0.3280
648.00,0.3288
647.00,0.3297
646.00,0.3307
645.00,0.3319
644.00,0.3330
643.00,0.3342
642.00,0.3354
641.00,0.3365
640.00,0.3374
639.00,0.3383
638.00,0.3394
637.00,0.3406
636.00,0.3417
635.00,0.3425
634.00,0.3429
633.00,0.3429
632.00,0.3430
631.00,0.3436
630.00,0.3448
629.00,0.3465
628.00,0.3483
627.00,0.3503
626.00,0.3525
625.00,0.3548
624.00,0.3572
623.00,0.3594
622.00,0.3613
621.00,0.3628
620.00,0.3639
619.00,0.3649
618.00,0.3660
617.00,0.3668
616.00,0.3673
615.00,0.3672
614.00,0.3666
613.00,0.3656
612.00,0.3643
611.00,0.3628
610.00,0.3612
609.00,0.3595
608.00,0.3578
607.00,0.3563
606.00,0.3551
605.00,0.3542
604.00,0.3532
603.00,0.3523
602.00,0.3515
601.00,0.3511
600.00,0.3510
599.00,0.3516
598.00,0.3528
597.00,0.3543
596.00,0.3556
595.00,0.3570
594.00,0.3585
593.00,0.3602
592.00,0.3621
591.00,0.3642
590.00,0.3667
589.00,0.3693
588.00,0.3718
587.00,0.3742
586.00,0.3764
585.00,0.3786
584.00,0.3809
583.00,0.3834
582.00,0.3861
581.00,0.3887
580.00,0.3913
579.00,0.3940
578.00,0.3968
577.00,0.3994
576.00,0.4016
575.00,0.4037
574.00,0.4057
573.00,0.4076
572.00,0.4097
571.00,0.4119
570.00,0.4144
569.00,0.4168
568.00,0.4189
567.00,0.4206
566.00,0.4222
565.00,0.4239
564.00,0.4256
563.00,0.4271
562.00,0.4283
561.00,0.4292
560.00,0.4300
559.00,0.4309
558.00,0.4321
557.00,0.4334
556.00,0.4349
555.00,0.4366
554.00,0.4385
553.00,0.4401
552.00,0.4415
551.00,0.4429
550.00,0.4445
