Created as New Dataset,
cm-1,A
4000.00,0.4013
3999.00,0.4011
3998.00,0.4009
3997.00,0.4006
3996.00,0.4002
3995.00,0.3998
3994.00,0.3995
3993.00,0.3991
3992.00,0.3988
3991.00,0.3985
3990.00,0.3982
3989.00,0.3978
3988.00,0.3974
3987.00,0.3970
3986.00,0.3966
3985.00,0.3963
3984.00,0.3958
3983.00,0.3954
3982.00,0.3951
3981.00,0.3948
3980.00,0.3945
3979.00,0.3942
3978.00,0.3939
3977.00,0.3935
3976.00,0.3932
3975.00,0.3928
3974.00,0.3926
3973.00,0.3924
3972.00,0.3922
3971.00,0.3921
3970.00,0.3920
3969.00,0.3918
3968.00,0.3916
3967.00,0.3913
3966.00,0.3911
3965.00,0.3909
3964.00,0.3907
3963.00,0.3905
3962.00,0.3904
3961.00,0.3902
3960.00,0.3899
3959.00,0.3898
3958.00,0.3896
3957.00,0.3894
3956.00,0.3893
3955.00,0.3891
3954.00,0.3890
3953.00,0.3889
3952.00,0.3887
3951.00,0.3886
3950.00,0.3885
3949.00,0.3884
3948.00,0.3882
3947.00,0.3880
3946.00,0.3878
3945.00,0.3876
3944.00,0.3873
3943.00,0.3871
3942.00,0.3869
3941.00,0.3868
3940.00,0.3866
3939.00,0.3865
3938.00,0.3864
3937.00,0.3864
3936.00,0.3864
3935.00,0.3865
3934.00,0.3865
3933.00,0.3865
3932.00,0.3865
3931.00,0.3865
3930.00,0.3865
3929.00,0.3865
3928.00,0.3865
3927.00,0.3865
3926.00,0.3865
3925.00,0.3865
3924.00,0.3865
3923.00,0.3866
3922.00,0.3865
3921.00,0.3864
3920.00,0.3863
3919.00,0.3863
3918.00,0.3862
3917.00,0.3862
3916.00,0.3862
3915.00,0.3862
3914.00,0.3861
3913.00,0.3859
3912.00,0.3858
3911.00,0.3857
3910.00,0.3857
3909.00,0.3857
3908.00,0.3856
3907.00,0.3855
3906.00,0.3853
3905.00,0.3852
3904.00,0.3851
3903.00,0.3851
3902.00,0.3851
3901.00,0.3851
3900.00,0.3851
3899.00,0.3851
3898.00,0.3851
3897.00,0.3850
3896.00,0.3849
3895.00,0.3847
3894.00,0.3846
3893.00,0.3846
3892.00,0.3846
3891.00,0.3846
3890.00,0.3846
3889.00,0.3846
3888.00,0.3845
3887.00,0.3844
3886.00,0.3844
3885.00,0.3845
3884.00,0.3846
3883.00,0.3844
3882.00,0.3841
3881.00,0.3839
3880.00,0.3839
3879.00,0.3840
3878.00,0.3840
3877.00,0.3838
3876.00,0.3835
3875.00,0.3833
3874.00,0.3833
3873.00,0.3833
3872.00,0.3831
3871.00,0.3827
3870.00,0.3825
3869.00,0.3826
3868.00,0.3827
3867.00,0.3825
3866.00,0.3821
3865.00,0.3818
3864.00,0.3818
3863.00,0.3817
3862.00,0.3815
3861.00,0.3813
3860.00,0.3812
3859.00,0.3812
3858.00,0.3814
3857.00,0.3815
3856.00,0.3816
3855.00,0.3815
3854.00,0.3813
3853.00,0.3812
3852.00,0.3813
3851.00,0.3812
3850.00,0.3810
3849.00,0.3809
3848.00,0.3810
3847.00,0.3811
3846.00,0.3810
3845.00,0.3809
3844.00,0.3807
3843.00,0.3805
3842.00,0.3805
3841.00,0.3804
3840.00,0.3803
3839.00,0.3802
3838.00,0.3801
3837.00,0.3800
3836.00,0.3800
3835.00,0.3800
3834.00,0.3799
3833.00,0.3798
3832.00,0.3796
3831.00,0.3795
3830.00,0.3793
3829.00,0.3791
3828.00,0.3788
3827.00,0.3786
3826.00,0.3786
3825.00,0.3787
3824.00,0.3787
3823.00,0.3785
3822.00,0.3782
3821.00,0.3782
3820.00,0.3784
3819.00,0.3785
3818.00,0.3783
3817.00,0.3780
3816.00,0.3778
3815.00,0.3779
3814.00,0.3779
3813.00,0.3776
3812.00,0.3773
3811.00,0.3771
3810.00,0.3770
3809.00,0.3769
3808.00,0.3766
3807.00,0.3763
3806.00,0.3762
3805.00,0.3761
3804.00,0.3759
3803.00,0.3755
3802.00,0.3752
3801.00,0.3752
3800.00,0.3752
3799.00,0.3750
3798.00,0.3745
3797.00,0.3741
3796.00,0.3739
3795.00,0.3738
3794.00,0.3737
3793.00,0.3734
3792.00,0.3731
3791.00,0.3730
3790.00,0.3729
3789.00,0.3728
3788.00,0.3727
3787.00,0.3725
3786.00,0.3723
3785.00,0.3721
3784.00,0.3720
3783.00,0.3720
3782.00,0.3719
3781.00,0.3718
3780.00,0.3716
3779.00,0.3716
3778.00,0.3715
3777.00,0.3715
3776.00,0.3713
3775.00,0.3711
3774.00,0.3710
3773.00,0.3710
3772.00,0.3709
3771.00,0.3707
3770.00,0.3706
3769.00,0.3705
3768.00,0.3704
3767.00,0.3701
3766.00,0.3698
3765.00,0.3697
3764.00,0.3696
3763.00,0.3694
3762.00,0.3692
3761.00,0.3689
3760.00,0.3688
3759.00,0.3686
3758.00,0.3684
3757.00,0.3681
3756.00,0.3679
3755.00,0.3677
3754.00,0.3675
3753.00,0.3674
3752.00,0.3673
3751.00,0.3672
3750.00,0.3671
3749.00,0.3671
3748.00,0.3672
3747.00,0.3671
3746.00,0.3669
3745.00,0.3668
3744.00,0.3668
3743.00,0.3669
3742.00,0.3667
3741.00,0.3663
3740.00,0.3661
3739.00,0.3661
3738.00,0.3661
3737.00,0.3660
3736.00,0.3659
3735.00,0.3659
3734.00,0.3658
3733.00,0.3657
3732.00,0.3656
3731.00,0.3655
3730.00,0.3655
3729.00,0.3653
3728.00,0.3650
3727.00,0.3647
3726.00,0.3644
3725.00,0.3642
3724.00,0.3639
3723.00,0.3636
3722.00,0.3634
3721.00,0.3633
3720.00,0.3632
3719.00,0.3630
3718.00,0.3627
3717.00,0.3626
3716.00,0.3625
3715.00,0.3624
3714.00,0.3622
3713.00,0.3621
3712.00,0.3621
3711.00,0.3620
3710.00,0.3620
3709.00,0.3620
3708.00,0.3620
3707.00,0.3621
3706.00,0.3622
3705.00,0.3623
3704.00,0.3623
3703.00,0.3622
3702.00,0.3621
3701.00,0.3621
3700.00,0.3621
3699.00,0.3620
3698.00,0.3620
3697.00,0.3620
3696.00,0.3621
3695.00,0.3622
3694.00,0.3622
3693.00,0.3622
3692.00,0.3621
3691.00,0.3620
3690.00,0.3619
3689.00,0.3618
3688.00,0.3618
3687.00,0.3619
3686.00,0.3618
3685.00,0.3617
3684.00,0.3616
3683.00,0.3615
3682.00,0.3615
3681.00,0.3613
3680.00,0.3612
3679.00,0.3612
3678.00,0.3612
3677.00,0.3610
3676.00,0.3608
3675.00,0.3609
3674.00,0.3611
3673.00,0.3612
3672.00,0.3610
3671.00,0.3608
3670.00,0.3609
3669.00,0.3610
3668.00,0.3611
3667.00,0.3609
3666.00,0.3608
3665.00,0.3608
3664.00,0.3610
3663.00,0.3611
3662.00,0.3612
3661.00,0.3613
3660.00,0.3614
3659.00,0.3615
3658.00,0.3616
3657.00,0.3617
3656.00,0.3619
3655.00,0.3621
3654.00,0.3622
3653.00,0.3622
3652.00,0.3622
3651.00,0.3623
3650.00,0.3624
3649.00,0.3626
3648.00,0.3626
3647.00,0.3626
3646.00,0.3625
3645.00,0.3626
3644.00,0.3626
3643.00,0.3626
3642.00,0.3627
3641.00,0.3628
3640.00,0.3628
3639.00,0.3629
3638.00,0.3631
3637.00,0.3633
3636.00,0.3636
3635.00,0.3638
3634.00,0.3640
3633.00,0.3644
3632.00,0.3647
3631.00,0.3649
3630.00,0.3651
3629.00,0.3656
3628.00,0.3663
3627.00,0.3668
3626.00,0.3672
3625.00,0.3675
3624.00,0.3678
3623.00,0.3681
3622.00,0.3682
3621.00,0.3680
3620.00,0.3677
3619.00,0.3674
3618.00,0.3671
3617.00,0.3668
3616.00,0.3665
3615.00,0.3662
3614.00,0.3661
3613.00,0.3661
3612.00,0.3662
3611.00,0.3662
3610.00,0.3660
3609.00,0.3659
3608.00,0.3659
3607.00,0.3659
3606.00,0.3659
3605.00,0.3658
3604.00,0.3656
3603.00,0.3654
3602.00,0.3651
3601.00,0.3647
3600.00,0.3643
3599.00,0.3638
3598.00,0.3633
3597.00,0.3627
3596.00,0.3622
3595.00,0.3617
3594.00,0.3613
3593.00,0.3609
3592.00,0.3606
3591.00,0.3604
3590.00,0.3602
3589.00,0.3600
3588.00,0.3598
3587.00,0.3597
3586.00,0.3595
3585.00,0.3593
3584.00,0.3591
3583.00,0.3590
3582.00,0.3589
3581.00,0.3589
3580.00,0.3589
3579.00,0.3588
3578.00,0.3587
3577.00,0.3586
3576.00,0.3586
3575.00,0.3586
3574.00,0.3586
3573.00,0.3587
3572.00,0.3588
3571.00,0.3589
3570.00,0.3590
3569.00,0.3591
3568.00,0.3593
3567.00,0.3594
3566.00,0.3596
3565.00,0.3599
3564.00,0.3601
3563.00,0.3603
3562.00,0.3606
3561.00,0.3609
3560.00,0.3612
3559.00,0.3614
3558.00,0.3616
3557.00,0.3618
3556.00,0.3621
3555.00,0.3624
3554.00,0.3627
3553.00,0.3630
3552.00,0.3634
3551.00,0.3638
3550.00,0.3642
3549.00,0.3645
3548.00,0.3649
3547.00,0.3653
3546.00,0.3657
3545.00,0.3660
3544.00,0.3664
3543.00,0.3668
3542.00,0.3671
3541.00,0.3675
3540.00,0.3679
3539.00,0.3682
3538.00,0.3684
3537.00,0.3687
3536.00,0.3690
3535.00,0.3693
3534.00,0.3695
3533.00,0.3698
3532.00,0.3701
3531.00,0.3704
3530.00,0.3707
3529.00,0.3710
3528.00,0.3713
3527.00,0.3716
3526.00,0.3720
3525.00,0.3723
3524.00,0.3727
3523.00,0.3731
3522.00,0.3735
3521.00,0.3739
3520.00,0.3743
3519.00,0.3747
3518.00,0.3751
3517.00,0.3754
3516.00,0.3758
3515.00,0.3762
3514.00,0.3766
3513.00,0.3771
3512.00,0.3776
3511.00,0.3780
3510.00,0.3784
3509.00,0.3789
3508.00,0.3793
3507.00,0.3798
3506.00,0.3803
3505.00,0.3808
3504.00,0.3813
3503.00,0.3818
3502.00,0.3823
3501.00,0.3828
3500.00,0.3834
3499.00,0.3839
3498.00,0.3844
3497.00,0.3851
3496.00,0.3857
3495.00,0.3865
3494.00,0.3871
3493.00,0.3878
3492.00,0.3885
3491.00,0.3892
3490.00,0.3899
3489.00,0.3907
3488.00,0.3915
3487.00,0.3922
3486.00,0.3929
3485.00,0.3935
3484.00,0.3941
3483.00,0.3947
3482.00,0.3951
3481.00,0.3956
3480.00,0.3961
3479.00,0.3966
3478.00,0.3971
3477.00,0.3975
3476.00,0.3979
3475.00,0.3984
3474.00,0.3988
3473.00,0.3994
3472.00,0.3999
3471.00,0.4004
3470.00,0.4009
3469.00,0.4014
3468.00,0.4019
3467.00,0.4025
3466.00,0.4031
3465.00,0.4037
3464.00,0.4043
3463.00,0.4050
3462.00,0.4057
3461.00,0.4064
3460.00,0.4071
3459.00,0.4078
3458.00,0.4085
3457.00,0.4091
3456.00,0.4098
3455.00,0.4105
3454.00,0.4111
3453.00,0.4118
3452.00,0.4125
3451.00,0.4133
3450.00,0.4140
3449.00,0.4147
3448.00,0.4154
3447.00,0.4162
3446.00,0.4169
3445.00,0.4176
3444.00,0.4183
3443.00,0.4189
3442.00,0.4196
3441.00,0.4203
3440.00,0.4211
3439.00,0.4219
3438.00,0.4226
3437.00,0.4233
3436.00,0.4241
3435.00,0.4248
3434.00,0.4256
3433.00,0.4263
3432.00,0.4271
3431.00,0.4278
3430.00,0.4285
3429.00,0.4293
3428.00,0.4302
3427.00,0.4311
3426.00,0.4320
3425.00,0.4330
3424.00,0.4339
3423.00,0.4348
3422.00,0.4357
3421.00,0.4367
3420.00,0.4377
3419.00,0.4386
3418.00,0.4396
3417.00,0.4405
3416.00,0.4414
3415.00,0.4423
3414.00,0.4433
3413.00,0.4443
3412.00,0.4453
3411.00,0.4463
3410.00,0.4473
3409.00,0.4483
3408.00,0.4492
3407.00,0.4502
3406.00,0.4511
3405.00,0.4521
3404.00,0.4531
3403.00,0.4542
3402.00,0.4553
3401.00,0.4564
3400.00,0.4575
3399.00,0.4585
3398.00,0.4596
3397.00,0.4607
3396.00,0.4617
3395.00,0.4627
3394.00,0.4638
3393.00,0.4649
3392.00,0.4662
3391.00,0.4675
3390.00,0.4687
3389.00,0.4700
3388.00,0.4712
3387.00,0.4724
3386.00,0.4736
3385.00,0.4748
3384.00,0.4761
3383.00,0.4773
3382.00,0.4786
3381.00,0.4799
3380.00,0.4811
3379.00,0.4824
3378.00,0.4836
3377.00,0.4848
3376.00,0.4861
3375.00,0.4874
3374.00,0.4887
3373.00,0.4901
3372.00,0.4916
3371.00,0.4930
3370.00,0.4944
3369.00,0.4958
3368.00,0.4973
3367.00,0.4988
3366.00,0.5004
3365.00,0.5021
3364.00,0.5037
3363.00,0.5053
3362.00,0.5070
3361.00,0.5087
3360.00,0.5104
3359.00,0.5121
3358.00,0.5138
3357.00,0.5155
3356.00,0.5173
3355.00,0.5191
3354.00,0.5209
3353.00,0.5228
3352.00,0.5247
3351.00,0.5266
3350.00,0.5284
3349.00,0.5301
3348.00,0.5317
3347.00,0.5334
3346.00,0.5350
3345.00,0.5367
3344.00,0.5383
3343.00,0.5398
3342.00,0.5412
3341.00,0.5425
3340.00,0.5439
3339.00,0.5452
3338.00,0.5465
3337.00,0.5477
3336.00,0.5488
3335.00,0.5498
3334.00,0.5506
3333.00,0.5513
3332.00,0.5519
3331.00,0.5525
3330.00,0.5530
3329.00,0.5534
3328.00,0.5538
3327.00,0.5540
3326.00,0.5541
3325.00,0.5541
3324.00,0.5541
3323.00,0.5540
3322.00,0.5538
3321.00,0.5535
3320.00,0.5532
3319.00,0.5529
3318.00,0.5525
3317.00,0.5520
3316.00,0.5513
3315.00,0.5506
3314.00,0.5498
3313.00,0.5491
3312.00,0.5484
3311.00,0.5477
3310.00,0.5469
3309.00,0.5461
3308.00,0.5452
3307.00,0.5443
3306.00,0.5434
3305.00,0.5425
3304.00,0.5415
3303.00,0.5405
3302.00,0.5396
3301.00,0.5388
3300.00,0.5380
3299.00,0.5372
3298.00,0.5364
3297.00,0.5356
3296.00,0.5349
3295.00,0.5342
3294.00,0.5335
3293.00,0.5330
3292.00,0.5325
3291.00,0.5320
3290.00,0.5315
3289.00,0.5311
3288.00,0.5308
3287.00,0.5306
3286.00,0.5305
3285.00,0.5304
3284.00,0.5303
3283.00,0.5303
3282.00,0.5302
3281.00,0.5302
3280.00,0.5303
3279.00,0.5304
3278.00,0.5306
3277.00,0.5309
3276.00,0.5312
3275.00,0.5315
3274.00,0.5317
3273.00,0.5320
3272.00,0.5323
3271.00,0.5326
3270.00,0.5329
3269.00,0.5332
3268.00,0.5335
3267.00,0.5339
3266.00,0.5343
3265.00,0.5347
3264.00,0.5352
3263.00,0.5357
3262.00,0.5362
3261.00,0.5368
3260.00,0.5374
3259.00,0.5380
3258.00,0.5385
3257.00,0.5390
3256.00,0.5395
3255.00,0.5401
3254.00,0.5407
3253.00,0.5412
3252.00,0.5417
3251.00,0.5422
3250.00,0.5427
3249.00,0.5432
3248.00,0.5438
3247.00,0.5443
3246.00,0.5447
3245.00,0.5450
3244.00,0.5454
3243.00,0.5458
3242.00,0.5461
3241.00,0.5465
3240.00,0.5467
3239.00,0.5469
3238.00,0.5470
3237.00,0.5472
3236.00,0.5473
3235.00,0.5473
3234.00,0.5474
3233.00,0.5474
3232.00,0.5474
3231.00,0.5473
3230.00,0.5472
3229.00,0.5470
3228.00,0.5469
3227.00,0.5467
3226.00,0.5466
3225.00,0.5465
3224.00,0.5463
3223.00,0.5461
3222.00,0.5458
3221.00,0.5455
3220.00,0.5452
3219.00,0.5450
3218.00,0.5447
3217.00,0.5445
3216.00,0.5443
3215.00,0.5440
3214.00,0.5437
3213.00,0.5434
3212.00,0.5431
3211.00,0.5427
3210.00,0.5424
3209.00,0.5420
3208.00,0.5417
3207.00,0.5413
3206.00,0.5410
3205.00,0.5406
3204.00,0.5402
3203.00,0.5397
3202.00,0.5393
3201.00,0.5389
3200.00,0.5384
3199.00,0.5380
3198.00,0.5375
3197.00,0.5370
3196.00,0.5365
3195.00,0.5359
3194.00,0.5354
3193.00,0.5349
3192.00,0.5343
3191.00,0.5337
3190.00,0.5331
3189.00,0.5324
3188.00,0.5317
3187.00,0.5311
3186.00,0.5304
3185.00,0.5297
3184.00,0.5290
3183.00,0.5283
3182.00,0.5277
3181.00,0.5271
3180.00,0.5265
3179.00,0.5259
3178.00,0.5251
3177.00,0.5244
3176.00,0.5236
3175.00,0.5228
3174.00,0.5220
3173.00,0.5212
3172.00,0.5204
3171.00,0.5195
3170.00,0.5186
3169.00,0.5178
3168.00,0.5169
3167.00,0.5161
3166.00,0.5152
3165.00,0.5143
3164.00,0.5134
3163.00,0.5125
3162.00,0.5116
3161.00,0.5107
3160.00,0.5098
3159.00,0.5090
3158.00,0.5081
3157.00,0.5073
3156.00,0.5064
3155.00,0.5055
3154.00,0.5047
3153.00,0.5039
3152.00,0.5031
3151.00,0.5023
3150.00,0.5015
3149.00,0.5007
3148.00,0.5000
3147.00,0.4994
3146.00,0.4988
3145.00,0.4982
3144.00,0.4976
3143.00,0.4971
3142.00,0.4966
3141.00,0.4960
3140.00,0.4955
3139.00,0.4949
3138.00,0.4944
3137.00,0.4940
3136.00,0.4935
3135.00,0.4931
3134.00,0.4926
3133.00,0.4922
3132.00,0.4918
3131.00,0.4915
3130.00,0.4912
3129.00,0.4910
3128.00,0.4908
3127.00,0.4906
3126.00,0.4905
3125.00,0.4904
3124.00,0.4904
3123.00,0.4905
3122.00,0.4905
3121.00,0.4907
3120.00,0.4909
3119.00,0.4911
3118.00,0.4913
3117.00,0.4916
3116.00,0.4920
3115.00,0.4923
3114.00,0.4928
3113.00,0.4932
3112.00,0.4937
3111.00,0.4944
3110.00,0.4951
3109.00,0.4958
3108.00,0.4966
3107.00,0.4974
3106.00,0.4982
3105.00,0.4990
3104.00,0.4997
3103.00,0.5004
3102.00,0.5012
3101.00,0.5020
3100.00,0.5028
3099.00,0.5036
3098.00,0.5045
3097.00,0.5055
3096.00,0.5067
3095.00,0.5080
3094.00,0.5094
3093.00,0.5110
3092.00,0.5128
3091.00,0.5148
3090.00,0.5169
3089.00,0.5193
3088.00,0.5219
3087.00,0.5245
3086.00,0.5273
3085.00,0.5301
3084.00,0.5330
3083.00,0.5361
3082.00,0.5393
3081.00,0.5426
3080.00,0.5460
3079.00,0.5496
3078.00,0.5534
3077.00,0.5574
3076.00,0.5616
3075.00,0.5659
3074.00,0.5702
3073.00,0.5744
3072.00,0.5787
3071.00,0.5830
3070.00,0.5872
3069.00,0.5915
3068.00,0.5959
3067.00,0.6001
3066.00,0.6044
3065.00,0.6084
3064.00,0.6123
3063.00,0.6159
3062.00,0.6192
3061.00,0.6223
3060.00,0.6251
3059.00,0.6279
3058.00,0.6306
3057.00,0.6333
3056.00,0.6360
3055.00,0.6390
3054.00,0.6422
3053.00,0.6457
3052.00,0.6494
3051.00,0.6533
3050.00,0.6573
3049.00,0.6615
3048.00,0.6658
3047.00,0.6703
3046.00,0.6748
3045.00,0.6793
3044.00,0.6839
3043.00,0.6885
3042.00,0.6930
3041.00,0.6975
3040.00,0.7020
3039.00,0.7067
3038.00,0.7117
3037.00,0.7168
3036.00,0.7223
3035.00,0.7281
3034.00,0.7343
3033.00,0.7410
3032.00,0.7482
3031.00,0.7559
3030.00,0.7640
3029.00,0.7725
3028.00,0.7813
3027.00,0.7905
3026.00,0.8000
3025.00,0.8098
3024.00,0.8200
3023.00,0.8305
3022.00,0.8414
3021.00,0.8527
3020.00,0.8642
3019.00,0.8760
3018.00,0.8879
3017.00,0.8998
3016.00,0.9118
3015.00,0.9238
3014.00,0.9360
3013.00,0.9483
3012.00,0.9609
3011.00,0.9739
3010.00,0.9875
3009.00,1.0019
3008.00,1.0170
3007.00,1.0329
3006.00,1.0494
3005.00,1.0665
3004.00,1.0839
3003.00,1.1016
3002.00,1.1199
3001.00,1.1388
3000.00,1.1584
2999.00,1.1791
2998.00,1.2014
2997.00,1.2257
2996.00,1.2525
2995.00,1.2825
2994.00,1.3158
2993.00,1.3531
2992.00,1.3946
2991.00,1.4409
2990.00,1.4925
2989.00,1.5499
2988.00,1.6140
2987.00,1.6858
2986.00,1.7663
2985.00,1.8557
2984.00,1.9535
2983.00,2.0606
2982.00,2.1788
2981.00,2.3105
2980.00,2.4573
2979.00,2.6211
2978.00,2.8051
2977.00,3.0141
2976.00,3.2543
2975.00,3.5163
2974.00,3.7153
2973.00,3.7405
2972.00,3.6726
2971.00,3.6621
2970.00,3.7577
2969.00,3.9696
2968.00,4.1801
2967.00,4.0948
2966.00,3.9649
2965.00,3.9697
2964.00,4.2060
2963.00,4.5571
2962.00,4.3265
2961.00,4.0213
2960.00,3.8194
2959.00,3.7354
2958.00,3.7105
2957.00,3.7665
2956.00,3.8816
2955.00,3.8743
2954.00,3.7653
2953.00,3.7076
2952.00,3.7788
2951.00,3.9970
2950.00,4.2439
2949.00,4.1605
2948.00,3.9521
2947.00,3.8330
2946.00,3.8472
2945.00,3.9031
2944.00,3.9427
2943.00,3.9536
2942.00,4.0680
2941.00,4.3992
2940.00,4.3059
2939.00,4.0281
2938.00,3.8315
2937.00,3.7952
2936.00,3.7863
2935.00,3.7958
2934.00,3.8251
2933.00,3.7759
2932.00,3.7359
2931.00,3.7783
2930.00,3.9469
2929.00,4.1296
2928.00,4.0614
2927.00,3.9176
2926.00,3.8599
2925.00,3.9026
2924.00,3.9455
2923.00,3.9645
2922.00,4.1293
2921.00,4.5849
2920.00,4.7837
2919.00,4.2752
2918.00,3.9635
2917.00,3.9219
2916.00,4.0273
2915.00,4.2903
2914.00,4.6339
2913.00,4.4270
2912.00,4.2474
2911.00,4.1415
2910.00,4.0944
2909.00,4.0280
2908.00,3.9495
2907.00,3.9253
2906.00,3.9270
2905.00,3.9028
2904.00,3.7854
2903.00,3.6339
2902.00,3.5446
2901.00,3.5375
2900.00,3.5960
2899.00,3.7085
2898.00,3.8670
2897.00,4.0276
2896.00,4.0993
2895.00,4.0952
2894.00,4.1224
2893.00,4.1931
2892.00,4.2299
2891.00,4.1251
2890.00,3.9578
2889.00,3.8508
2888.00,3.8252
2887.00,3.8475
2886.00,3.8762
2885.00,3.9126
2884.00,3.9391
2883.00,3.9081
2882.00,3.8652
2881.00,3.8449
2880.00,3.8036
2879.00,3.7706
2878.00,3.8045
2877.00,3.9292
2876.00,4.1099
2875.00,4.2986
2874.00,4.4764
2873.00,4.4031
2872.00,4.1360
2871.00,3.9400
2870.00,3.9035
2869.00,4.1044
2868.00,4.3671
2867.00,4.1790
2866.00,4.1021
2865.00,4.2333
2864.00,4.2387
2863.00,4.0581
2862.00,3.9841
2861.00,4.0238
2860.00,4.0294
2859.00,4.0271
2858.00,4.0988
2857.00,4.2492
2856.00,4.2442
2855.00,4.0611
2854.00,3.9075
2853.00,3.8631
2852.00,3.8525
2851.00,3.8663
2850.00,3.9308
2849.00,3.9681
2848.00,3.9872
2847.00,4.0704
2846.00,4.2601
2845.00,4.4447
2844.00,4.2763
2843.00,4.0222
2842.00,3.8765
2841.00,3.8209
2840.00,3.7776
2839.00,3.6587
2838.00,3.4640
2837.00,3.2418
2836.00,3.0287
2835.00,2.8316
2834.00,2.6454
2833.00,2.4694
2832.00,2.3085
2831.00,2.1665
2830.00,2.0430
2829.00,1.9349
2828.00,1.8388
2827.00,1.7526
2826.00,1.6748
2825.00,1.6046
2824.00,1.5416
2823.00,1.4847
2822.00,1.4329
2821.00,1.3850
2820.00,1.3403
2819.00,1.2988
2818.00,1.2603
2817.00,1.2244
2816.00,1.1910
2815.00,1.1599
2814.00,1.1308
2813.00,1.1034
2812.00,1.0775
2811.00,1.0531
2810.00,1.0302
2809.00,1.0084
2808.00,0.9875
2807.00,0.9677
2806.00,0.9490
2805.00,0.9313
2804.00,0.9144
2803.00,0.8983
2802.00,0.8830
2801.00,0.8685
2800.00,0.8546
2799.00,0.8414
2798.00,0.8288
2797.00,0.8166
2796.00,0.8050
2795.00,0.7937
2794.00,0.7829
2793.00,0.7724
2792.00,0.7622
2791.00,0.7521
2790.00,0.7423
2789.00,0.7327
2788.00,0.7234
2787.00,0.7143
2786.00,0.7056
2785.00,0.6969
2784.00,0.6885
2783.00,0.6802
2782.00,0.6721
2781.00,0.6643
2780.00,0.6569
2779.00,0.6499
2778.00,0.6433
2777.00,0.6370
2776.00,0.6311
2775.00,0.6255
2774.00,0.6202
2773.00,0.6153
2772.00,0.6107
2771.00,0.6064
2770.00,0.6024
2769.00,0.5987
2768.00,0.5954
2767.00,0.5925
2766.00,0.5899
2765.00,0.5877
2764.00,0.5858
2763.00,0.5841
2762.00,0.5826
2761.00,0.5813
2760.00,0.5801
2759.00,0.5789
2758.00,0.5778
2757.00,0.5766
2756.00,0.5755
2755.00,0.5744
2754.00,0.5735
2753.00,0.5727
2752.00,0.5722
2751.00,0.5719
2750.00,0.5717
2749.00,0.5717
2748.00,0.5720
2747.00,0.5725
2746.00,0.5732
2745.00,0.5741
2744.00,0.5754
2743.00,0.5769
2742.00,0.5788
2741.00,0.5812
2740.00,0.5840
2739.00,0.5872
2738.00,0.5911
2737.00,0.5954
2736.00,0.6002
2735.00,0.6054
2734.00,0.6107
2733.00,0.6160
2732.00,0.6208
2731.00,0.6247
2730.00,0.6277
2729.00,0.6295
2728.00,0.6303
2727.00,0.6301
2726.00,0.6292
2725.00,0.6277
2724.00,0.6257
2723.00,0.6233
2722.00,0.6206
2721.00,0.6175
2720.00,0.6141
2719.00,0.6105
2718.00,0.6067
2717.00,0.6026
2716.00,0.5982
2715.00,0.5937
2714.00,0.5891
2713.00,0.5847
2712.00,0.5805
2711.00,0.5766
2710.00,0.5732
2709.00,0.5702
2708.00,0.5677
2707.00,0.5656
2706.00,0.5638
2705.00,0.5623
2704.00,0.5611
2703.00,0.5602
2702.00,0.5596
2701.00,0.5592
2700.00,0.5590
2699.00,0.5590
2698.00,0.5591
2697.00,0.5594
2696.00,0.5599
2695.00,0.5605
2694.00,0.5613
2693.00,0.5621
2692.00,0.5629
2691.00,0.5638
2690.00,0.5647
2689.00,0.5655
2688.00,0.5663
2687.00,0.5670
2686.00,0.5676
2685.00,0.5681
2684.00,0.5685
2683.00,0.5689
2682.00,0.5691
2681.00,0.5694
2680.00,0.5697
2679.00,0.5700
2678.00,0.5704
2677.00,0.5708
2676.00,0.5712
2675.00,0.5717
2674.00,0.5722
2673.00,0.5726
2672.00,0.5728
2671.00,0.5729
2670.00,0.5726
2669.00,0.5722
2668.00,0.5714
2667.00,0.5703
2666.00,0.5691
2665.00,0.5677
2664.00,0.5660
2663.00,0.5642
2662.00,0.5621
2661.00,0.5600
2660.00,0.5579
2659.00,0.5559
2658.00,0.5539
2657.00,0.5519
2656.00,0.5500
2655.00,0.5480
2654.00,0.5461
2653.00,0.5442
2652.00,0.5424
2651.00,0.5408
2650.00,0.5391
2649.00,0.5376
2648.00,0.5362
2647.00,0.5348
2646.00,0.5335
2645.00,0.5323
2644.00,0.5312
2643.00,0.5301
2642.00,0.5291
2641.00,0.5281
2640.00,0.5271
2639.00,0.5262
2638.00,0.5254
2637.00,0.5247
2636.00,0.5239
2635.00,0.5231
2634.00,0.5223
2633.00,0.5215
2632.00,0.5207
2631.00,0.5198
2630.00,0.5189
2629.00,0.5180
2628.00,0.5171
2627.00,0.5162
2626.00,0.5152
2625.00,0.5143
2624.00,0.5134
2623.00,0.5126
2622.00,0.5117
2621.00,0.5108
2620.00,0.5099
2619.00,0.5088
2618.00,0.5077
2617.00,0.5068
2616.00,0.5059
2615.00,0.5050
2614.00,0.5041
2613.00,0.5032
2612.00,0.5022
2611.00,0.5012
2610.00,0.5002
2609.00,0.4993
2608.00,0.4984
2607.00,0.4975
2606.00,0.4966
2605.00,0.4957
2604.00,0.4949
2603.00,0.4940
2602.00,0.4930
2601.00,0.4921
2600.00,0.4910
2599.00,0.4898
2598.00,0.4885
2597.00,0.4872
2596.00,0.4858
2595.00,0.4843
2594.00,0.4828
2593.00,0.4812
2592.00,0.4796
2591.00,0.4780
2590.00,0.4763
2589.00,0.4747
2588.00,0.4731
2587.00,0.4714
2586.00,0.4698
2585.00,0.4681
2584.00,0.4664
2583.00,0.4646
2582.00,0.4629
2581.00,0.4611
2580.00,0.4593
2579.00,0.4575
2578.00,0.4557
2577.00,0.4540
2576.00,0.4524
2575.00,0.4508
2574.00,0.4493
2573.00,0.4478
2572.00,0.4464
2571.00,0.4450
2570.00,0.4436
2569.00,0.4422
2568.00,0.4408
2567.00,0.4395
2566.00,0.4382
2565.00,0.4369
2564.00,0.4356
2563.00,0.4342
2562.00,0.4329
2561.00,0.4317
2560.00,0.4304
2559.00,0.4292
2558.00,0.4279
2557.00,0.4266
2556.00,0.4255
2555.00,0.4243
2554.00,0.4232
2553.00,0.4220
2552.00,0.4208
2551.00,0.4196
2550.00,0.4184
2549.00,0.4174
2548.00,0.4163
2547.00,0.4153
2546.00,0.4143
2545.00,0.4134
2544.00,0.4126
2543.00,0.4118
2542.00,0.4110
2541.00,0.4102
2540.00,0.4094
2539.00,0.4087
2538.00,0.4081
2537.00,0.4075
2536.00,0.4069
2535.00,0.4064
2534.00,0.4059
2533.00,0.4053
2532.00,0.4046
2531.00,0.4040
2530.00,0.4033
2529.00,0.4026
2528.00,0.4018
2527.00,0.4009
2526.00,0.4000
2525.00,0.3990
2524.00,0.3980
2523.00,0.3970
2522.00,0.3960
2521.00,0.3951
2520.00,0.3941
2519.00,0.3932
2518.00,0.3922
2517.00,0.3913
2516.00,0.3904
2515.00,0.3895
2514.00,0.3885
2513.00,0.3877
2512.00,0.3869
2511.00,0.3861
2510.00,0.3853
2509.00,0.3846
2508.00,0.3840
2507.00,0.3833
2506.00,0.3827
2505.00,0.3821
2504.00,0.3816
2503.00,0.3812
2502.00,0.3807
2501.00,0.3803
2500.00,0.3800
2499.00,0.3797
2498.00,0.3794
2497.00,0.3791
2496.00,0.3788
2495.00,0.3785
2494.00,0.3782
2493.00,0.3779
2492.00,0.3775
2491.00,0.3771
2490.00,0.3766
2489.00,0.3762
2488.00,0.3758
2487.00,0.3754
2486.00,0.3750
2485.00,0.3746
2484.00,0.3741
2483.00,0.3737
2482.00,0.3732
2481.00,0.3728
2480.00,0.3723
2479.00,0.3718
2478.00,0.3714
2477.00,0.3709
2476.00,0.3705
2475.00,0.3700
2474.00,0.3696
2473.00,0.3693
2472.00,0.3690
2471.00,0.3688
2470.00,0.3685
2469.00,0.3683
2468.00,0.3681
2467.00,0.3679
2466.00,0.3677
2465.00,0.3675
2464.00,0.3674
2463.00,0.3673
2462.00,0.3671
2461.00,0.3670
2460.00,0.3669
2459.00,0.3668
2458.00,0.3666
2457.00,0.3665
2456.00,0.3664
2455.00,0.3662
2454.00,0.3661
2453.00,0.3660
2452.00,0.3659
2451.00,0.3658
2450.00,0.3657
2449.00,0.3655
2448.00,0.3654
2447.00,0.3652
2446.00,0.3651
2445.00,0.3649
2444.00,0.3649
2443.00,0.3648
2442.00,0.3648
2441.00,0.3647
2440.00,0.3646
2439.00,0.3645
2438.00,0.3645
2437.00,0.3645
2436.00,0.3645
2435.00,0.3645
2434.00,0.3646
2433.00,0.3647
2432.00,0.3648
2431.00,0.3650
2430.00,0.3651
2429.00,0.3652
2428.00,0.3653
2427.00,0.3654
2426.00,0.3655
2425.00,0.3656
2424.00,0.3658
2423.00,0.3660
2422.00,0.3662
2421.00,0.3663
2420.00,0.3663
2419.00,0.3664
2418.00,0.3665
2417.00,0.3665
2416.00,0.3666
2415.00,0.3666
2414.00,0.3666
2413.00,0.3666
2412.00,0.3665
2411.00,0.3665
2410.00,0.3665
2409.00,0.3664
2408.00,0.3663
2407.00,0.3661
2406.00,0.3659
2405.00,0.3658
2404.00,0.3657
2403.00,0.3655
2402.00,0.3653
2401.00,0.3651
2400.00,0.3649
2399.00,0.3647
2398.00,0.3646
2397.00,0.3644
2396.00,0.3643
2395.00,0.3642
2394.00,0.3641
2393.00,0.3641
2392.00,0.3641
2391.00,0.3640
2390.00,0.3640
2389.00,0.3639
2388.00,0.3639
2387.00,0.3639
2386.00,0.3639
2385.00,0.3639
2384.00,0.3638
2383.00,0.3638
2382.00,0.3638
2381.00,0.3638
2380.00,0.3638
2379.00,0.3638
2378.00,0.3638
2377.00,0.3638
2376.00,0.3638
2375.00,0.3636
2374.00,0.3635
2373.00,0.3634
2372.00,0.3633
2371.00,0.3633
2370.00,0.3632
2369.00,0.3632
2368.00,0.3631
2367.00,0.3630
2366.00,0.3629
2365.00,0.3628
2364.00,0.3628
2363.00,0.3628
2362.00,0.3627
2361.00,0.3627
2360.00,0.3627
2359.00,0.3626
2358.00,0.3626
2357.00,0.3625
2356.00,0.3625
2355.00,0.3624
2354.00,0.3623
2353.00,0.3621
2352.00,0.3621
2351.00,0.3620
2350.00,0.3619
2349.00,0.3618
2348.00,0.3616
2347.00,0.3614
2346.00,0.3614
2345.00,0.3615
2344.00,0.3615
2343.00,0.3616
2342.00,0.3615
2341.00,0.3615
2340.00,0.3615
2339.00,0.3614
2338.00,0.3614
2337.00,0.3613
2336.00,0.3611
2335.00,0.3608
2334.00,0.3606
2333.00,0.3604
2332.00,0.3601
2331.00,0.3599
2330.00,0.3596
2329.00,0.3593
2328.00,0.3590
2327.00,0.3587
2326.00,0.3584
2325.00,0.3581
2324.00,0.3578
2323.00,0.3576
2322.00,0.3575
2321.00,0.3573
2320.00,0.3570
2319.00,0.3567
2318.00,0.3564
2317.00,0.3562
2316.00,0.3560
2315.00,0.3558
2314.00,0.3555
2313.00,0.3553
2312.00,0.3551
2311.00,0.3547
2310.00,0.3544
2309.00,0.3540
2308.00,0.3537
2307.00,0.3534
2306.00,0.3531
2305.00,0.3528
2304.00,0.3525
2303.00,0.3523
2302.00,0.3520
2301.00,0.3517
2300.00,0.3515
2299.00,0.3512
2298.00,0.3510
2297.00,0.3507
2296.00,0.3504
2295.00,0.3502
2294.00,0.3499
2293.00,0.3497
2292.00,0.3494
2291.00,0.3491
2290.00,0.3487
2289.00,0.3484
2288.00,0.3482
2287.00,0.3479
2286.00,0.3476
2285.00,0.3474
2284.00,0.3471
2283.00,0.3467
2282.00,0.3464
2281.00,0.3461
2280.00,0.3458
2279.00,0.3454
2278.00,0.3451
2277.00,0.3448
2276.00,0.3445
2275.00,0.3442
2274.00,0.3439
2273.00,0.3436
2272.00,0.3435
2271.00,0.3433
2270.00,0.3432
2269.00,0.3430
2268.00,0.3428
2267.00,0.3426
2266.00,0.3424
2265.00,0.3423
2264.00,0.3422
2263.00,0.3420
2262.00,0.3418
2261.00,0.3416
2260.00,0.3414
2259.00,0.3412
2258.00,0.3410
2257.00,0.3408
2256.00,0.3405
2255.00,0.3402
2254.00,0.3399
2253.00,0.3397
2252.00,0.3394
2251.00,0.3391
2250.00,0.3389
2249.00,0.3386
2248.00,0.3384
2247.00,0.3381
2246.00,0.3378
2245.00,0.3376
2244.00,0.3374
2243.00,0.3371
2242.00,0.3369
2241.00,0.3367
2240.00,0.3365
2239.00,0.3363
2238.00,0.3361
2237.00,0.3359
2236.00,0.3358
2235.00,0.3356
2234.00,0.3355
2233.00,0.3354
2232.00,0.3353
2231.00,0.3352
2230.00,0.3351
2229.00,0.3351
2228.00,0.3350
2227.00,0.3350
2226.00,0.3349
2225.00,0.3349
2224.00,0.3349
2223.00,0.3349
2222.00,0.3349
2221.00,0.3349
2220.00,0.3348
2219.00,0.3348
2218.00,0.3347
2217.00,0.3346
2216.00,0.3345
2215.00,0.3344
2214.00,0.3343
2213.00,0.3343
2212.00,0.3342
2211.00,0.3341
2210.00,0.3340
2209.00,0.3338
2208.00,0.3337
2207.00,0.3337
2206.00,0.3336
2205.00,0.3335
2204.00,0.3334
2203.00,0.3333
2202.00,0.3331
2201.00,0.3331
2200.00,0.3330
2199.00,0.3330
2198.00,0.3330
2197.00,0.3330
2196.00,0.3330
2195.00,0.3330
2194.00,0.3330
2193.00,0.3331
2192.00,0.3332
2191.00,0.3333
2190.00,0.3333
2189.00,0.3334
2188.00,0.3335
2187.00,0.3335
2186.00,0.3335
2185.00,0.3335
2184.00,0.3336
2183.00,0.3337
2182.00,0.3337
2181.00,0.3336
2180.00,0.3336
2179.00,0.3335
2178.00,0.3334
2177.00,0.3333
2176.00,0.3332
2175.00,0.3330
2174.00,0.3327
2173.00,0.3325
2172.00,0.3323
2171.00,0.3320
2170.00,0.3318
2169.00,0.3316
2168.00,0.3313
2167.00,0.3311
2166.00,0.3309
2165.00,0.3307
2164.00,0.3306
2163.00,0.3304
2162.00,0.3302
2161.00,0.3300
2160.00,0.3300
2159.00,0.3299
2158.00,0.3298
2157.00,0.3297
2156.00,0.3296
2155.00,0.3294
2154.00,0.3293
2153.00,0.3293
2152.00,0.3292
2151.00,0.3291
2150.00,0.3289
2149.00,0.3287
2148.00,0.3285
2147.00,0.3283
2146.00,0.3281
2145.00,0.3278
2144.00,0.3274
2143.00,0.3270
2142.00,0.3265
2141.00,0.3261
2140.00,0.3257
2139.00,0.3253
2138.00,0.3250
2137.00,0.3246
2136.00,0.3243
2135.00,0.3240
2134.00,0.3237
2133.00,0.3234
2132.00,0.3231
2131.00,0.3228
2130.00,0.3225
2129.00,0.3223
2128.00,0.3221
2127.00,0.3218
2126.00,0.3216
2125.00,0.3214
2124.00,0.3212
2123.00,0.3211
2122.00,0.3210
2121.00,0.3209
2120.00,0.3209
2119.00,0.3208
2118.00,0.3208
2117.00,0.3208
2116.00,0.3208
2115.00,0.3207
2114.00,0.3207
2113.00,0.3207
2112.00,0.3207
2111.00,0.3207
2110.00,0.3206
2109.00,0.3206
2108.00,0.3205
2107.00,0.3205
2106.00,0.3204
2105.00,0.3203
2104.00,0.3203
2103.00,0.3202
2102.00,0.3201
2101.00,0.3201
2100.00,0.3200
2099.00,0.3199
2098.00,0.3198
2097.00,0.3197
2096.00,0.3196
2095.00,0.3195
2094.00,0.3193
2093.00,0.3192
2092.00,0.3191
2091.00,0.3190
2090.00,0.3189
2089.00,0.3188
2088.00,0.3188
2087.00,0.3188
2086.00,0.3187
2085.00,0.3187
2084.00,0.3187
2083.00,0.3187
2082.00,0.3187
2081.00,0.3188
2080.00,0.3188
2079.00,0.3189
2078.00,0.3189
2077.00,0.3190
2076.00,0.3191
2075.00,0.3191
2074.00,0.3192
2073.00,0.3193
2072.00,0.3195
2071.00,0.3196
2070.00,0.3197
2069.00,0.3198
2068.00,0.3199
2067.00,0.3200
2066.00,0.3200
2065.00,0.3201
2064.00,0.3202
2063.00,0.3203
2062.00,0.3204
2061.00,0.3205
2060.00,0.3206
2059.00,0.3206
2058.00,0.3207
2057.00,0.3207
2056.00,0.3208
2055.00,0.3209
2054.00,0.3209
2053.00,0.3210
2052.00,0.3211
2051.00,0.3212
2050.00,0.3213
2049.00,0.3215
2048.00,0.3216
2047.00,0.3217
2046.00,0.3218
2045.00,0.3220
2044.00,0.3222
2043.00,0.3223
2042.00,0.3225
2041.00,0.3226
2040.00,0.3229
2039.00,0.3231
2038.00,0.3232
2037.00,0.3234
2036.00,0.3235
2035.00,0.3236
2034.00,0.3236
2033.00,0.3237
2032.00,0.3238
2031.00,0.3237
2030.00,0.3237
2029.00,0.3237
2028.00,0.3237
2027.00,0.3237
2026.00,0.3236
2025.00,0.3234
2024.00,0.3232
2023.00,0.3230
2022.00,0.3227
2021.00,0.3223
2020.00,0.3219
2019.00,0.3214
2018.00,0.3209
2017.00,0.3203
2016.00,0.3198
2015.00,0.3192
2014.00,0.3186
2013.00,0.3180
2012.00,0.3174
2011.00,0.3169
2010.00,0.3164
2009.00,0.3161
2008.00,0.3157
2007.00,0.3154
2006.00,0.3151
2005.00,0.3148
2004.00,0.3146
2003.00,0.3145
2002.00,0.3143
2001.00,0.3142
2000.00,0.3141
1999.00,0.3140
1998.00,0.3139
1997.00,0.3138
1996.00,0.3137
1995.00,0.3136
1994.00,0.3135
1993.00,0.3133
1992.00,0.3133
1991.00,0.3133
1990.00,0.3133
1989.00,0.3133
1988.00,0.3133
1987.00,0.3133
1986.00,0.3132
1985.00,0.3132
1984.00,0.3131
1983.00,0.3130
1982.00,0.3129
1981.00,0.3128
1980.00,0.3128
1979.00,0.3127
1978.00,0.3126
1977.00,0.3126
1976.00,0.3126
1975.00,0.3126
1974.00,0.3126
1973.00,0.3125
1972.00,0.3125
1971.00,0.3124
1970.00,0.3124
1969.00,0.3123
1968.00,0.3124
1967.00,0.3124
1966.00,0.3125
1965.00,0.3126
1964.00,0.3126
1963.00,0.3127
1962.00,0.3127
1961.00,0.3128
1960.00,0.3130
1959.00,0.3131
1958.00,0.3132
1957.00,0.3133
1956.00,0.3135
1955.00,0.3137
1954.00,0.3139
1953.00,0.3141
1952.00,0.3143
1951.00,0.3144
1950.00,0.3145
1949.00,0.3146
1948.00,0.3147
1947.00,0.3148
1946.00,0.3150
1945.00,0.3152
1944.00,0.3154
1943.00,0.3158
1942.00,0.3164
1941.00,0.3171
1940.00,0.3177
1939.00,0.3181
1938.00,0.3184
1937.00,0.3184
1936.00,0.3184
1935.00,0.3182
1934.00,0.3180
1933.00,0.3178
1932.00,0.3177
1931.00,0.3176
1930.00,0.3176
1929.00,0.3176
1928.00,0.3176
1927.00,0.3176
1926.00,0.3176
1925.00,0.3177
1924.00,0.3178
1923.00,0.3181
1922.00,0.3185
1921.00,0.3190
1920.00,0.3194
1919.00,0.3198
1918.00,0.3201
1917.00,0.3206
1916.00,0.3210
1915.00,0.3213
1914.00,0.3214
1913.00,0.3215
1912.00,0.3216
1911.00,0.3216
1910.00,0.3217
1909.00,0.3218
1908.00,0.3220
1907.00,0.3221
1906.00,0.3222
1905.00,0.3223
1904.00,0.3224
1903.00,0.3224
1902.00,0.3224
1901.00,0.3225
1900.00,0.3225
1899.00,0.3226
1898.00,0.3226
1897.00,0.3227
1896.00,0.3229
1895.00,0.3230
1894.00,0.3232
1893.00,0.3233
1892.00,0.3233
1891.00,0.3232
1890.00,0.3232
1889.00,0.3233
1888.00,0.3235
1887.00,0.3236
1886.00,0.3236
1885.00,0.3237
1884.00,0.3237
1883.00,0.3237
1882.00,0.3237
1881.00,0.3238
1880.00,0.3238
1879.00,0.3237
1878.00,0.3236
1877.00,0.3235
1876.00,0.3234
1875.00,0.3233
1874.00,0.3231
1873.00,0.3229
1872.00,0.3227
1871.00,0.3224
1870.00,0.3221
1869.00,0.3220
1868.00,0.3220
1867.00,0.3220
1866.00,0.3220
1865.00,0.3219
1864.00,0.3218
1863.00,0.3215
1862.00,0.3212
1861.00,0.3210
1860.00,0.3207
1859.00,0.3205
1858.00,0.3202
1857.00,0.3199
1856.00,0.3197
1855.00,0.3194
1854.00,0.3191
1853.00,0.3189
1852.00,0.3188
1851.00,0.3186
1850.00,0.3184
1849.00,0.3182
1848.00,0.3180
1847.00,0.3177
1846.00,0.3175
1845.00,0.3173
1844.00,0.3173
1843.00,0.3174
1842.00,0.3174
1841.00,0.3174
1840.00,0.3173
1839.00,0.3172
1838.00,0.3171
1837.00,0.3170
1836.00,0.3171
1835.00,0.3171
1834.00,0.3171
1833.00,0.3171
1832.00,0.3170
1831.00,0.3169
1830.00,0.3169
1829.00,0.3170
1828.00,0.3171
1827.00,0.3171
1826.00,0.3169
1825.00,0.3168
1824.00,0.3170
1823.00,0.3172
1822.00,0.3172
1821.00,0.3172
1820.00,0.3172
1819.00,0.3171
1818.00,0.3170
1817.00,0.3170
1816.00,0.3171
1815.00,0.3172
1814.00,0.3172
1813.00,0.3172
1812.00,0.3172
1811.00,0.3173
1810.00,0.3175
1809.00,0.3178
1808.00,0.3180
1807.00,0.3183
1806.00,0.3186
1805.00,0.3189
1804.00,0.3192
1803.00,0.3194
1802.00,0.3198
1801.00,0.3205
1800.00,0.3214
1799.00,0.3223
1798.00,0.3230
1797.00,0.3235
1796.00,0.3241
1795.00,0.3245
1794.00,0.3247
1793.00,0.3250
1792.00,0.3254
1791.00,0.3260
1790.00,0.3266
1789.00,0.3272
1788.00,0.3276
1787.00,0.3279
1786.00,0.3281
1785.00,0.3284
1784.00,0.3288
1783.00,0.3292
1782.00,0.3295
1781.00,0.3298
1780.00,0.3302
1779.00,0.3307
1778.00,0.3312
1777.00,0.3316
1776.00,0.3321
1775.00,0.3326
1774.00,0.3330
1773.00,0.3337
1772.00,0.3345
1771.00,0.3353
1770.00,0.3358
1769.00,0.3364
1768.00,0.3372
1767.00,0.3382
1766.00,0.3393
1765.00,0.3405
1764.00,0.3416
1763.00,0.3428
1762.00,0.3443
1761.00,0.3463
1760.00,0.3483
1759.00,0.3504
1758.00,0.3525
1757.00,0.3552
1756.00,0.3583
1755.00,0.3614
1754.00,0.3644
1753.00,0.3674
1752.00,0.3708
1751.00,0.3745
1750.00,0.3782
1749.00,0.3819
1748.00,0.3852
1747.00,0.3881
1746.00,0.3905
1745.00,0.3925
1744.00,0.3942
1743.00,0.3956
1742.00,0.3966
1741.00,0.3972
1740.00,0.3975
1739.00,0.3972
1738.00,0.3966
1737.00,0.3958
1736.00,0.3946
1735.00,0.3930
1734.00,0.3914
1733.00,0.3903
1732.00,0.3896
1731.00,0.3888
1730.00,0.3881
1729.00,0.3880
1728.00,0.3883
1727.00,0.3889
1726.00,0.3898
1725.00,0.3911
1724.00,0.3931
1723.00,0.3956
1722.00,0.3984
1721.00,0.4017
1720.00,0.4056
1719.00,0.4107
1718.00,0.4178
1717.00,0.4267
1716.00,0.4364
1715.00,0.4466
1714.00,0.4576
1713.00,0.4689
1712.00,0.4800
1711.00,0.4904
1710.00,0.4997
1709.00,0.5068
1708.00,0.5110
1707.00,0.5120
1706.00,0.5098
1705.00,0.5048
1704.00,0.4981
1703.00,0.4907
1702.00,0.4820
1701.00,0.4703
1700.00,0.4570
1699.00,0.4461
1698.00,0.4382
1697.00,0.4311
1696.00,0.4235
1695.00,0.4162
1694.00,0.4105
1693.00,0.4063
1692.00,0.4026
1691.00,0.3992
1690.00,0.3961
1689.00,0.3936
1688.00,0.3918
1687.00,0.3903
1686.00,0.3889
1685.00,0.3873
1684.00,0.3855
1683.00,0.3842
1682.00,0.3831
1681.00,0.3823
1680.00,0.3816
1679.00,0.3809
1678.00,0.3804
1677.00,0.3799
1676.00,0.3794
1675.00,0.3791
1674.00,0.3790
1673.00,0.3791
1672.00,0.3790
1671.00,0.3788
1670.00,0.3786
1669.00,0.3787
1668.00,0.3789
1667.00,0.3790
1666.00,0.3790
1665.00,0.3789
1664.00,0.3789
1663.00,0.3790
1662.00,0.3792
1661.00,0.3796
1660.00,0.3800
1659.00,0.3804
1658.00,0.3807
1657.00,0.3812
1656.00,0.3817
1655.00,0.3823
1654.00,0.3832
1653.00,0.3849
1652.00,0.3868
1651.00,0.3877
1650.00,0.3880
1649.00,0.3884
1648.00,0.3894
1647.00,0.3910
1646.00,0.3929
1645.00,0.3950
1644.00,0.3968
1643.00,0.3985
1642.00,0.4002
1641.00,0.4023
1640.00,0.4046
1639.00,0.4068
1638.00,0.4092
1637.00,0.4120
1636.00,0.4155
1635.00,0.4189
1634.00,0.4216
1633.00,0.4237
1632.00,0.4255
1631.00,0.4270
1630.00,0.4286
1629.00,0.4306
1628.00,0.4328
1627.00,0.4351
1626.00,0.4376
1625.00,0.4405
1624.00,0.4442
1623.00,0.4486
1622.00,0.4534
1621.00,0.4587
1620.00,0.4645
1619.00,0.4710
1618.00,0.4791
1617.00,0.4897
1616.00,0.5016
1615.00,0.5126
1614.00,0.5222
1613.00,0.5317
1612.00,0.5416
1611.00,0.5519
1610.00,0.5621
1609.00,0.5724
1608.00,0.5824
1607.00,0.5914
1606.00,0.5992
1605.00,0.6065
1604.00,0.6137
1603.00,0.6204
1602.00,0.6268
1601.00,0.6337
1600.00,0.6416
1599.00,0.6501
1598.00,0.6596
1597.00,0.6716
1596.00,0.6870
1595.00,0.7062
1594.00,0.7299
1593.00,0.7603
1592.00,0.7993
1591.00,0.8484
1590.00,0.9098
1589.00,0.9881
1588.00,1.0884
1587.00,1.2143
1586.00,1.3689
1585.00,1.5584
1584.00,1.7917
1583.00,2.0574
1582.00,2.2840
1581.00,2.3753
1580.00,2.3204
1579.00,2.1453
1578.00,1.9022
1577.00,1.6594
1576.00,1.4556
1575.00,1.3035
1574.00,1.1975
1573.00,1.1231
1572.00,1.0675
1571.00,1.0233
1570.00,0.9908
1569.00,0.9745
1568.00,0.9763
1567.00,0.9947
1566.00,1.0302
1565.00,1.0859
1564.00,1.1601
1563.00,1.2414
1562.00,1.3151
1561.00,1.3685
1560.00,1.3715
1559.00,1.2886
1558.00,1.1678
1557.00,1.0675
1556.00,0.9863
1555.00,0.9105
1554.00,0.8409
1553.00,0.7845
1552.00,0.7418
1551.00,0.7077
1550.00,0.6788
1549.00,0.6554
1548.00,0.6377
1547.00,0.6237
1546.00,0.6115
1545.00,0.6009
1544.00,0.5924
1543.00,0.5855
1542.00,0.5794
1541.00,0.5736
1540.00,0.5679
1539.00,0.5623
1538.00,0.5573
1537.00,0.5533
1536.00,0.5500
1535.00,0.5465
1534.00,0.5431
1533.00,0.5408
1532.00,0.5401
1531.00,0.5403
1530.00,0.5410
1529.00,0.5420
1528.00,0.5430
1527.00,0.5434
1526.00,0.5431
1525.00,0.5427
1524.00,0.5425
1523.00,0.5424
1522.00,0.5427
1521.00,0.5444
1520.00,0.5471
1519.00,0.5501
1518.00,0.5533
1517.00,0.5569
1516.00,0.5606
1515.00,0.5632
1514.00,0.5644
1513.00,0.5650
1512.00,0.5656
1511.00,0.5664
1510.00,0.5680
1509.00,0.5712
1508.00,0.5771
1507.00,0.5866
1506.00,0.5986
1505.00,0.6107
1504.00,0.6207
1503.00,0.6290
1502.00,0.6364
1501.00,0.6438
1500.00,0.6510
1499.00,0.6578
1498.00,0.6649
1497.00,0.6740
1496.00,0.6851
1495.00,0.6964
1494.00,0.7072
1493.00,0.7185
1492.00,0.7310
1491.00,0.7450
1490.00,0.7610
1489.00,0.7794
1488.00,0.7996
1487.00,0.8210
1486.00,0.8447
1485.00,0.8720
1484.00,0.9033
1483.00,0.9394
1482.00,0.9822
1481.00,1.0331
1480.00,1.0905
1479.00,1.1531
1478.00,1.2245
1477.00,1.3100
1476.00,1.4106
1475.00,1.5255
1474.00,1.6629
1473.00,1.8425
1472.00,2.0758
1471.00,2.3487
1470.00,2.6434
1469.00,2.9698
1468.00,3.3235
1467.00,3.5983
1466.00,3.7115
1465.00,3.7314
1464.00,3.7275
1463.00,3.6945
1462.00,3.6920
1461.00,3.9173
1460.00,4.2787
1459.00,4.0472
1458.00,3.9570
1457.00,4.3597
1456.00,4.2386
1455.00,3.7316
1454.00,3.6480
1453.00,3.7799
1452.00,3.9701
1451.00,4.2588
1450.00,4.0970
1449.00,3.8766
1448.00,3.5641
1447.00,3.2235
1446.00,3.0137
1445.00,2.8703
1444.00,2.7192
1443.00,2.5620
1442.00,2.4282
1441.00,2.3159
1440.00,2.2072
1439.00,2.0945
1438.00,1.9781
1437.00,1.8575
1436.00,1.7392
1435.00,1.6338
1434.00,1.5414
1433.00,1.4542
1432.00,1.3678
1431.00,1.2846
1430.00,1.2098
1429.00,1.1461
1428.00,1.0942
1427.00,1.0529
1426.00,1.0194
1425.00,0.9910
1424.00,0.9672
1423.00,0.9489
1422.00,0.9353
1421.00,0.9239
1420.00,0.9129
1419.00,0.9026
1418.00,0.8939
1417.00,0.8869
1416.00,0.8814
1415.00,0.8773
1414.00,0.8744
1413.00,0.8723
1412.00,0.8710
1411.00,0.8703
1410.00,0.8694
1409.00,0.8668
1408.00,0.8616
1407.00,0.8535
1406.00,0.8420
1405.00,0.8277
1404.00,0.8124
1403.00,0.7983
1402.00,0.7857
1401.00,0.7742
1400.00,0.7637
1399.00,0.7553
1398.00,0.7495
1397.00,0.7463
1396.00,0.7461
1395.00,0.7495
1394.00,0.7572
1393.00,0.7694
1392.00,0.7873
1391.00,0.8133
1390.00,0.8497
1389.00,0.8996
1388.00,0.9671
1387.00,1.0532
1386.00,1.1527
1385.00,1.2581
1384.00,1.3675
1383.00,1.4840
1382.00,1.6110
1381.00,1.7523
1380.00,1.9110
1379.00,2.0779
1378.00,2.2126
1377.00,2.2594
1376.00,2.2013
1375.00,2.0677
1374.00,1.9039
1373.00,1.7487
1372.00,1.6197
1371.00,1.5187
1370.00,1.4439
1369.00,1.3938
1368.00,1.3637
1367.00,1.3420
1366.00,1.3136
1365.00,1.2679
1364.00,1.2050
1363.00,1.1344
1362.00,1.0683
1361.00,1.0142
1360.00,0.9733
1359.00,0.9433
1358.00,0.9214
1357.00,0.9060
1356.00,0.8956
1355.00,0.8893
1354.00,0.8857
1353.00,0.8837
1352.00,0.8824
1351.00,0.8809
1350.00,0.8788
1349.00,0.8760
1348.00,0.8730
1347.00,0.8700
1346.00,0.8674
1345.00,0.8652
1344.00,0.8634
1343.00,0.8614
1342.00,0.8586
1341.00,0.8540
1340.00,0.8471
1339.00,0.8378
1338.00,0.8263
1337.00,0.8130
1336.00,0.7985
1335.00,0.7836
1334.00,0.7691
1333.00,0.7557
1332.00,0.7438
1331.00,0.7338
1330.00,0.7257
1329.00,0.7194
1328.00,0.7147
1327.00,0.7117
1326.00,0.7101
1325.00,0.7096
1324.00,0.7099
1323.00,0.7106
1322.00,0.7114
1321.00,0.7121
1320.00,0.7125
1319.00,0.7130
1318.00,0.7141
1317.00,0.7157
1316.00,0.7180
1315.00,0.7210
1314.00,0.7245
1313.00,0.7283
1312.00,0.7324
1311.00,0.7365
1310.00,0.7403
1309.00,0.7437
1308.00,0.7465
1307.00,0.7486
1306.00,0.7498
1305.00,0.7496
1304.00,0.7479
1303.00,0.7448
1302.00,0.7407
1301.00,0.7358
1300.00,0.7303
1299.00,0.7245
1298.00,0.7184
1297.00,0.7124
1296.00,0.7066
1295.00,0.7014
1294.00,0.6969
1293.00,0.6928
1292.00,0.6889
1291.00,0.6852
1290.00,0.6815
1289.00,0.6780
1288.00,0.6747
1287.00,0.6714
1286.00,0.6680
1285.00,0.6640
1284.00,0.6596
1283.00,0.6554
1282.00,0.6518
1281.00,0.6488
1280.00,0.6464
1279.00,0.6444
1278.00,0.6423
1277.00,0.6401
1276.00,0.6377
1275.00,0.6354
1274.00,0.6333
1273.00,0.6317
1272.00,0.6306
1271.00,0.6301
1270.00,0.6298
1269.00,0.6293
1268.00,0.6281
1267.00,0.6255
1266.00,0.6217
1265.00,0.6173
1264.00,0.6131
1263.00,0.6097
1262.00,0.6071
1261.00,0.6050
1260.00,0.6032
1259.00,0.6015
1258.00,0.5997
1257.00,0.5978
1256.00,0.5956
1255.00,0.5936
1254.00,0.5918
1253.00,0.5903
1252.00,0.5891
1251.00,0.5880
1250.00,0.5868
1249.00,0.5854
1248.00,0.5837
1247.00,0.5820
1246.00,0.5800
1245.00,0.5778
1244.00,0.5750
1243.00,0.5719
1242.00,0.5685
1241.00,0.5650
1240.00,0.5618
1239.00,0.5590
1238.00,0.5567
1237.00,0.5548
1236.00,0.5531
1235.00,0.5519
1234.00,0.5512
1233.00,0.5509
1232.00,0.5511
1231.00,0.5518
1230.00,0.5525
1229.00,0.5527
1228.00,0.5519
1227.00,0.5500
1226.00,0.5471
1225.00,0.5434
1224.00,0.5397
1223.00,0.5363
1222.00,0.5337
1221.00,0.5317
1220.00,0.5303
1219.00,0.5297
1218.00,0.5296
1217.00,0.5300
1216.00,0.5309
1215.00,0.5322
1214.00,0.5335
1213.00,0.5342
1212.00,0.5341
1211.00,0.5333
1210.00,0.5320
1209.00,0.5303
1208.00,0.5285
1207.00,0.5268
1206.00,0.5251
1205.00,0.5234
1204.00,0.5218
1203.00,0.5205
1202.00,0.5195
1201.00,0.5188
1200.00,0.5185
1199.00,0.5184
1198.00,0.5184
1197.00,0.5181
1196.00,0.5176
1195.00,0.5168
1194.00,0.5160
1193.00,0.5152
1192.00,0.5146
1191.00,0.5141
1190.00,0.5137
1189.00,0.5131
1188.00,0.5124
1187.00,0.5118
1186.00,0.5112
1185.00,0.5107
1184.00,0.5102
1183.00,0.5100
1182.00,0.5101
1181.00,0.5104
1180.00,0.5110
1179.00,0.5118
1178.00,0.5129
1177.00,0.5143
1176.00,0.5164
1175.00,0.5195
1174.00,0.5234
1173.00,0.5281
1172.00,0.5328
1171.00,0.5372
1170.00,0.5405
1169.00,0.5422
1168.00,0.5422
1167.00,0.5411
1166.00,0.5397
1165.00,0.5383
1164.00,0.5375
1163.00,0.5372
1162.00,0.5377
1161.00,0.5388
1160.00,0.5403
1159.00,0.5420
1158.00,0.5435
1157.00,0.5446
1156.00,0.5451
1155.00,0.5449
1154.00,0.5440
1153.00,0.5425
1152.00,0.5404
1151.00,0.5381
1150.00,0.5356
1149.00,0.5330
1148.00,0.5306
1147.00,0.5286
1146.00,0.5271
1145.00,0.5261
1144.00,0.5256
1143.00,0.5258
1142.00,0.5271
1141.00,0.5296
1140.00,0.5335
1139.00,0.5388
1138.00,0.5452
1137.00,0.5528
1136.00,0.5614
1135.00,0.5703
1134.00,0.5782
1133.00,0.5830
1132.00,0.5831
1131.00,0.5783
1130.00,0.5702
1129.00,0.5610
1128.00,0.5526
1127.00,0.5462
1126.00,0.5419
1125.00,0.5392
1124.00,0.5372
1123.00,0.5356
1122.00,0.5340
1121.00,0.5323
1120.00,0.5311
1119.00,0.5308
1118.00,0.5321
1117.00,0.5348
1116.00,0.5385
1115.00,0.5422
1114.00,0.5443
1113.00,0.5432
1112.00,0.5387
1111.00,0.5320
1110.00,0.5248
1109.00,0.5183
1108.00,0.5133
1107.00,0.5098
1106.00,0.5076
1105.00,0.5064
1104.00,0.5058
1103.00,0.5056
1102.00,0.5053
1101.00,0.5048
1100.00,0.5040
1099.00,0.5031
1098.00,0.5021
1097.00,0.5011
1096.00,0.5003
1095.00,0.4997
1094.00,0.4996
1093.00,0.5001
1092.00,0.5010
1091.00,0.5023
1090.00,0.5040
1089.00,0.5060
1088.00,0.5085
1087.00,0.5118
1086.00,0.5160
1085.00,0.5211
1084.00,0.5268
1083.00,0.5335
1082.00,0.5411
1081.00,0.5493
1080.00,0.5575
1079.00,0.5648
1078.00,0.5704
1077.00,0.5732
1076.00,0.5729
1075.00,0.5697
1074.00,0.5643
1073.00,0.5576
1072.00,0.5509
1071.00,0.5448
1070.00,0.5399
1069.00,0.5362
1068.00,0.5334
1067.00,0.5313
1066.00,0.5298
1065.00,0.5286
1064.00,0.5279
1063.00,0.5277
1062.00,0.5280
1061.00,0.5286
1060.00,0.5293
1059.00,0.5298
1058.00,0.5299
1057.00,0.5295
1056.00,0.5287
1055.00,0.5277
1054.00,0.5268
1053.00,0.5262
1052.00,0.5260
1051.00,0.5267
1050.00,0.5282
1049.00,0.5301
1048.00,0.5321
1047.00,0.5339
1046.00,0.5353
1045.00,0.5361
1044.00,0.5363
1043.00,0.5360
1042.00,0.5356
1041.00,0.5351
1040.00,0.5345
1039.00,0.5339
1038.00,0.5333
1037.00,0.5327
1036.00,0.5323
1035.00,0.5324
1034.00,0.5332
1033.00,0.5348
1032.00,0.5368
1031.00,0.5391
1030.00,0.5410
1029.00,0.5422
1028.00,0.5420
1027.00,0.5404
1026.00,0.5370
1025.00,0.5322
1024.00,0.5265
1023.00,0.5205
1022.00,0.5148
1021.00,0.5096
1020.00,0.5049
1019.00,0.5007
1018.00,0.4972
1017.00,0.4941
1016.00,0.4915
1015.00,0.4892
1014.00,0.4873
1013.00,0.4856
1012.00,0.4841
1011.00,0.4830
1010.00,0.4824
1009.00,0.4823
1008.00,0.4827
1007.00,0.4836
1006.00,0.4848
1005.00,0.4862
1004.00,0.4879
1003.00,0.4898
1002.00,0.4919
1001.00,0.4938
1000.00,0.4953
999.00,0.4962
998.00,0.4965
997.00,0.4961
996.00,0.4947
995.00,0.4925
994.00,0.4897
993.00,0.4863
992.00,0.4828
991.00,0.4794
990.00,0.4763
989.00,0.4737
988.00,0.4715
987.00,0.4701
986.00,0.4696
985.00,0.4699
984.00,0.4707
983.00,0.4723
982.00,0.4743
981.00,0.4767
980.00,0.4790
979.00,0.4813
978.00,0.4835
977.00,0.4854
976.00,0.4869
975.00,0.4881
974.00,0.4889
973.00,0.4893
972.00,0.4892
971.00,0.4891
970.00,0.4890
969.00,0.4890
968.00,0.4889
967.00,0.4886
966.00,0.4881
965.00,0.4874
964.00,0.4865
963.00,0.4854
962.00,0.4840
961.00,0.4825
960.00,0.4812
959.00,0.4802
958.00,0.4797
957.00,0.4794
956.00,0.4791
955.00,0.4786
954.00,0.4779
953.00,0.4767
952.00,0.4754
951.00,0.4742
950.00,0.4733
949.00,0.4729
948.00,0.4730
947.00,0.4735
946.00,0.4745
945.00,0.4757
944.00,0.4771
943.00,0.4788
942.00,0.4805
941.00,0.4820
940.00,0.4832
939.00,0.4841
938.00,0.4845
937.00,0.4842
936.00,0.4833
935.00,0.4821
934.00,0.4803
933.00,0.4781
932.00,0.4755
931.00,0.4730
930.00,0.4709
929.00,0.4695
928.00,0.4688
927.00,0.4692
926.00,0.4708
925.00,0.4740
924.00,0.4787
923.00,0.4843
922.00,0.4897
921.00,0.4931
920.00,0.4932
919.00,0.4895
918.00,0.4825
917.00,0.4738
916.00,0.4647
915.00,0.4566
914.00,0.4499
913.00,0.4445
912.00,0.4403
911.00,0.4371
910.00,0.4346
909.00,0.4325
908.00,0.4309
907.00,0.4297
906.00,0.4289
905.00,0.4285
904.00,0.4286
903.00,0.4293
902.00,0.4308
901.00,0.4327
900.00,0.4350
899.00,0.4377
898.00,0.4408
897.00,0.4444
896.00,0.4482
895.00,0.4522
894.00,0.4564
893.00,0.4605
892.00,0.4645
891.00,0.4682
890.00,0.4712
889.00,0.4731
888.00,0.4736
887.00,0.4727
886.00,0.4709
885.00,0.4686
884.00,0.4666
883.00,0.4657
882.00,0.4662
881.00,0.4679
880.00,0.4701
879.00,0.4719
878.00,0.4727
877.00,0.4726
876.00,0.4719
875.00,0.4712
874.00,0.4708
873.00,0.4707
872.00,0.4708
871.00,0.4713
870.00,0.4723
869.00,0.4738
868.00,0.4758
867.00,0.4784
866.00,0.4821
865.00,0.4865
864.00,0.4911
863.00,0.4948
862.00,0.4962
861.00,0.4943
860.00,0.4892
859.00,0.4822
858.00,0.4748
857.00,0.4682
856.00,0.4631
855.00,0.4594
854.00,0.4568
853.00,0.4549
852.00,0.4534
851.00,0.4522
850.00,0.4509
849.00,0.4492
848.00,0.4471
847.00,0.4445
846.00,0.4418
845.00,0.4391
844.00,0.4367
843.00,0.4351
842.00,0.4347
841.00,0.4359
840.00,0.4391
839.00,0.4445
838.00,0.4515
837.00,0.4585
836.00,0.4634
835.00,0.4645
834.00,0.4618
833.00,0.4567
832.00,0.4514
831.00,0.4475
830.00,0.4461
829.00,0.4468
828.00,0.4494
827.00,0.4533
826.00,0.4583
825.00,0.4638
824.00,0.4698
823.00,0.4764
822.00,0.4835
821.00,0.4907
820.00,0.4976
819.00,0.5040
818.00,0.5096
817.00,0.5139
816.00,0.5166
815.00,0.5173
814.00,0.5158
813.00,0.5122
812.00,0.5070
811.00,0.5009
810.00,0.4947
809.00,0.4889
808.00,0.4836
807.00,0.4788
806.00,0.4744
805.00,0.4699
804.00,0.4649
803.00,0.4595
802.00,0.4537
801.00,0.4482
800.00,0.4432
799.00,0.4392
798.00,0.4363
797.00,0.4342
796.00,0.4327
795.00,0.4318
794.00,0.4313
793.00,0.4315
792.00,0.4323
791.00,0.4339
790.00,0.4362
789.00,0.4387
788.00,0.4413
787.00,0.4443
786.00,0.4478
785.00,0.4518
784.00,0.4562
783.00,0.4606
782.00,0.4644
781.00,0.4675
780.00,0.4699
779.00,0.4718
778.00,0.4737
777.00,0.4755
776.00,0.4773
775.00,0.4792
774.00,0.4814
773.00,0.4837
772.00,0.4862
771.00,0.4890
770.00,0.4922
769.00,0.4956
768.00,0.4991
767.00,0.5022
766.00,0.5048
765.00,0.5068
764.00,0.5085
763.00,0.5104
762.00,0.5129
761.00,0.5163
760.00,0.5204
759.00,0.5246
758.00,0.5283
757.00,0.5313
756.00,0.5335
755.00,0.5356
754.00,0.5382
753.00,0.5417
752.00,0.5460
751.00,0.5508
750.00,0.5558
749.00,0.5605
748.00,0.5647
747.00,0.5688
746.00,0.5730
745.00,0.5772
744.00,0.5816
743.00,0.5863
742.00,0.5918
741.00,0.5974
740.00,0.6025
739.00,0.6067
738.00,0.6103
737.00,0.6139
736.00,0.6182
735.00,0.6233
734.00,0.6292
733.00,0.6359
732.00,0.6437
731.00,0.6534
730.00,0.6658
729.00,0.6816
728.00,0.7009
727.00,0.7239
726.00,0.7506
725.00,0.7804
724.00,0.8108
723.00,0.8367
722.00,0.8495
721.00,0.8415
720.00,0.8112
719.00,0.7665
718.00,0.7183
717.00,0.6740
716.00,0.6369
715.00,0.6073
714.00,0.5839
713.00,0.5653
712.00,0.5501
711.00,0.5377
710.00,0.5276
709.00,0.5192
708.00,0.5122
707.00,0.5065
706.00,0.5018
705.00,0.4977
704.00,0.4938
703.00,0.4906
702.00,0.4887
701.00,0.4877
700.00,0.4859
699.00,0.4809
698.00,0.4711
697.00,0.4571
696.00,0.4412
695.00,0.4265
694.00,0.4145
693.00,0.4055
692.00,0.3989
691.00,0.3942
690.00,0.3908
689.00,0.3879
688.00,0.3853
687.00,0.3831
686.00,0.3813
685.00,0.3800
684.00,0.3791
683.00,0.3785
682.00,0.3783
681.00,0.3780
680.00,0.3777
679.00,0.3773
678.00,0.3771
677.00,0.3771
676.00,0.3773
675.00,0.3776
674.00,0.3780
673.00,0.3783
672.00,0.3783
671.00,0.3784
670.00,0.3786
669.00,0.3788
668.00,0.3787
667.00,0.3785
666.00,0.3788
665.00,0.3794
664.00,0.3801
663.00,0.3810
662.00,0.3820
661.00,0.3830
660.00,0.3840
659.00,0.3850
658.00,0.3860
657.00,0.3870
656.00,0.3882
655.00,0.3894
654.00,0.3904
653.00,0.3914
652.00,0.3925
651.00,0.3937
650.00,0.3950
649.00,0.3961
648.00,0.3970
647.00,0.3977
646.00,0.3986
645.00,0.3998
644.00,0.4014
643.00,0.4033
642.00,0.4050
641.00,0.4062
640.00,0.4071
639.00,0.4079
638.00,0.4088
637.00,0.4094
636.00,0.4095
635.00,0.4094
634.00,0.4095
633.00,0.4101
632.00,0.4110
631.00,0.4121
630.00,0.4132
629.00,0.4145
628.00,0.4163
627.00,0.4184
626.00,0.4206
625.00,0.4226
624.00,0.4245
623.00,0.4265
622.00,0.4284
621.00,0.4299
620.00,0.4310
619.00,0.4321
618.00,0.4333
617.00,0.4343
616.00,0.4351
615.00,0.4354
614.00,0.4355
613.00,0.4352
612.00,0.4344
611.00,0.4332
610.00,0.4317
609.00,0.4301
608.00,0.4287
607.00,0.4276
606.00,0.4267
605.00,0.4260
604.00,0.4254
603.00,0.4250
602.00,0.4251
601.00,0.4256
600.00,0.4261
599.00,0.4265
598.00,0.4268
597.00,0.4275
596.00,0.4286
595.00,0.4301
594.00,0.4315
593.00,0.4327
592.00,0.4338
591.00,0.4351
590.00,0.4368
589.00,0.4390
588.00,0.4413
587.00,0.4436
586.00,0.4458
585.00,0.4479
584.00,0.4502
583.00,0.4527
582.00,0.4553
581.00,0.4578
580.00,0.4605
579.00,0.4636
578.00,0.4664
577.00,0.4686
576.00,0.4704
575.00,0.4726
574.00,0.4754
573.00,0.4783
572.00,0.4809
571.00,0.4833
570.00,0.4855
569.00,0.4875
568.00,0.4893
567.00,0.4908
566.00,0.4923
565.00,0.4939
564.00,0.4954
563.00,0.4966
562.00,0.4972
561.00,0.4971
560.00,0.4968
559.00,0.4969
558.00,0.4979
557.00,0.4995
556.00,0.5012
555.00,0.5030
554.00,0.5046
553.00,0.5057
552.00,0.5062
551.00,0.5064
550.00,0.5071
