Created as New Dataset,
cm-1,A
4000.00,0.3601
3999.00,0.3598
3998.00,0.3594
3997.00,0.3591
3996.00,0.3588
3995.00,0.3585
3994.00,0.3582
3993.00,0.3579
3992.00,0.3576
3991.00,0.3573
3990.00,0.3571
3989.00,0.3569
3988.00,0.3567
3987.00,0.3564
3986.00,0.3561
3985.00,0.3558
3984.00,0.3554
3983.00,0.3550
3982.00,0.3547
3981.00,0.3544
3980.00,0.3542
3979.00,0.3539
3978.00,0.3536
3977.00,0.3533
3976.00,0.3530
3975.00,0.3528
3974.00,0.3525
3973.00,0.3522
3972.00,0.3520
3971.00,0.3517
3970.00,0.3514
3969.00,0.3510
3968.00,0.3507
3967.00,0.3504
3966.00,0.3502
3965.00,0.3500
3964.00,0.3498
3963.00,0.3495
3962.00,0.3493
3961.00,0.3491
3960.00,0.3489
3959.00,0.3488
3958.00,0.3486
3957.00,0.3485
3956.00,0.3483
3955.00,0.3482
3954.00,0.3480
3953.00,0.3479
3952.00,0.3478
3951.00,0.3477
3950.00,0.3476
3949.00,0.3475
3948.00,0.3474
3947.00,0.3473
3946.00,0.3473
3945.00,0.3473
3944.00,0.3472
3943.00,0.3471
3942.00,0.3469
3941.00,0.3467
3940.00,0.3467
3939.00,0.3467
3938.00,0.3467
3937.00,0.3467
3936.00,0.3467
3935.00,0.3465
3934.00,0.3464
3933.00,0.3462
3932.00,0.3461
3931.00,0.3461
3930.00,0.3461
3929.00,0.3461
3928.00,0.3460
3927.00,0.3460
3926.00,0.3459
3925.00,0.3459
3924.00,0.3458
3923.00,0.3457
3922.00,0.3457
3921.00,0.3456
3920.00,0.3455
3919.00,0.3453
3918.00,0.3453
3917.00,0.3453
3916.00,0.3454
3915.00,0.3454
3914.00,0.3455
3913.00,0.3454
3912.00,0.3454
3911.00,0.3452
3910.00,0.3451
3909.00,0.3451
3908.00,0.3452
3907.00,0.3453
3906.00,0.3454
3905.00,0.3455
3904.00,0.3455
3903.00,0.3455
3902.00,0.3456
3901.00,0.3457
3900.00,0.3457
3899.00,0.3456
3898.00,0.3454
3897.00,0.3452
3896.00,0.3450
3895.00,0.3449
3894.00,0.3448
3893.00,0.3446
3892.00,0.3444
3891.00,0.3441
3890.00,0.3439
3889.00,0.3437
3888.00,0.3437
3887.00,0.3437
3886.00,0.3437
3885.00,0.3437
3884.00,0.3436
3883.00,0.3436
3882.00,0.3437
3881.00,0.3437
3880.00,0.3435
3879.00,0.3433
3878.00,0.3432
3877.00,0.3432
3876.00,0.3433
3875.00,0.3434
3874.00,0.3433
3873.00,0.3431
3872.00,0.3430
3871.00,0.3429
3870.00,0.3429
3869.00,0.3429
3868.00,0.3429
3867.00,0.3430
3866.00,0.3430
3865.00,0.3429
3864.00,0.3428
3863.00,0.3426
3862.00,0.3424
3861.00,0.3422
3860.00,0.3420
3859.00,0.3419
3858.00,0.3417
3857.00,0.3417
3856.00,0.3416
3855.00,0.3417
3854.00,0.3417
3853.00,0.3418
3852.00,0.3418
3851.00,0.3418
3850.00,0.3417
3849.00,0.3415
3848.00,0.3412
3847.00,0.3410
3846.00,0.3407
3845.00,0.3406
3844.00,0.3404
3843.00,0.3403
3842.00,0.3403
3841.00,0.3403
3840.00,0.3404
3839.00,0.3405
3838.00,0.3407
3837.00,0.3409
3836.00,0.3409
3835.00,0.3409
3834.00,0.3408
3833.00,0.3406
3832.00,0.3403
3831.00,0.3400
3830.00,0.3398
3829.00,0.3397
3828.00,0.3396
3827.00,0.3395
3826.00,0.3394
3825.00,0.3393
3824.00,0.3393
3823.00,0.3393
3822.00,0.3394
3821.00,0.3394
3820.00,0.3392
3819.00,0.3391
3818.00,0.3391
3817.00,0.3390
3816.00,0.3388
3815.00,0.3384
3814.00,0.3380
3813.00,0.3376
3812.00,0.3373
3811.00,0.3370
3810.00,0.3367
3809.00,0.3365
3808.00,0.3363
3807.00,0.3361
3806.00,0.3360
3805.00,0.3359
3804.00,0.3359
3803.00,0.3359
3802.00,0.3359
3801.00,0.3358
3800.00,0.3356
3799.00,0.3354
3798.00,0.3353
3797.00,0.3351
3796.00,0.3348
3795.00,0.3345
3794.00,0.3341
3793.00,0.3339
3792.00,0.3337
3791.00,0.3335
3790.00,0.3333
3789.00,0.3331
3788.00,0.3330
3787.00,0.3329
3786.00,0.3328
3785.00,0.3327
3784.00,0.3326
3783.00,0.3324
3782.00,0.3323
3781.00,0.3322
3780.00,0.3321
3779.00,0.3319
3778.00,0.3316
3777.00,0.3314
3776.00,0.3312
3775.00,0.3310
3774.00,0.3308
3773.00,0.3306
3772.00,0.3304
3771.00,0.3302
3770.00,0.3300
3769.00,0.3298
3768.00,0.3297
3767.00,0.3297
3766.00,0.3296
3765.00,0.3296
3764.00,0.3294
3763.00,0.3293
3762.00,0.3292
3761.00,0.3291
3760.00,0.3289
3759.00,0.3288
3758.00,0.3287
3757.00,0.3286
3756.00,0.3285
3755.00,0.3285
3754.00,0.3284
3753.00,0.3283
3752.00,0.3283
3751.00,0.3283
3750.00,0.3283
3749.00,0.3284
3748.00,0.3284
3747.00,0.3285
3746.00,0.3284
3745.00,0.3282
3744.00,0.3279
3743.00,0.3275
3742.00,0.3272
3741.00,0.3270
3740.00,0.3268
3739.00,0.3265
3738.00,0.3263
3737.00,0.3261
3736.00,0.3259
3735.00,0.3259
3734.00,0.3258
3733.00,0.3258
3732.00,0.3257
3731.00,0.3255
3730.00,0.3252
3729.00,0.3250
3728.00,0.3247
3727.00,0.3244
3726.00,0.3241
3725.00,0.3239
3724.00,0.3237
3723.00,0.3236
3722.00,0.3235
3721.00,0.3234
3720.00,0.3233
3719.00,0.3231
3718.00,0.3229
3717.00,0.3227
3716.00,0.3226
3715.00,0.3225
3714.00,0.3225
3713.00,0.3226
3712.00,0.3228
3711.00,0.3229
3710.00,0.3230
3709.00,0.3229
3708.00,0.3228
3707.00,0.3225
3706.00,0.3222
3705.00,0.3220
3704.00,0.3219
3703.00,0.3218
3702.00,0.3217
3701.00,0.3217
3700.00,0.3216
3699.00,0.3215
3698.00,0.3215
3697.00,0.3215
3696.00,0.3214
3695.00,0.3214
3694.00,0.3215
3693.00,0.3217
3692.00,0.3219
3691.00,0.3220
3690.00,0.3221
3689.00,0.3222
3688.00,0.3222
3687.00,0.3222
3686.00,0.3222
3685.00,0.3222
3684.00,0.3220
3683.00,0.3218
3682.00,0.3216
3681.00,0.3214
3680.00,0.3214
3679.00,0.3214
3678.00,0.3214
3677.00,0.3216
3676.00,0.3217
3675.00,0.3219
3674.00,0.3219
3673.00,0.3220
3672.00,0.3220
3671.00,0.3220
3670.00,0.3219
3669.00,0.3217
3668.00,0.3214
3667.00,0.3212
3666.00,0.3211
3665.00,0.3209
3664.00,0.3208
3663.00,0.3206
3662.00,0.3205
3661.00,0.3205
3660.00,0.3204
3659.00,0.3205
3658.00,0.3207
3657.00,0.3210
3656.00,0.3212
3655.00,0.3215
3654.00,0.3217
3653.00,0.3220
3652.00,0.3223
3651.00,0.3226
3650.00,0.3228
3649.00,0.3230
3648.00,0.3232
3647.00,0.3233
3646.00,0.3234
3645.00,0.3233
3644.00,0.3232
3643.00,0.3231
3642.00,0.3230
3641.00,0.3229
3640.00,0.3229
3639.00,0.3229
3638.00,0.3229
3637.00,0.3229
3636.00,0.3230
3635.00,0.3231
3634.00,0.3232
3633.00,0.3233
3632.00,0.3235
3631.00,0.3238
3630.00,0.3242
3629.00,0.3246
3628.00,0.3250
3627.00,0.3253
3626.00,0.3256
3625.00,0.3259
3624.00,0.3261
3623.00,0.3263
3622.00,0.3265
3621.00,0.3266
3620.00,0.3266
3619.00,0.3266
3618.00,0.3265
3617.00,0.3264
3616.00,0.3264
3615.00,0.3263
3614.00,0.3263
3613.00,0.3263
3612.00,0.3263
3611.00,0.3262
3610.00,0.3262
3609.00,0.3263
3608.00,0.3264
3607.00,0.3264
3606.00,0.3263
3605.00,0.3261
3604.00,0.3259
3603.00,0.3256
3602.00,0.3253
3601.00,0.3248
3600.00,0.3243
3599.00,0.3238
3598.00,0.3232
3597.00,0.3226
3596.00,0.3220
3595.00,0.3215
3594.00,0.3209
3593.00,0.3205
3592.00,0.3201
3591.00,0.3197
3590.00,0.3195
3589.00,0.3193
3588.00,0.3191
3587.00,0.3190
3586.00,0.3189
3585.00,0.3188
3584.00,0.3188
3583.00,0.3187
3582.00,0.3186
3581.00,0.3186
3580.00,0.3186
3579.00,0.3186
3578.00,0.3186
3577.00,0.3186
3576.00,0.3187
3575.00,0.3187
3574.00,0.3188
3573.00,0.3189
3572.00,0.3190
3571.00,0.3191
3570.00,0.3193
3569.00,0.3195
3568.00,0.3198
3567.00,0.3201
3566.00,0.3205
3565.00,0.3207
3564.00,0.3209
3563.00,0.3210
3562.00,0.3211
3561.00,0.3212
3560.00,0.3213
3559.00,0.3214
3558.00,0.3215
3557.00,0.3217
3556.00,0.3220
3555.00,0.3224
3554.00,0.3228
3553.00,0.3231
3552.00,0.3235
3551.00,0.3238
3550.00,0.3241
3549.00,0.3245
3548.00,0.3249
3547.00,0.3253
3546.00,0.3258
3545.00,0.3262
3544.00,0.3267
3543.00,0.3271
3542.00,0.3274
3541.00,0.3278
3540.00,0.3280
3539.00,0.3283
3538.00,0.3286
3537.00,0.3289
3536.00,0.3292
3535.00,0.3294
3534.00,0.3296
3533.00,0.3299
3532.00,0.3302
3531.00,0.3305
3530.00,0.3308
3529.00,0.3311
3528.00,0.3314
3527.00,0.3316
3526.00,0.3319
3525.00,0.3323
3524.00,0.3327
3523.00,0.3330
3522.00,0.3333
3521.00,0.3336
3520.00,0.3339
3519.00,0.3342
3518.00,0.3346
3517.00,0.3350
3516.00,0.3354
3515.00,0.3359
3514.00,0.3363
3513.00,0.3368
3512.00,0.3372
3511.00,0.3376
3510.00,0.3381
3509.00,0.3386
3508.00,0.3391
3507.00,0.3396
3506.00,0.3401
3505.00,0.3405
3504.00,0.3410
3503.00,0.3414
3502.00,0.3420
3501.00,0.3425
3500.00,0.3430
3499.00,0.3435
3498.00,0.3441
3497.00,0.3446
3496.00,0.3452
3495.00,0.3457
3494.00,0.3463
3493.00,0.3469
3492.00,0.3475
3491.00,0.3482
3490.00,0.3488
3489.00,0.3495
3488.00,0.3501
3487.00,0.3508
3486.00,0.3513
3485.00,0.3519
3484.00,0.3524
3483.00,0.3530
3482.00,0.3535
3481.00,0.3542
3480.00,0.3547
3479.00,0.3553
3478.00,0.3558
3477.00,0.3563
3476.00,0.3567
3475.00,0.3572
3474.00,0.3576
3473.00,0.3581
3472.00,0.3585
3471.00,0.3590
3470.00,0.3595
3469.00,0.3601
3468.00,0.3606
3467.00,0.3612
3466.00,0.3617
3465.00,0.3623
3464.00,0.3628
3463.00,0.3634
3462.00,0.3639
3461.00,0.3644
3460.00,0.3649
3459.00,0.3654
3458.00,0.3660
3457.00,0.3666
3456.00,0.3672
3455.00,0.3679
3454.00,0.3685
3453.00,0.3690
3452.00,0.3696
3451.00,0.3702
3450.00,0.3708
3449.00,0.3715
3448.00,0.3721
3447.00,0.3728
3446.00,0.3735
3445.00,0.3742
3444.00,0.3749
3443.00,0.3757
3442.00,0.3764
3441.00,0.3770
3440.00,0.3777
3439.00,0.3783
3438.00,0.3790
3437.00,0.3797
3436.00,0.3805
3435.00,0.3812
3434.00,0.3819
3433.00,0.3826
3432.00,0.3833
3431.00,0.3839
3430.00,0.3846
3429.00,0.3853
3428.00,0.3860
3427.00,0.3867
3426.00,0.3873
3425.00,0.3880
3424.00,0.3887
3423.00,0.3894
3422.00,0.3902
3421.00,0.3911
3420.00,0.3919
3419.00,0.3927
3418.00,0.3936
3417.00,0.3945
3416.00,0.3953
3415.00,0.3962
3414.00,0.3970
3413.00,0.3978
3412.00,0.3987
3411.00,0.3996
3410.00,0.4006
3409.00,0.4016
3408.00,0.4025
3407.00,0.4034
3406.00,0.4043
3405.00,0.4052
3404.00,0.4062
3403.00,0.4072
3402.00,0.4082
3401.00,0.4092
3400.00,0.4102
3399.00,0.4111
3398.00,0.4121
3397.00,0.4130
3396.00,0.4140
3395.00,0.4150
3394.00,0.4160
3393.00,0.4170
3392.00,0.4180
3391.00,0.4190
3390.00,0.4199
3389.00,0.4208
3388.00,0.4219
3387.00,0.4229
3386.00,0.4241
3385.00,0.4252
3384.00,0.4262
3383.00,0.4272
3382.00,0.4283
3381.00,0.4293
3380.00,0.4304
3379.00,0.4316
3378.00,0.4329
3377.00,0.4343
3376.00,0.4356
3375.00,0.4368
3374.00,0.4380
3373.00,0.4392
3372.00,0.4405
3371.00,0.4418
3370.00,0.4432
3369.00,0.4446
3368.00,0.4460
3367.00,0.4474
3366.00,0.4488
3365.00,0.4502
3364.00,0.4516
3363.00,0.4530
3362.00,0.4544
3361.00,0.4559
3360.00,0.4574
3359.00,0.4589
3358.00,0.4605
3357.00,0.4620
3356.00,0.4635
3355.00,0.4650
3354.00,0.4665
3353.00,0.4681
3352.00,0.4697
3351.00,0.4713
3350.00,0.4729
3349.00,0.4745
3348.00,0.4761
3347.00,0.4776
3346.00,0.4791
3345.00,0.4806
3344.00,0.4821
3343.00,0.4836
3342.00,0.4849
3341.00,0.4862
3340.00,0.4874
3339.00,0.4886
3338.00,0.4899
3337.00,0.4910
3336.00,0.4920
3335.00,0.4929
3334.00,0.4938
3333.00,0.4947
3332.00,0.4955
3331.00,0.4962
3330.00,0.4967
3329.00,0.4971
3328.00,0.4975
3327.00,0.4977
3326.00,0.4979
3325.00,0.4980
3324.00,0.4981
3323.00,0.4980
3322.00,0.4978
3321.00,0.4975
3320.00,0.4972
3319.00,0.4969
3318.00,0.4964
3317.00,0.4959
3316.00,0.4954
3315.00,0.4947
3314.00,0.4940
3313.00,0.4933
3312.00,0.4926
3311.00,0.4918
3310.00,0.4911
3309.00,0.4903
3308.00,0.4895
3307.00,0.4887
3306.00,0.4878
3305.00,0.4869
3304.00,0.4860
3303.00,0.4851
3302.00,0.4843
3301.00,0.4835
3300.00,0.4828
3299.00,0.4820
3298.00,0.4813
3297.00,0.4806
3296.00,0.4800
3295.00,0.4794
3294.00,0.4789
3293.00,0.4783
3292.00,0.4779
3291.00,0.4775
3290.00,0.4771
3289.00,0.4768
3288.00,0.4764
3287.00,0.4761
3286.00,0.4758
3285.00,0.4756
3284.00,0.4755
3283.00,0.4754
3282.00,0.4753
3281.00,0.4752
3280.00,0.4752
3279.00,0.4752
3278.00,0.4753
3277.00,0.4755
3276.00,0.4757
3275.00,0.4760
3274.00,0.4762
3273.00,0.4765
3272.00,0.4768
3271.00,0.4771
3270.00,0.4775
3269.00,0.4778
3268.00,0.4781
3267.00,0.4785
3266.00,0.4790
3265.00,0.4796
3264.00,0.4801
3263.00,0.4807
3262.00,0.4813
3261.00,0.4819
3260.00,0.4825
3259.00,0.4831
3258.00,0.4837
3257.00,0.4842
3256.00,0.4848
3255.00,0.4853
3254.00,0.4858
3253.00,0.4862
3252.00,0.4867
3251.00,0.4873
3250.00,0.4878
3249.00,0.4884
3248.00,0.4890
3247.00,0.4895
3246.00,0.4900
3245.00,0.4904
3244.00,0.4908
3243.00,0.4911
3242.00,0.4914
3241.00,0.4917
3240.00,0.4919
3239.00,0.4922
3238.00,0.4924
3237.00,0.4925
3236.00,0.4927
3235.00,0.4929
3234.00,0.4930
3233.00,0.4931
3232.00,0.4932
3231.00,0.4933
3230.00,0.4934
3229.00,0.4934
3228.00,0.4934
3227.00,0.4934
3226.00,0.4934
3225.00,0.4934
3224.00,0.4933
3223.00,0.4933
3222.00,0.4933
3221.00,0.4933
3220.00,0.4932
3219.00,0.4931
3218.00,0.4929
3217.00,0.4927
3216.00,0.4925
3215.00,0.4922
3214.00,0.4921
3213.00,0.4919
3212.00,0.4917
3211.00,0.4915
3210.00,0.4913
3209.00,0.4910
3208.00,0.4908
3207.00,0.4905
3206.00,0.4902
3205.00,0.4899
3204.00,0.4896
3203.00,0.4893
3202.00,0.4890
3201.00,0.4888
3200.00,0.4885
3199.00,0.4881
3198.00,0.4877
3197.00,0.4873
3196.00,0.4869
3195.00,0.4865
3194.00,0.4861
3193.00,0.4858
3192.00,0.4854
3191.00,0.4850
3190.00,0.4846
3189.00,0.4842
3188.00,0.4838
3187.00,0.4833
3186.00,0.4827
3185.00,0.4822
3184.00,0.4817
3183.00,0.4811
3182.00,0.4805
3181.00,0.4799
3180.00,0.4793
3179.00,0.4785
3178.00,0.4778
3177.00,0.4770
3176.00,0.4764
3175.00,0.4757
3174.00,0.4749
3173.00,0.4742
3172.00,0.4734
3171.00,0.4727
3170.00,0.4719
3169.00,0.4711
3168.00,0.4703
3167.00,0.4694
3166.00,0.4685
3165.00,0.4677
3164.00,0.4668
3163.00,0.4660
3162.00,0.4652
3161.00,0.4644
3160.00,0.4636
3159.00,0.4629
3158.00,0.4622
3157.00,0.4615
3156.00,0.4609
3155.00,0.4602
3154.00,0.4595
3153.00,0.4588
3152.00,0.4581
3151.00,0.4575
3150.00,0.4568
3149.00,0.4562
3148.00,0.4555
3147.00,0.4548
3146.00,0.4541
3145.00,0.4535
3144.00,0.4529
3143.00,0.4523
3142.00,0.4517
3141.00,0.4511
3140.00,0.4505
3139.00,0.4500
3138.00,0.4495
3137.00,0.4490
3136.00,0.4486
3135.00,0.4482
3134.00,0.4478
3133.00,0.4475
3132.00,0.4472
3131.00,0.4470
3130.00,0.4468
3129.00,0.4467
3128.00,0.4466
3127.00,0.4466
3126.00,0.4465
3125.00,0.4465
3124.00,0.4466
3123.00,0.4467
3122.00,0.4469
3121.00,0.4471
3120.00,0.4474
3119.00,0.4476
3118.00,0.4480
3117.00,0.4484
3116.00,0.4488
3115.00,0.4492
3114.00,0.4496
3113.00,0.4500
3112.00,0.4505
3111.00,0.4510
3110.00,0.4516
3109.00,0.4522
3108.00,0.4528
3107.00,0.4535
3106.00,0.4542
3105.00,0.4549
3104.00,0.4555
3103.00,0.4562
3102.00,0.4570
3101.00,0.4579
3100.00,0.4587
3099.00,0.4597
3098.00,0.4606
3097.00,0.4617
3096.00,0.4629
3095.00,0.4642
3094.00,0.4657
3093.00,0.4675
3092.00,0.4694
3091.00,0.4716
3090.00,0.4738
3089.00,0.4762
3088.00,0.4787
3087.00,0.4814
3086.00,0.4840
3085.00,0.4867
3084.00,0.4894
3083.00,0.4922
3082.00,0.4952
3081.00,0.4985
3080.00,0.5019
3079.00,0.5056
3078.00,0.5094
3077.00,0.5134
3076.00,0.5175
3075.00,0.5216
3074.00,0.5257
3073.00,0.5298
3072.00,0.5341
3071.00,0.5383
3070.00,0.5426
3069.00,0.5468
3068.00,0.5510
3067.00,0.5553
3066.00,0.5594
3065.00,0.5635
3064.00,0.5674
3063.00,0.5710
3062.00,0.5743
3061.00,0.5774
3060.00,0.5802
3059.00,0.5829
3058.00,0.5857
3057.00,0.5885
3056.00,0.5913
3055.00,0.5943
3054.00,0.5973
3053.00,0.6005
3052.00,0.6040
3051.00,0.6076
3050.00,0.6115
3049.00,0.6157
3048.00,0.6201
3047.00,0.6246
3046.00,0.6292
3045.00,0.6339
3044.00,0.6385
3043.00,0.6432
3042.00,0.6478
3041.00,0.6524
3040.00,0.6570
3039.00,0.6615
3038.00,0.6662
3037.00,0.6711
3036.00,0.6765
3035.00,0.6824
3034.00,0.6888
3033.00,0.6956
3032.00,0.7028
3031.00,0.7104
3030.00,0.7185
3029.00,0.7269
3028.00,0.7356
3027.00,0.7448
3026.00,0.7542
3025.00,0.7640
3024.00,0.7741
3023.00,0.7845
3022.00,0.7952
3021.00,0.8063
3020.00,0.8178
3019.00,0.8295
3018.00,0.8414
3017.00,0.8534
3016.00,0.8653
3015.00,0.8774
3014.00,0.8895
3013.00,0.9020
3012.00,0.9148
3011.00,0.9281
3010.00,0.9420
3009.00,0.9566
3008.00,0.9719
3007.00,0.9876
3006.00,1.0039
3005.00,1.0207
3004.00,1.0379
3003.00,1.0557
3002.00,1.0740
3001.00,1.0930
3000.00,1.1129
2999.00,1.1340
2998.00,1.1568
2997.00,1.1815
2996.00,1.2085
2995.00,1.2384
2994.00,1.2717
2993.00,1.3089
2992.00,1.3505
2991.00,1.3968
2990.00,1.4484
2989.00,1.5057
2988.00,1.5692
2987.00,1.6393
2986.00,1.7163
2985.00,1.8004
2984.00,1.8923
2983.00,1.9933
2982.00,2.1045
2981.00,2.2260
2980.00,2.3557
2979.00,2.4898
2978.00,2.6231
2977.00,2.7470
2976.00,2.8519
2975.00,2.9343
2974.00,3.0024
2973.00,3.0692
2972.00,3.1425
2971.00,3.2149
2970.00,3.2626
2969.00,3.2701
2968.00,3.2613
2967.00,3.2802
2966.00,3.3426
2965.00,3.4220
2964.00,3.4654
2963.00,3.4471
2962.00,3.3949
2961.00,3.3448
2960.00,3.3204
2959.00,3.3335
2958.00,3.3787
2957.00,3.4374
2956.00,3.4854
2955.00,3.5131
2954.00,3.5269
2953.00,3.5265
2952.00,3.5071
2951.00,3.4812
2950.00,3.4622
2949.00,3.4417
2948.00,3.4172
2947.00,3.4074
2946.00,3.4263
2945.00,3.4611
2944.00,3.4740
2943.00,3.4416
2942.00,3.3836
2941.00,3.3390
2940.00,3.3352
2939.00,3.3707
2938.00,3.4117
2937.00,3.4207
2936.00,3.4089
2935.00,3.4227
2934.00,3.4810
2933.00,3.5483
2932.00,3.5573
2931.00,3.4911
2930.00,3.3981
2929.00,3.3161
2928.00,3.2620
2927.00,3.2440
2926.00,3.2608
2925.00,3.3068
2924.00,3.3843
2923.00,3.5024
2922.00,3.6540
2921.00,3.7798
2920.00,3.7984
2919.00,3.7327
2918.00,3.6607
2917.00,3.6264
2916.00,3.6262
2915.00,3.6128
2914.00,3.5579
2913.00,3.4743
2912.00,3.3965
2911.00,3.3434
2910.00,3.3116
2909.00,3.2929
2908.00,3.2822
2907.00,3.2853
2906.00,3.2987
2905.00,3.3014
2904.00,3.2858
2903.00,3.2703
2902.00,3.2670
2901.00,3.2703
2900.00,3.2776
2899.00,3.3045
2898.00,3.3632
2897.00,3.4367
2896.00,3.4892
2895.00,3.5042
2894.00,3.4870
2893.00,3.4470
2892.00,3.4056
2891.00,3.3895
2890.00,3.4024
2889.00,3.4167
2888.00,3.4080
2887.00,3.3887
2886.00,3.3796
2885.00,3.3700
2884.00,3.3396
2883.00,3.2972
2882.00,3.2624
2881.00,3.2396
2880.00,3.2247
2879.00,3.2218
2878.00,3.2340
2877.00,3.2536
2876.00,3.2732
2875.00,3.2945
2874.00,3.3166
2873.00,3.3280
2872.00,3.3256
2871.00,3.3263
2870.00,3.3460
2869.00,3.3799
2868.00,3.4058
2867.00,3.4062
2866.00,3.3868
2865.00,3.3627
2864.00,3.3435
2863.00,3.3318
2862.00,3.3246
2861.00,3.3219
2860.00,3.3305
2859.00,3.3548
2858.00,3.3767
2857.00,3.3683
2856.00,3.3394
2855.00,3.3269
2854.00,3.3451
2853.00,3.3709
2852.00,3.3729
2851.00,3.3531
2850.00,3.3316
2849.00,3.3177
2848.00,3.3143
2847.00,3.3237
2846.00,3.3354
2845.00,3.3233
2844.00,3.2809
2843.00,3.2325
2842.00,3.1988
2841.00,3.1794
2840.00,3.1615
2839.00,3.1270
2838.00,3.0532
2837.00,2.9312
2836.00,2.7816
2835.00,2.6278
2834.00,2.4789
2833.00,2.3367
2832.00,2.2036
2831.00,2.0819
2830.00,1.9719
2829.00,1.8721
2828.00,1.7813
2827.00,1.6987
2826.00,1.6239
2825.00,1.5561
2824.00,1.4943
2823.00,1.4376
2822.00,1.3853
2821.00,1.3368
2820.00,1.2921
2819.00,1.2509
2818.00,1.2128
2817.00,1.1774
2816.00,1.1443
2815.00,1.1133
2814.00,1.0845
2813.00,1.0574
2812.00,1.0318
2811.00,1.0077
2810.00,0.9850
2809.00,0.9634
2808.00,0.9428
2807.00,0.9231
2806.00,0.9044
2805.00,0.8865
2804.00,0.8695
2803.00,0.8535
2802.00,0.8384
2801.00,0.8241
2800.00,0.8106
2799.00,0.7977
2798.00,0.7853
2797.00,0.7733
2796.00,0.7618
2795.00,0.7507
2794.00,0.7398
2793.00,0.7293
2792.00,0.7190
2791.00,0.7090
2790.00,0.6993
2789.00,0.6897
2788.00,0.6803
2787.00,0.6712
2786.00,0.6623
2785.00,0.6536
2784.00,0.6452
2783.00,0.6369
2782.00,0.6289
2781.00,0.6212
2780.00,0.6139
2779.00,0.6069
2778.00,0.6004
2777.00,0.5942
2776.00,0.5883
2775.00,0.5828
2774.00,0.5776
2773.00,0.5728
2772.00,0.5683
2771.00,0.5641
2770.00,0.5602
2769.00,0.5565
2768.00,0.5532
2767.00,0.5501
2766.00,0.5474
2765.00,0.5451
2764.00,0.5431
2763.00,0.5413
2762.00,0.5398
2761.00,0.5384
2760.00,0.5371
2759.00,0.5359
2758.00,0.5347
2757.00,0.5336
2756.00,0.5325
2755.00,0.5316
2754.00,0.5307
2753.00,0.5299
2752.00,0.5293
2751.00,0.5290
2750.00,0.5289
2749.00,0.5291
2748.00,0.5295
2747.00,0.5301
2746.00,0.5309
2745.00,0.5319
2744.00,0.5332
2743.00,0.5349
2742.00,0.5370
2741.00,0.5395
2740.00,0.5422
2739.00,0.5454
2738.00,0.5490
2737.00,0.5531
2736.00,0.5578
2735.00,0.5628
2734.00,0.5680
2733.00,0.5732
2732.00,0.5779
2731.00,0.5819
2730.00,0.5849
2729.00,0.5869
2728.00,0.5878
2727.00,0.5877
2726.00,0.5869
2725.00,0.5854
2724.00,0.5836
2723.00,0.5814
2722.00,0.5788
2721.00,0.5759
2720.00,0.5727
2719.00,0.5691
2718.00,0.5653
2717.00,0.5612
2716.00,0.5569
2715.00,0.5524
2714.00,0.5479
2713.00,0.5435
2712.00,0.5393
2711.00,0.5355
2710.00,0.5322
2709.00,0.5292
2708.00,0.5266
2707.00,0.5244
2706.00,0.5225
2705.00,0.5210
2704.00,0.5197
2703.00,0.5189
2702.00,0.5182
2701.00,0.5178
2700.00,0.5176
2699.00,0.5175
2698.00,0.5175
2697.00,0.5178
2696.00,0.5184
2695.00,0.5191
2694.00,0.5199
2693.00,0.5208
2692.00,0.5217
2691.00,0.5226
2690.00,0.5236
2689.00,0.5245
2688.00,0.5253
2687.00,0.5261
2686.00,0.5268
2685.00,0.5273
2684.00,0.5279
2683.00,0.5284
2682.00,0.5289
2681.00,0.5293
2680.00,0.5296
2679.00,0.5300
2678.00,0.5303
2677.00,0.5307
2676.00,0.5311
2675.00,0.5315
2674.00,0.5320
2673.00,0.5323
2672.00,0.5325
2671.00,0.5325
2670.00,0.5322
2669.00,0.5317
2668.00,0.5309
2667.00,0.5297
2666.00,0.5283
2665.00,0.5268
2664.00,0.5251
2663.00,0.5234
2662.00,0.5214
2661.00,0.5193
2660.00,0.5172
2659.00,0.5151
2658.00,0.5131
2657.00,0.5110
2656.00,0.5090
2655.00,0.5070
2654.00,0.5052
2653.00,0.5034
2652.00,0.5018
2651.00,0.5002
2650.00,0.4987
2649.00,0.4973
2648.00,0.4959
2647.00,0.4946
2646.00,0.4934
2645.00,0.4923
2644.00,0.4912
2643.00,0.4901
2642.00,0.4891
2641.00,0.4880
2640.00,0.4869
2639.00,0.4859
2638.00,0.4848
2637.00,0.4839
2636.00,0.4830
2635.00,0.4821
2634.00,0.4813
2633.00,0.4804
2632.00,0.4795
2631.00,0.4786
2630.00,0.4777
2629.00,0.4768
2628.00,0.4759
2627.00,0.4750
2626.00,0.4741
2625.00,0.4733
2624.00,0.4724
2623.00,0.4716
2622.00,0.4708
2621.00,0.4699
2620.00,0.4691
2619.00,0.4683
2618.00,0.4675
2617.00,0.4667
2616.00,0.4659
2615.00,0.4651
2614.00,0.4641
2613.00,0.4632
2612.00,0.4624
2611.00,0.4615
2610.00,0.4607
2609.00,0.4598
2608.00,0.4589
2607.00,0.4579
2606.00,0.4569
2605.00,0.4559
2604.00,0.4549
2603.00,0.4538
2602.00,0.4526
2601.00,0.4513
2600.00,0.4499
2599.00,0.4485
2598.00,0.4472
2597.00,0.4458
2596.00,0.4444
2595.00,0.4428
2594.00,0.4412
2593.00,0.4397
2592.00,0.4381
2591.00,0.4365
2590.00,0.4350
2589.00,0.4334
2588.00,0.4318
2587.00,0.4303
2586.00,0.4287
2585.00,0.4272
2584.00,0.4256
2583.00,0.4240
2582.00,0.4224
2581.00,0.4208
2580.00,0.4191
2579.00,0.4174
2578.00,0.4157
2577.00,0.4141
2576.00,0.4125
2575.00,0.4109
2574.00,0.4093
2573.00,0.4078
2572.00,0.4062
2571.00,0.4047
2570.00,0.4032
2569.00,0.4017
2568.00,0.4002
2567.00,0.3987
2566.00,0.3972
2565.00,0.3957
2564.00,0.3942
2563.00,0.3928
2562.00,0.3913
2561.00,0.3900
2560.00,0.3887
2559.00,0.3874
2558.00,0.3862
2557.00,0.3850
2556.00,0.3839
2555.00,0.3827
2554.00,0.3816
2553.00,0.3805
2552.00,0.3793
2551.00,0.3783
2550.00,0.3773
2549.00,0.3764
2548.00,0.3756
2547.00,0.3749
2546.00,0.3741
2545.00,0.3734
2544.00,0.3726
2543.00,0.3719
2542.00,0.3711
2541.00,0.3704
2540.00,0.3697
2539.00,0.3690
2538.00,0.3683
2537.00,0.3677
2536.00,0.3671
2535.00,0.3664
2534.00,0.3657
2533.00,0.3649
2532.00,0.3641
2531.00,0.3632
2530.00,0.3624
2529.00,0.3614
2528.00,0.3605
2527.00,0.3595
2526.00,0.3585
2525.00,0.3575
2524.00,0.3565
2523.00,0.3555
2522.00,0.3545
2521.00,0.3535
2520.00,0.3526
2519.00,0.3517
2518.00,0.3509
2517.00,0.3501
2516.00,0.3494
2515.00,0.3487
2514.00,0.3479
2513.00,0.3471
2512.00,0.3464
2511.00,0.3457
2510.00,0.3451
2509.00,0.3445
2508.00,0.3440
2507.00,0.3434
2506.00,0.3429
2505.00,0.3424
2504.00,0.3419
2503.00,0.3415
2502.00,0.3411
2501.00,0.3406
2500.00,0.3402
2499.00,0.3398
2498.00,0.3394
2497.00,0.3389
2496.00,0.3385
2495.00,0.3381
2494.00,0.3376
2493.00,0.3370
2492.00,0.3365
2491.00,0.3360
2490.00,0.3354
2489.00,0.3350
2488.00,0.3345
2487.00,0.3340
2486.00,0.3336
2485.00,0.3332
2484.00,0.3328
2483.00,0.3324
2482.00,0.3320
2481.00,0.3316
2480.00,0.3314
2479.00,0.3312
2478.00,0.3309
2477.00,0.3306
2476.00,0.3303
2475.00,0.3300
2474.00,0.3297
2473.00,0.3295
2472.00,0.3294
2471.00,0.3292
2470.00,0.3290
2469.00,0.3288
2468.00,0.3286
2467.00,0.3284
2466.00,0.3281
2465.00,0.3278
2464.00,0.3276
2463.00,0.3273
2462.00,0.3271
2461.00,0.3269
2460.00,0.3268
2459.00,0.3265
2458.00,0.3263
2457.00,0.3261
2456.00,0.3258
2455.00,0.3256
2454.00,0.3253
2453.00,0.3251
2452.00,0.3249
2451.00,0.3247
2450.00,0.3245
2449.00,0.3244
2448.00,0.3243
2447.00,0.3242
2446.00,0.3241
2445.00,0.3240
2444.00,0.3240
2443.00,0.3239
2442.00,0.3240
2441.00,0.3241
2440.00,0.3242
2439.00,0.3243
2438.00,0.3245
2437.00,0.3246
2436.00,0.3246
2435.00,0.3247
2434.00,0.3248
2433.00,0.3249
2432.00,0.3250
2431.00,0.3251
2430.00,0.3252
2429.00,0.3253
2428.00,0.3254
2427.00,0.3255
2426.00,0.3256
2425.00,0.3257
2424.00,0.3257
2423.00,0.3256
2422.00,0.3256
2421.00,0.3256
2420.00,0.3256
2419.00,0.3256
2418.00,0.3256
2417.00,0.3257
2416.00,0.3257
2415.00,0.3257
2414.00,0.3257
2413.00,0.3256
2412.00,0.3256
2411.00,0.3255
2410.00,0.3255
2409.00,0.3255
2408.00,0.3255
2407.00,0.3254
2406.00,0.3254
2405.00,0.3254
2404.00,0.3253
2403.00,0.3253
2402.00,0.3251
2401.00,0.3250
2400.00,0.3249
2399.00,0.3248
2398.00,0.3247
2397.00,0.3246
2396.00,0.3245
2395.00,0.3243
2394.00,0.3242
2393.00,0.3241
2392.00,0.3241
2391.00,0.3240
2390.00,0.3238
2389.00,0.3237
2388.00,0.3236
2387.00,0.3235
2386.00,0.3234
2385.00,0.3233
2384.00,0.3231
2383.00,0.3230
2382.00,0.3230
2381.00,0.3229
2380.00,0.3229
2379.00,0.3229
2378.00,0.3228
2377.00,0.3228
2376.00,0.3228
2375.00,0.3227
2374.00,0.3225
2373.00,0.3225
2372.00,0.3224
2371.00,0.3224
2370.00,0.3223
2369.00,0.3222
2368.00,0.3221
2367.00,0.3220
2366.00,0.3219
2365.00,0.3218
2364.00,0.3217
2363.00,0.3216
2362.00,0.3215
2361.00,0.3215
2360.00,0.3215
2359.00,0.3215
2358.00,0.3215
2357.00,0.3214
2356.00,0.3213
2355.00,0.3211
2354.00,0.3209
2353.00,0.3208
2352.00,0.3208
2351.00,0.3208
2350.00,0.3208
2349.00,0.3206
2348.00,0.3204
2347.00,0.3201
2346.00,0.3198
2345.00,0.3197
2344.00,0.3198
2343.00,0.3199
2342.00,0.3199
2341.00,0.3200
2340.00,0.3200
2339.00,0.3200
2338.00,0.3200
2337.00,0.3200
2336.00,0.3200
2335.00,0.3199
2334.00,0.3197
2333.00,0.3195
2332.00,0.3193
2331.00,0.3191
2330.00,0.3190
2329.00,0.3188
2328.00,0.3185
2327.00,0.3183
2326.00,0.3180
2325.00,0.3177
2324.00,0.3175
2323.00,0.3174
2322.00,0.3172
2321.00,0.3170
2320.00,0.3168
2319.00,0.3165
2318.00,0.3161
2317.00,0.3158
2316.00,0.3155
2315.00,0.3152
2314.00,0.3150
2313.00,0.3147
2312.00,0.3143
2311.00,0.3140
2310.00,0.3137
2309.00,0.3135
2308.00,0.3132
2307.00,0.3129
2306.00,0.3126
2305.00,0.3123
2304.00,0.3120
2303.00,0.3117
2302.00,0.3114
2301.00,0.3112
2300.00,0.3110
2299.00,0.3107
2298.00,0.3105
2297.00,0.3102
2296.00,0.3099
2295.00,0.3097
2294.00,0.3094
2293.00,0.3090
2292.00,0.3087
2291.00,0.3084
2290.00,0.3082
2289.00,0.3079
2288.00,0.3077
2287.00,0.3075
2286.00,0.3072
2285.00,0.3069
2284.00,0.3067
2283.00,0.3064
2282.00,0.3061
2281.00,0.3059
2280.00,0.3056
2279.00,0.3053
2278.00,0.3050
2277.00,0.3046
2276.00,0.3044
2275.00,0.3041
2274.00,0.3039
2273.00,0.3037
2272.00,0.3034
2271.00,0.3032
2270.00,0.3030
2269.00,0.3028
2268.00,0.3026
2267.00,0.3025
2266.00,0.3024
2265.00,0.3022
2264.00,0.3021
2263.00,0.3019
2262.00,0.3016
2261.00,0.3014
2260.00,0.3011
2259.00,0.3008
2258.00,0.3005
2257.00,0.3002
2256.00,0.3000
2255.00,0.2998
2254.00,0.2995
2253.00,0.2993
2252.00,0.2990
2251.00,0.2987
2250.00,0.2984
2249.00,0.2982
2248.00,0.2979
2247.00,0.2976
2246.00,0.2974
2245.00,0.2971
2244.00,0.2969
2243.00,0.2968
2242.00,0.2966
2241.00,0.2965
2240.00,0.2964
2239.00,0.2963
2238.00,0.2962
2237.00,0.2961
2236.00,0.2960
2235.00,0.2959
2234.00,0.2959
2233.00,0.2958
2232.00,0.2957
2231.00,0.2956
2230.00,0.2956
2229.00,0.2955
2228.00,0.2955
2227.00,0.2954
2226.00,0.2953
2225.00,0.2952
2224.00,0.2951
2223.00,0.2951
2222.00,0.2950
2221.00,0.2949
2220.00,0.2948
2219.00,0.2946
2218.00,0.2944
2217.00,0.2943
2216.00,0.2941
2215.00,0.2939
2214.00,0.2938
2213.00,0.2937
2212.00,0.2936
2211.00,0.2935
2210.00,0.2934
2209.00,0.2933
2208.00,0.2933
2207.00,0.2932
2206.00,0.2932
2205.00,0.2933
2204.00,0.2933
2203.00,0.2933
2202.00,0.2932
2201.00,0.2931
2200.00,0.2931
2199.00,0.2932
2198.00,0.2933
2197.00,0.2934
2196.00,0.2936
2195.00,0.2936
2194.00,0.2937
2193.00,0.2937
2192.00,0.2937
2191.00,0.2938
2190.00,0.2938
2189.00,0.2939
2188.00,0.2939
2187.00,0.2938
2186.00,0.2938
2185.00,0.2938
2184.00,0.2937
2183.00,0.2937
2182.00,0.2935
2181.00,0.2934
2180.00,0.2932
2179.00,0.2930
2178.00,0.2928
2177.00,0.2927
2176.00,0.2926
2175.00,0.2924
2174.00,0.2922
2173.00,0.2921
2172.00,0.2920
2171.00,0.2918
2170.00,0.2917
2169.00,0.2915
2168.00,0.2913
2167.00,0.2911
2166.00,0.2910
2165.00,0.2909
2164.00,0.2908
2163.00,0.2907
2162.00,0.2906
2161.00,0.2905
2160.00,0.2904
2159.00,0.2903
2158.00,0.2903
2157.00,0.2902
2156.00,0.2902
2155.00,0.2901
2154.00,0.2900
2153.00,0.2898
2152.00,0.2897
2151.00,0.2895
2150.00,0.2893
2149.00,0.2891
2148.00,0.2888
2147.00,0.2884
2146.00,0.2880
2145.00,0.2876
2144.00,0.2871
2143.00,0.2866
2142.00,0.2862
2141.00,0.2858
2140.00,0.2854
2139.00,0.2850
2138.00,0.2846
2137.00,0.2842
2136.00,0.2839
2135.00,0.2836
2134.00,0.2833
2133.00,0.2830
2132.00,0.2829
2131.00,0.2827
2130.00,0.2826
2129.00,0.2824
2128.00,0.2823
2127.00,0.2822
2126.00,0.2820
2125.00,0.2819
2124.00,0.2818
2123.00,0.2817
2122.00,0.2816
2121.00,0.2816
2120.00,0.2815
2119.00,0.2815
2118.00,0.2814
2117.00,0.2814
2116.00,0.2813
2115.00,0.2813
2114.00,0.2812
2113.00,0.2812
2112.00,0.2811
2111.00,0.2810
2110.00,0.2808
2109.00,0.2808
2108.00,0.2807
2107.00,0.2806
2106.00,0.2805
2105.00,0.2804
2104.00,0.2803
2103.00,0.2802
2102.00,0.2801
2101.00,0.2800
2100.00,0.2799
2099.00,0.2798
2098.00,0.2797
2097.00,0.2796
2096.00,0.2795
2095.00,0.2795
2094.00,0.2794
2093.00,0.2794
2092.00,0.2793
2091.00,0.2793
2090.00,0.2793
2089.00,0.2794
2088.00,0.2793
2087.00,0.2793
2086.00,0.2792
2085.00,0.2793
2084.00,0.2793
2083.00,0.2794
2082.00,0.2794
2081.00,0.2793
2080.00,0.2793
2079.00,0.2793
2078.00,0.2794
2077.00,0.2795
2076.00,0.2795
2075.00,0.2796
2074.00,0.2796
2073.00,0.2796
2072.00,0.2796
2071.00,0.2797
2070.00,0.2798
2069.00,0.2799
2068.00,0.2800
2067.00,0.2801
2066.00,0.2802
2065.00,0.2802
2064.00,0.2804
2063.00,0.2805
2062.00,0.2805
2061.00,0.2807
2060.00,0.2807
2059.00,0.2808
2058.00,0.2808
2057.00,0.2809
2056.00,0.2810
2055.00,0.2811
2054.00,0.2812
2053.00,0.2814
2052.00,0.2816
2051.00,0.2817
2050.00,0.2818
2049.00,0.2819
2048.00,0.2820
2047.00,0.2821
2046.00,0.2823
2045.00,0.2825
2044.00,0.2827
2043.00,0.2829
2042.00,0.2830
2041.00,0.2832
2040.00,0.2833
2039.00,0.2834
2038.00,0.2835
2037.00,0.2836
2036.00,0.2837
2035.00,0.2838
2034.00,0.2839
2033.00,0.2839
2032.00,0.2839
2031.00,0.2839
2030.00,0.2839
2029.00,0.2838
2028.00,0.2838
2027.00,0.2837
2026.00,0.2836
2025.00,0.2835
2024.00,0.2834
2023.00,0.2832
2022.00,0.2830
2021.00,0.2827
2020.00,0.2823
2019.00,0.2819
2018.00,0.2813
2017.00,0.2807
2016.00,0.2801
2015.00,0.2795
2014.00,0.2789
2013.00,0.2783
2012.00,0.2778
2011.00,0.2773
2010.00,0.2768
2009.00,0.2765
2008.00,0.2761
2007.00,0.2758
2006.00,0.2754
2005.00,0.2752
2004.00,0.2750
2003.00,0.2748
2002.00,0.2747
2001.00,0.2745
2000.00,0.2744
1999.00,0.2742
1998.00,0.2741
1997.00,0.2740
1996.00,0.2740
1995.00,0.2740
1994.00,0.2740
1993.00,0.2740
1992.00,0.2740
1991.00,0.2739
1990.00,0.2738
1989.00,0.2737
1988.00,0.2737
1987.00,0.2736
1986.00,0.2736
1985.00,0.2735
1984.00,0.2734
1983.00,0.2733
1982.00,0.2732
1981.00,0.2732
1980.00,0.2731
1979.00,0.2730
1978.00,0.2729
1977.00,0.2728
1976.00,0.2728
1975.00,0.2727
1974.00,0.2726
1973.00,0.2726
1972.00,0.2726
1971.00,0.2725
1970.00,0.2725
1969.00,0.2726
1968.00,0.2727
1967.00,0.2727
1966.00,0.2727
1965.00,0.2727
1964.00,0.2728
1963.00,0.2728
1962.00,0.2729
1961.00,0.2730
1960.00,0.2731
1959.00,0.2732
1958.00,0.2734
1957.00,0.2736
1956.00,0.2739
1955.00,0.2741
1954.00,0.2743
1953.00,0.2744
1952.00,0.2746
1951.00,0.2747
1950.00,0.2747
1949.00,0.2749
1948.00,0.2751
1947.00,0.2753
1946.00,0.2755
1945.00,0.2758
1944.00,0.2762
1943.00,0.2766
1942.00,0.2770
1941.00,0.2775
1940.00,0.2779
1939.00,0.2781
1938.00,0.2782
1937.00,0.2782
1936.00,0.2781
1935.00,0.2779
1934.00,0.2777
1933.00,0.2776
1932.00,0.2775
1931.00,0.2775
1930.00,0.2774
1929.00,0.2774
1928.00,0.2775
1927.00,0.2776
1926.00,0.2777
1925.00,0.2780
1924.00,0.2784
1923.00,0.2788
1922.00,0.2792
1921.00,0.2796
1920.00,0.2800
1919.00,0.2803
1918.00,0.2806
1917.00,0.2810
1916.00,0.2814
1915.00,0.2816
1914.00,0.2818
1913.00,0.2819
1912.00,0.2820
1911.00,0.2821
1910.00,0.2822
1909.00,0.2822
1908.00,0.2823
1907.00,0.2823
1906.00,0.2822
1905.00,0.2822
1904.00,0.2822
1903.00,0.2821
1902.00,0.2820
1901.00,0.2820
1900.00,0.2820
1899.00,0.2821
1898.00,0.2822
1897.00,0.2824
1896.00,0.2826
1895.00,0.2827
1894.00,0.2828
1893.00,0.2829
1892.00,0.2830
1891.00,0.2831
1890.00,0.2832
1889.00,0.2834
1888.00,0.2835
1887.00,0.2836
1886.00,0.2837
1885.00,0.2838
1884.00,0.2839
1883.00,0.2839
1882.00,0.2839
1881.00,0.2839
1880.00,0.2839
1879.00,0.2839
1878.00,0.2839
1877.00,0.2838
1876.00,0.2838
1875.00,0.2836
1874.00,0.2835
1873.00,0.2833
1872.00,0.2832
1871.00,0.2829
1870.00,0.2827
1869.00,0.2826
1868.00,0.2826
1867.00,0.2825
1866.00,0.2821
1865.00,0.2817
1864.00,0.2814
1863.00,0.2810
1862.00,0.2807
1861.00,0.2804
1860.00,0.2801
1859.00,0.2798
1858.00,0.2795
1857.00,0.2792
1856.00,0.2790
1855.00,0.2788
1854.00,0.2786
1853.00,0.2784
1852.00,0.2783
1851.00,0.2782
1850.00,0.2782
1849.00,0.2782
1848.00,0.2783
1847.00,0.2783
1846.00,0.2780
1845.00,0.2778
1844.00,0.2778
1843.00,0.2778
1842.00,0.2779
1841.00,0.2779
1840.00,0.2778
1839.00,0.2777
1838.00,0.2776
1837.00,0.2776
1836.00,0.2776
1835.00,0.2775
1834.00,0.2774
1833.00,0.2774
1832.00,0.2774
1831.00,0.2773
1830.00,0.2773
1829.00,0.2773
1828.00,0.2773
1827.00,0.2772
1826.00,0.2769
1825.00,0.2768
1824.00,0.2769
1823.00,0.2769
1822.00,0.2768
1821.00,0.2767
1820.00,0.2766
1819.00,0.2765
1818.00,0.2764
1817.00,0.2765
1816.00,0.2767
1815.00,0.2768
1814.00,0.2769
1813.00,0.2771
1812.00,0.2773
1811.00,0.2776
1810.00,0.2778
1809.00,0.2780
1808.00,0.2783
1807.00,0.2786
1806.00,0.2789
1805.00,0.2792
1804.00,0.2797
1803.00,0.2800
1802.00,0.2805
1801.00,0.2812
1800.00,0.2819
1799.00,0.2826
1798.00,0.2832
1797.00,0.2837
1796.00,0.2842
1795.00,0.2845
1794.00,0.2846
1793.00,0.2849
1792.00,0.2854
1791.00,0.2858
1790.00,0.2863
1789.00,0.2866
1788.00,0.2870
1787.00,0.2871
1786.00,0.2873
1785.00,0.2876
1784.00,0.2880
1783.00,0.2885
1782.00,0.2889
1781.00,0.2893
1780.00,0.2898
1779.00,0.2902
1778.00,0.2907
1777.00,0.2912
1776.00,0.2918
1775.00,0.2925
1774.00,0.2931
1773.00,0.2938
1772.00,0.2947
1771.00,0.2954
1770.00,0.2960
1769.00,0.2967
1768.00,0.2975
1767.00,0.2985
1766.00,0.2996
1765.00,0.3007
1764.00,0.3019
1763.00,0.3032
1762.00,0.3047
1761.00,0.3065
1760.00,0.3084
1759.00,0.3103
1758.00,0.3123
1757.00,0.3146
1756.00,0.3173
1755.00,0.3201
1754.00,0.3228
1753.00,0.3257
1752.00,0.3289
1751.00,0.3324
1750.00,0.3360
1749.00,0.3393
1748.00,0.3422
1747.00,0.3446
1746.00,0.3464
1745.00,0.3481
1744.00,0.3495
1743.00,0.3505
1742.00,0.3511
1741.00,0.3514
1740.00,0.3515
1739.00,0.3514
1738.00,0.3511
1737.00,0.3507
1736.00,0.3499
1735.00,0.3488
1734.00,0.3480
1733.00,0.3477
1732.00,0.3475
1731.00,0.3471
1730.00,0.3466
1729.00,0.3465
1728.00,0.3468
1727.00,0.3473
1726.00,0.3483
1725.00,0.3497
1724.00,0.3517
1723.00,0.3541
1722.00,0.3569
1721.00,0.3601
1720.00,0.3640
1719.00,0.3693
1718.00,0.3766
1717.00,0.3855
1716.00,0.3950
1715.00,0.4047
1714.00,0.4150
1713.00,0.4258
1712.00,0.4366
1711.00,0.4469
1710.00,0.4563
1709.00,0.4638
1708.00,0.4686
1707.00,0.4704
1706.00,0.4691
1705.00,0.4649
1704.00,0.4588
1703.00,0.4519
1702.00,0.4431
1701.00,0.4314
1700.00,0.4184
1699.00,0.4082
1698.00,0.4011
1697.00,0.3943
1696.00,0.3864
1695.00,0.3786
1694.00,0.3727
1693.00,0.3684
1692.00,0.3649
1691.00,0.3616
1690.00,0.3587
1689.00,0.3564
1688.00,0.3546
1687.00,0.3532
1686.00,0.3518
1685.00,0.3501
1684.00,0.3482
1683.00,0.3465
1682.00,0.3454
1681.00,0.3445
1680.00,0.3436
1679.00,0.3426
1678.00,0.3417
1677.00,0.3407
1676.00,0.3398
1675.00,0.3391
1674.00,0.3389
1673.00,0.3390
1672.00,0.3390
1671.00,0.3387
1670.00,0.3384
1669.00,0.3382
1668.00,0.3381
1667.00,0.3380
1666.00,0.3380
1665.00,0.3379
1664.00,0.3378
1663.00,0.3378
1662.00,0.3379
1661.00,0.3381
1660.00,0.3384
1659.00,0.3386
1658.00,0.3388
1657.00,0.3392
1656.00,0.3396
1655.00,0.3401
1654.00,0.3408
1653.00,0.3422
1652.00,0.3436
1651.00,0.3445
1650.00,0.3449
1649.00,0.3452
1648.00,0.3459
1647.00,0.3468
1646.00,0.3478
1645.00,0.3490
1644.00,0.3501
1643.00,0.3511
1642.00,0.3522
1641.00,0.3537
1640.00,0.3553
1639.00,0.3569
1638.00,0.3586
1637.00,0.3605
1636.00,0.3629
1635.00,0.3654
1634.00,0.3677
1633.00,0.3699
1632.00,0.3720
1631.00,0.3739
1630.00,0.3759
1629.00,0.3785
1628.00,0.3815
1627.00,0.3846
1626.00,0.3875
1625.00,0.3909
1624.00,0.3949
1623.00,0.3995
1622.00,0.4045
1621.00,0.4099
1620.00,0.4156
1619.00,0.4220
1618.00,0.4300
1617.00,0.4404
1616.00,0.4519
1615.00,0.4625
1614.00,0.4718
1613.00,0.4811
1612.00,0.4909
1611.00,0.5011
1610.00,0.5110
1609.00,0.5209
1608.00,0.5304
1607.00,0.5388
1606.00,0.5459
1605.00,0.5524
1604.00,0.5588
1603.00,0.5649
1602.00,0.5707
1601.00,0.5769
1600.00,0.5841
1599.00,0.5918
1598.00,0.6007
1597.00,0.6120
1596.00,0.6269
1595.00,0.6457
1594.00,0.6689
1593.00,0.6985
1592.00,0.7362
1591.00,0.7835
1590.00,0.8427
1589.00,0.9181
1588.00,1.0149
1587.00,1.1364
1586.00,1.2848
1585.00,1.4641
1584.00,1.6768
1583.00,1.8982
1582.00,2.0435
1581.00,2.0414
1580.00,1.9314
1579.00,1.7643
1578.00,1.5686
1577.00,1.3748
1576.00,1.2101
1575.00,1.0888
1574.00,1.0066
1573.00,0.9504
1572.00,0.9089
1571.00,0.8766
1570.00,0.8539
1569.00,0.8445
1568.00,0.8499
1567.00,0.8690
1566.00,0.9027
1565.00,0.9538
1564.00,1.0204
1563.00,1.0917
1562.00,1.1551
1561.00,1.2004
1560.00,1.2038
1559.00,1.1345
1558.00,1.0299
1557.00,0.9423
1556.00,0.8722
1555.00,0.8069
1554.00,0.7469
1553.00,0.6981
1552.00,0.6614
1551.00,0.6322
1550.00,0.6071
1549.00,0.5866
1548.00,0.5709
1547.00,0.5588
1546.00,0.5485
1545.00,0.5398
1544.00,0.5330
1543.00,0.5275
1542.00,0.5227
1541.00,0.5183
1540.00,0.5136
1539.00,0.5084
1538.00,0.5036
1537.00,0.5000
1536.00,0.4969
1535.00,0.4936
1534.00,0.4904
1533.00,0.4881
1532.00,0.4872
1531.00,0.4871
1530.00,0.4875
1529.00,0.4884
1528.00,0.4894
1527.00,0.4899
1526.00,0.4896
1525.00,0.4892
1524.00,0.4892
1523.00,0.4895
1522.00,0.4902
1521.00,0.4919
1520.00,0.4945
1519.00,0.4973
1518.00,0.5004
1517.00,0.5041
1516.00,0.5076
1515.00,0.5099
1514.00,0.5109
1513.00,0.5115
1512.00,0.5124
1511.00,0.5138
1510.00,0.5160
1509.00,0.5200
1508.00,0.5268
1507.00,0.5364
1506.00,0.5475
1505.00,0.5585
1504.00,0.5682
1503.00,0.5762
1502.00,0.5836
1501.00,0.5910
1500.00,0.5983
1499.00,0.6053
1498.00,0.6127
1497.00,0.6218
1496.00,0.6325
1495.00,0.6431
1494.00,0.6532
1493.00,0.6640
1492.00,0.6764
1491.00,0.6907
1490.00,0.7073
1489.00,0.7260
1488.00,0.7458
1487.00,0.7664
1486.00,0.7893
1485.00,0.8160
1484.00,0.8470
1483.00,0.8827
1482.00,0.9251
1481.00,0.9755
1480.00,1.0322
1479.00,1.0939
1478.00,1.1639
1477.00,1.2476
1476.00,1.3455
1475.00,1.4566
1474.00,1.5897
1473.00,1.7644
1472.00,1.9907
1471.00,2.2513
1470.00,2.5231
1469.00,2.7988
1468.00,3.0219
1467.00,3.0872
1466.00,3.0812
1465.00,3.1190
1464.00,3.1569
1463.00,3.1570
1462.00,3.1948
1461.00,3.2945
1460.00,3.3204
1459.00,3.2105
1458.00,3.1606
1457.00,3.2580
1456.00,3.3458
1455.00,3.2770
1454.00,3.2360
1453.00,3.2736
1452.00,3.2681
1451.00,3.1802
1450.00,3.1236
1449.00,3.1106
1448.00,3.0356
1447.00,2.8969
1446.00,2.7806
1445.00,2.6843
1444.00,2.5651
1443.00,2.4294
1442.00,2.3074
1441.00,2.2019
1440.00,2.0990
1439.00,1.9925
1438.00,1.8815
1437.00,1.7644
1436.00,1.6480
1435.00,1.5444
1434.00,1.4543
1433.00,1.3697
1432.00,1.2857
1431.00,1.2046
1430.00,1.1312
1429.00,1.0683
1428.00,1.0168
1427.00,0.9757
1426.00,0.9423
1425.00,0.9138
1424.00,0.8899
1423.00,0.8715
1422.00,0.8578
1421.00,0.8462
1420.00,0.8352
1419.00,0.8249
1418.00,0.8160
1417.00,0.8084
1416.00,0.8020
1415.00,0.7970
1414.00,0.7931
1413.00,0.7900
1412.00,0.7878
1411.00,0.7864
1410.00,0.7850
1409.00,0.7824
1408.00,0.7779
1407.00,0.7712
1406.00,0.7620
1405.00,0.7501
1404.00,0.7372
1403.00,0.7252
1402.00,0.7144
1401.00,0.7047
1400.00,0.6961
1399.00,0.6897
1398.00,0.6859
1397.00,0.6843
1396.00,0.6852
1395.00,0.6898
1394.00,0.6986
1393.00,0.7119
1392.00,0.7312
1391.00,0.7587
1390.00,0.7966
1389.00,0.8483
1388.00,0.9179
1387.00,1.0062
1386.00,1.1069
1385.00,1.2122
1384.00,1.3197
1383.00,1.4331
1382.00,1.5565
1381.00,1.6934
1380.00,1.8462
1379.00,2.0042
1378.00,2.1293
1377.00,2.1748
1376.00,2.1281
1375.00,2.0084
1374.00,1.8518
1373.00,1.6986
1372.00,1.5703
1371.00,1.4701
1370.00,1.3961
1369.00,1.3466
1368.00,1.3170
1367.00,1.2963
1366.00,1.2689
1365.00,1.2236
1364.00,1.1602
1363.00,1.0887
1362.00,1.0221
1361.00,0.9679
1360.00,0.9271
1359.00,0.8970
1358.00,0.8748
1357.00,0.8588
1356.00,0.8478
1355.00,0.8410
1354.00,0.8372
1353.00,0.8350
1352.00,0.8334
1351.00,0.8315
1350.00,0.8289
1349.00,0.8256
1348.00,0.8219
1347.00,0.8184
1346.00,0.8153
1345.00,0.8129
1344.00,0.8110
1343.00,0.8091
1342.00,0.8064
1341.00,0.8021
1340.00,0.7955
1339.00,0.7865
1338.00,0.7753
1337.00,0.7624
1336.00,0.7484
1335.00,0.7340
1334.00,0.7201
1333.00,0.7072
1332.00,0.6957
1331.00,0.6860
1330.00,0.6783
1329.00,0.6724
1328.00,0.6682
1327.00,0.6653
1326.00,0.6636
1325.00,0.6628
1324.00,0.6627
1323.00,0.6632
1322.00,0.6640
1321.00,0.6649
1320.00,0.6658
1319.00,0.6668
1318.00,0.6681
1317.00,0.6698
1316.00,0.6719
1315.00,0.6746
1314.00,0.6779
1313.00,0.6816
1312.00,0.6856
1311.00,0.6896
1310.00,0.6931
1309.00,0.6960
1308.00,0.6984
1307.00,0.7002
1306.00,0.7013
1305.00,0.7012
1304.00,0.6999
1303.00,0.6972
1302.00,0.6932
1301.00,0.6884
1300.00,0.6831
1299.00,0.6776
1298.00,0.6720
1297.00,0.6663
1296.00,0.6608
1295.00,0.6557
1294.00,0.6511
1293.00,0.6470
1292.00,0.6431
1291.00,0.6393
1290.00,0.6358
1289.00,0.6323
1288.00,0.6289
1287.00,0.6255
1286.00,0.6220
1285.00,0.6183
1284.00,0.6144
1283.00,0.6106
1282.00,0.6072
1281.00,0.6042
1280.00,0.6017
1279.00,0.5994
1278.00,0.5972
1277.00,0.5950
1276.00,0.5926
1275.00,0.5904
1274.00,0.5885
1273.00,0.5868
1272.00,0.5854
1271.00,0.5845
1270.00,0.5839
1269.00,0.5831
1268.00,0.5817
1267.00,0.5793
1266.00,0.5759
1265.00,0.5718
1264.00,0.5675
1263.00,0.5639
1262.00,0.5610
1261.00,0.5588
1260.00,0.5569
1259.00,0.5553
1258.00,0.5537
1257.00,0.5521
1256.00,0.5504
1255.00,0.5486
1254.00,0.5471
1253.00,0.5456
1252.00,0.5443
1251.00,0.5431
1250.00,0.5420
1249.00,0.5406
1248.00,0.5390
1247.00,0.5370
1246.00,0.5348
1245.00,0.5322
1244.00,0.5292
1243.00,0.5261
1242.00,0.5228
1241.00,0.5194
1240.00,0.5162
1239.00,0.5134
1238.00,0.5110
1237.00,0.5089
1236.00,0.5071
1235.00,0.5059
1234.00,0.5054
1233.00,0.5053
1232.00,0.5056
1231.00,0.5062
1230.00,0.5068
1229.00,0.5067
1228.00,0.5057
1227.00,0.5037
1226.00,0.5009
1225.00,0.4977
1224.00,0.4944
1223.00,0.4916
1222.00,0.4894
1221.00,0.4877
1220.00,0.4865
1219.00,0.4858
1218.00,0.4856
1217.00,0.4858
1216.00,0.4864
1215.00,0.4873
1214.00,0.4885
1213.00,0.4893
1212.00,0.4894
1211.00,0.4889
1210.00,0.4881
1209.00,0.4869
1208.00,0.4856
1207.00,0.4843
1206.00,0.4828
1205.00,0.4810
1204.00,0.4791
1203.00,0.4773
1202.00,0.4759
1201.00,0.4749
1200.00,0.4743
1199.00,0.4740
1198.00,0.4737
1197.00,0.4732
1196.00,0.4724
1195.00,0.4715
1194.00,0.4708
1193.00,0.4701
1192.00,0.4695
1191.00,0.4689
1190.00,0.4684
1189.00,0.4677
1188.00,0.4670
1187.00,0.4664
1186.00,0.4661
1185.00,0.4657
1184.00,0.4655
1183.00,0.4654
1182.00,0.4654
1181.00,0.4656
1180.00,0.4661
1179.00,0.4670
1178.00,0.4682
1177.00,0.4698
1176.00,0.4720
1175.00,0.4750
1174.00,0.4790
1173.00,0.4836
1172.00,0.4884
1171.00,0.4929
1170.00,0.4962
1169.00,0.4979
1168.00,0.4978
1167.00,0.4967
1166.00,0.4952
1165.00,0.4939
1164.00,0.4930
1163.00,0.4928
1162.00,0.4934
1161.00,0.4945
1160.00,0.4960
1159.00,0.4977
1158.00,0.4992
1157.00,0.5001
1156.00,0.5004
1155.00,0.5000
1154.00,0.4990
1153.00,0.4974
1152.00,0.4953
1151.00,0.4931
1150.00,0.4907
1149.00,0.4881
1148.00,0.4855
1147.00,0.4832
1146.00,0.4814
1145.00,0.4799
1144.00,0.4789
1143.00,0.4786
1142.00,0.4794
1141.00,0.4813
1140.00,0.4842
1139.00,0.4883
1138.00,0.4935
1137.00,0.5001
1136.00,0.5077
1135.00,0.5157
1134.00,0.5227
1133.00,0.5268
1132.00,0.5267
1131.00,0.5225
1130.00,0.5154
1129.00,0.5073
1128.00,0.4999
1127.00,0.4942
1126.00,0.4902
1125.00,0.4875
1124.00,0.4856
1123.00,0.4841
1122.00,0.4827
1121.00,0.4813
1120.00,0.4802
1119.00,0.4799
1118.00,0.4808
1117.00,0.4829
1116.00,0.4860
1115.00,0.4892
1114.00,0.4912
1113.00,0.4906
1112.00,0.4870
1111.00,0.4811
1110.00,0.4745
1109.00,0.4684
1108.00,0.4636
1107.00,0.4604
1106.00,0.4585
1105.00,0.4574
1104.00,0.4568
1103.00,0.4564
1102.00,0.4558
1101.00,0.4549
1100.00,0.4538
1099.00,0.4527
1098.00,0.4519
1097.00,0.4511
1096.00,0.4503
1095.00,0.4498
1094.00,0.4499
1093.00,0.4505
1092.00,0.4513
1091.00,0.4523
1090.00,0.4535
1089.00,0.4550
1088.00,0.4569
1087.00,0.4596
1086.00,0.4632
1085.00,0.4677
1084.00,0.4730
1083.00,0.4792
1082.00,0.4861
1081.00,0.4935
1080.00,0.5010
1079.00,0.5080
1078.00,0.5134
1077.00,0.5162
1076.00,0.5161
1075.00,0.5133
1074.00,0.5083
1073.00,0.5022
1072.00,0.4959
1071.00,0.4904
1070.00,0.4860
1069.00,0.4828
1068.00,0.4804
1067.00,0.4786
1066.00,0.4773
1065.00,0.4764
1064.00,0.4760
1063.00,0.4759
1062.00,0.4762
1061.00,0.4768
1060.00,0.4775
1059.00,0.4781
1058.00,0.4784
1057.00,0.4782
1056.00,0.4777
1055.00,0.4772
1054.00,0.4768
1053.00,0.4766
1052.00,0.4769
1051.00,0.4777
1050.00,0.4791
1049.00,0.4810
1048.00,0.4831
1047.00,0.4851
1046.00,0.4866
1045.00,0.4874
1044.00,0.4876
1043.00,0.4874
1042.00,0.4871
1041.00,0.4867
1040.00,0.4864
1039.00,0.4861
1038.00,0.4856
1037.00,0.4849
1036.00,0.4843
1035.00,0.4842
1034.00,0.4848
1033.00,0.4861
1032.00,0.4878
1031.00,0.4896
1030.00,0.4911
1029.00,0.4916
1028.00,0.4911
1027.00,0.4893
1026.00,0.4862
1025.00,0.4817
1024.00,0.4762
1023.00,0.4706
1022.00,0.4653
1021.00,0.4606
1020.00,0.4566
1019.00,0.4530
1018.00,0.4498
1017.00,0.4466
1016.00,0.4437
1015.00,0.4412
1014.00,0.4392
1013.00,0.4376
1012.00,0.4362
1011.00,0.4353
1010.00,0.4350
1009.00,0.4351
1008.00,0.4355
1007.00,0.4362
1006.00,0.4373
1005.00,0.4387
1004.00,0.4404
1003.00,0.4424
1002.00,0.4444
1001.00,0.4461
1000.00,0.4473
999.00,0.4481
998.00,0.4484
997.00,0.4480
996.00,0.4468
995.00,0.4449
994.00,0.4425
993.00,0.4396
992.00,0.4365
991.00,0.4333
990.00,0.4304
989.00,0.4278
988.00,0.4257
987.00,0.4245
986.00,0.4243
985.00,0.4250
984.00,0.4263
983.00,0.4282
982.00,0.4305
981.00,0.4329
980.00,0.4355
979.00,0.4379
978.00,0.4403
977.00,0.4426
976.00,0.4445
975.00,0.4461
974.00,0.4471
973.00,0.4475
972.00,0.4475
971.00,0.4474
970.00,0.4473
969.00,0.4471
968.00,0.4469
967.00,0.4465
966.00,0.4459
965.00,0.4451
964.00,0.4440
963.00,0.4428
962.00,0.4415
961.00,0.4403
960.00,0.4392
959.00,0.4382
958.00,0.4375
957.00,0.4369
956.00,0.4363
955.00,0.4355
954.00,0.4347
953.00,0.4337
952.00,0.4327
951.00,0.4317
950.00,0.4311
949.00,0.4309
948.00,0.4311
947.00,0.4317
946.00,0.4325
945.00,0.4335
944.00,0.4347
943.00,0.4361
942.00,0.4378
941.00,0.4395
940.00,0.4410
939.00,0.4420
938.00,0.4424
937.00,0.4421
936.00,0.4413
935.00,0.4401
934.00,0.4386
933.00,0.4366
932.00,0.4344
931.00,0.4321
930.00,0.4300
929.00,0.4283
928.00,0.4272
927.00,0.4272
926.00,0.4285
925.00,0.4311
924.00,0.4350
923.00,0.4399
922.00,0.4447
921.00,0.4477
920.00,0.4477
919.00,0.4442
918.00,0.4379
917.00,0.4300
916.00,0.4217
915.00,0.4141
914.00,0.4077
913.00,0.4027
912.00,0.3989
911.00,0.3961
910.00,0.3940
909.00,0.3922
908.00,0.3907
907.00,0.3895
906.00,0.3887
905.00,0.3883
904.00,0.3883
903.00,0.3890
902.00,0.3905
901.00,0.3925
900.00,0.3949
899.00,0.3978
898.00,0.4011
897.00,0.4046
896.00,0.4084
895.00,0.4123
894.00,0.4162
893.00,0.4202
892.00,0.4238
891.00,0.4272
890.00,0.4298
889.00,0.4313
888.00,0.4314
887.00,0.4300
886.00,0.4279
885.00,0.4255
884.00,0.4238
883.00,0.4230
882.00,0.4232
881.00,0.4244
880.00,0.4259
879.00,0.4273
878.00,0.4282
877.00,0.4282
876.00,0.4276
875.00,0.4270
874.00,0.4267
873.00,0.4270
872.00,0.4276
871.00,0.4284
870.00,0.4294
869.00,0.4304
868.00,0.4319
867.00,0.4341
866.00,0.4372
865.00,0.4409
864.00,0.4447
863.00,0.4476
862.00,0.4483
861.00,0.4461
860.00,0.4412
859.00,0.4350
858.00,0.4287
857.00,0.4233
856.00,0.4191
855.00,0.4161
854.00,0.4139
853.00,0.4122
852.00,0.4109
851.00,0.4097
850.00,0.4086
849.00,0.4071
848.00,0.4050
847.00,0.4024
846.00,0.3995
845.00,0.3966
844.00,0.3939
843.00,0.3918
842.00,0.3909
841.00,0.3915
840.00,0.3940
839.00,0.3984
838.00,0.4043
837.00,0.4104
836.00,0.4149
835.00,0.4164
834.00,0.4145
833.00,0.4104
832.00,0.4062
831.00,0.4033
830.00,0.4027
829.00,0.4042
828.00,0.4073
827.00,0.4115
826.00,0.4165
825.00,0.4222
824.00,0.4282
823.00,0.4348
822.00,0.4416
821.00,0.4485
820.00,0.4552
819.00,0.4616
818.00,0.4673
817.00,0.4716
816.00,0.4741
815.00,0.4744
814.00,0.4727
813.00,0.4693
812.00,0.4645
811.00,0.4589
810.00,0.4528
809.00,0.4467
808.00,0.4410
807.00,0.4361
806.00,0.4315
805.00,0.4269
804.00,0.4217
803.00,0.4161
802.00,0.4103
801.00,0.4045
800.00,0.3993
799.00,0.3951
798.00,0.3920
797.00,0.3898
796.00,0.3881
795.00,0.3871
794.00,0.3867
793.00,0.3871
792.00,0.3881
791.00,0.3897
790.00,0.3917
789.00,0.3940
788.00,0.3968
787.00,0.4000
786.00,0.4039
785.00,0.4083
784.00,0.4129
783.00,0.4174
782.00,0.4213
781.00,0.4241
780.00,0.4261
779.00,0.4279
778.00,0.4299
777.00,0.4318
776.00,0.4337
775.00,0.4355
774.00,0.4373
773.00,0.4392
772.00,0.4414
771.00,0.4440
770.00,0.4471
769.00,0.4504
768.00,0.4536
767.00,0.4564
766.00,0.4587
765.00,0.4604
764.00,0.4618
763.00,0.4634
762.00,0.4658
761.00,0.4690
760.00,0.4727
759.00,0.4769
758.00,0.4810
757.00,0.4844
756.00,0.4871
755.00,0.4896
754.00,0.4925
753.00,0.4961
752.00,0.5002
751.00,0.5047
750.00,0.5093
749.00,0.5139
748.00,0.5180
747.00,0.5218
746.00,0.5256
745.00,0.5297
744.00,0.5342
743.00,0.5392
742.00,0.5446
741.00,0.5501
740.00,0.5550
739.00,0.5592
738.00,0.5629
737.00,0.5665
736.00,0.5703
735.00,0.5747
734.00,0.5800
733.00,0.5863
732.00,0.5940
731.00,0.6035
730.00,0.6156
729.00,0.6304
728.00,0.6483
727.00,0.6696
726.00,0.6949
725.00,0.7234
724.00,0.7528
723.00,0.7777
722.00,0.7901
721.00,0.7823
720.00,0.7535
719.00,0.7111
718.00,0.6649
717.00,0.6221
716.00,0.5857
715.00,0.5563
714.00,0.5331
713.00,0.5144
712.00,0.4990
711.00,0.4863
710.00,0.4760
709.00,0.4675
708.00,0.4604
707.00,0.4545
706.00,0.4496
705.00,0.4454
704.00,0.4417
703.00,0.4388
702.00,0.4372
701.00,0.4364
700.00,0.4348
699.00,0.4302
698.00,0.4209
697.00,0.4070
696.00,0.3910
695.00,0.3760
694.00,0.3638
693.00,0.3549
692.00,0.3487
691.00,0.3444
690.00,0.3413
689.00,0.3388
688.00,0.3367
687.00,0.3349
686.00,0.3337
685.00,0.3326
684.00,0.3316
683.00,0.3307
682.00,0.3300
681.00,0.3295
680.00,0.3292
679.00,0.3291
678.00,0.3292
677.00,0.3291
676.00,0.3290
675.00,0.3290
674.00,0.3291
673.00,0.3293
672.00,0.3294
671.00,0.3297
670.00,0.3304
669.00,0.3311
668.00,0.3316
667.00,0.3319
666.00,0.3320
665.00,0.3322
664.00,0.3326
663.00,0.3334
662.00,0.3345
661.00,0.3357
660.00,0.3368
659.00,0.3377
658.00,0.3385
657.00,0.3393
656.00,0.3402
655.00,0.3413
654.00,0.3426
653.00,0.3438
652.00,0.3448
651.00,0.3456
650.00,0.3464
649.00,0.3475
648.00,0.3488
647.00,0.3503
646.00,0.3519
645.00,0.3533
644.00,0.3548
643.00,0.3566
642.00,0.3585
641.00,0.3603
640.00,0.3619
639.00,0.3632
638.00,0.3640
637.00,0.3643
636.00,0.3640
635.00,0.3637
634.00,0.3640
633.00,0.3648
632.00,0.3660
631.00,0.3673
630.00,0.3687
629.00,0.3701
628.00,0.3715
627.00,0.3731
626.00,0.3750
625.00,0.3768
624.00,0.3786
623.00,0.3805
622.00,0.3827
621.00,0.3849
620.00,0.3866
619.00,0.3876
618.00,0.3883
617.00,0.3889
616.00,0.3895
615.00,0.3900
614.00,0.3903
613.00,0.3902
612.00,0.3895
611.00,0.3883
610.00,0.3869
609.00,0.3853
608.00,0.3837
607.00,0.3821
606.00,0.3806
605.00,0.3794
604.00,0.3789
603.00,0.3789
602.00,0.3790
601.00,0.3791
600.00,0.3793
599.00,0.3797
598.00,0.3806
597.00,0.3815
596.00,0.3824
595.00,0.3831
594.00,0.3841
593.00,0.3853
592.00,0.3868
591.00,0.3885
590.00,0.3903
589.00,0.3921
588.00,0.3944
587.00,0.3973
586.00,0.4006
585.00,0.4037
584.00,0.4061
583.00,0.4080
582.00,0.4096
581.00,0.4114
580.00,0.4137
579.00,0.4163
578.00,0.4191
577.00,0.4214
576.00,0.4236
575.00,0.4257
574.00,0.4279
573.00,0.4297
572.00,0.4310
571.00,0.4322
570.00,0.4337
569.00,0.4358
568.00,0.4382
567.00,0.4403
566.00,0.4418
565.00,0.4426
564.00,0.4430
563.00,0.4432
562.00,0.4433
561.00,0.4436
560.00,0.4441
559.00,0.4451
558.00,0.4463
557.00,0.4474
556.00,0.4483
555.00,0.4492
554.00,0.4504
553.00,0.4520
552.00,0.4537
551.00,0.4552
550.00,0.4565
