Created as New Dataset,
cm-1,A
4000.00,0.3238
3999.00,0.3234
3998.00,0.3230
3997.00,0.3227
3996.00,0.3224
3995.00,0.3221
3994.00,0.3218
3993.00,0.3215
3992.00,0.3212
3991.00,0.3209
3990.00,0.3206
3989.00,0.3203
3988.00,0.3199
3987.00,0.3196
3986.00,0.3193
3985.00,0.3190
3984.00,0.3187
3983.00,0.3183
3982.00,0.3179
3981.00,0.3174
3980.00,0.3170
3979.00,0.3166
3978.00,0.3162
3977.00,0.3159
3976.00,0.3156
3975.00,0.3154
3974.00,0.3151
3973.00,0.3149
3972.00,0.3146
3971.00,0.3144
3970.00,0.3142
3969.00,0.3140
3968.00,0.3137
3967.00,0.3135
3966.00,0.3133
3965.00,0.3131
3964.00,0.3130
3963.00,0.3129
3962.00,0.3128
3961.00,0.3126
3960.00,0.3125
3959.00,0.3123
3958.00,0.3122
3957.00,0.3121
3956.00,0.3120
3955.00,0.3118
3954.00,0.3117
3953.00,0.3115
3952.00,0.3114
3951.00,0.3113
3950.00,0.3111
3949.00,0.3110
3948.00,0.3109
3947.00,0.3108
3946.00,0.3107
3945.00,0.3106
3944.00,0.3105
3943.00,0.3104
3942.00,0.3102
3941.00,0.3101
3940.00,0.3099
3939.00,0.3098
3938.00,0.3097
3937.00,0.3096
3936.00,0.3095
3935.00,0.3095
3934.00,0.3094
3933.00,0.3094
3932.00,0.3095
3931.00,0.3095
3930.00,0.3095
3929.00,0.3094
3928.00,0.3093
3927.00,0.3093
3926.00,0.3093
3925.00,0.3092
3924.00,0.3092
3923.00,0.3092
3922.00,0.3093
3921.00,0.3094
3920.00,0.3094
3919.00,0.3095
3918.00,0.3095
3917.00,0.3094
3916.00,0.3093
3915.00,0.3092
3914.00,0.3091
3913.00,0.3091
3912.00,0.3090
3911.00,0.3088
3910.00,0.3087
3909.00,0.3086
3908.00,0.3086
3907.00,0.3088
3906.00,0.3089
3905.00,0.3091
3904.00,0.3092
3903.00,0.3093
3902.00,0.3094
3901.00,0.3094
3900.00,0.3094
3899.00,0.3092
3898.00,0.3090
3897.00,0.3087
3896.00,0.3084
3895.00,0.3082
3894.00,0.3081
3893.00,0.3080
3892.00,0.3079
3891.00,0.3078
3890.00,0.3077
3889.00,0.3077
3888.00,0.3078
3887.00,0.3079
3886.00,0.3079
3885.00,0.3079
3884.00,0.3079
3883.00,0.3079
3882.00,0.3080
3881.00,0.3081
3880.00,0.3079
3879.00,0.3077
3878.00,0.3075
3877.00,0.3073
3876.00,0.3073
3875.00,0.3073
3874.00,0.3072
3873.00,0.3071
3872.00,0.3070
3871.00,0.3070
3870.00,0.3070
3869.00,0.3071
3868.00,0.3070
3867.00,0.3070
3866.00,0.3069
3865.00,0.3067
3864.00,0.3064
3863.00,0.3061
3862.00,0.3058
3861.00,0.3055
3860.00,0.3053
3859.00,0.3052
3858.00,0.3052
3857.00,0.3054
3856.00,0.3055
3855.00,0.3056
3854.00,0.3058
3853.00,0.3059
3852.00,0.3061
3851.00,0.3061
3850.00,0.3060
3849.00,0.3057
3848.00,0.3054
3847.00,0.3051
3846.00,0.3048
3845.00,0.3046
3844.00,0.3044
3843.00,0.3044
3842.00,0.3045
3841.00,0.3047
3840.00,0.3049
3839.00,0.3051
3838.00,0.3051
3837.00,0.3052
3836.00,0.3052
3835.00,0.3052
3834.00,0.3051
3833.00,0.3049
3832.00,0.3046
3831.00,0.3042
3830.00,0.3038
3829.00,0.3035
3828.00,0.3033
3827.00,0.3032
3826.00,0.3030
3825.00,0.3029
3824.00,0.3028
3823.00,0.3029
3822.00,0.3030
3821.00,0.3031
3820.00,0.3031
3819.00,0.3030
3818.00,0.3029
3817.00,0.3027
3816.00,0.3025
3815.00,0.3022
3814.00,0.3018
3813.00,0.3015
3812.00,0.3012
3811.00,0.3009
3810.00,0.3007
3809.00,0.3006
3808.00,0.3004
3807.00,0.3003
3806.00,0.3001
3805.00,0.3001
3804.00,0.3002
3803.00,0.3003
3802.00,0.3003
3801.00,0.3002
3800.00,0.3001
3799.00,0.2999
3798.00,0.2997
3797.00,0.2995
3796.00,0.2991
3795.00,0.2987
3794.00,0.2983
3793.00,0.2980
3792.00,0.2977
3791.00,0.2974
3790.00,0.2970
3789.00,0.2968
3788.00,0.2965
3787.00,0.2963
3786.00,0.2962
3785.00,0.2961
3784.00,0.2960
3783.00,0.2959
3782.00,0.2958
3781.00,0.2957
3780.00,0.2955
3779.00,0.2953
3778.00,0.2951
3777.00,0.2949
3776.00,0.2948
3775.00,0.2947
3774.00,0.2946
3773.00,0.2945
3772.00,0.2944
3771.00,0.2943
3770.00,0.2943
3769.00,0.2943
3768.00,0.2943
3767.00,0.2943
3766.00,0.2942
3765.00,0.2940
3764.00,0.2938
3763.00,0.2936
3762.00,0.2935
3761.00,0.2934
3760.00,0.2932
3759.00,0.2930
3758.00,0.2929
3757.00,0.2928
3756.00,0.2927
3755.00,0.2927
3754.00,0.2927
3753.00,0.2926
3752.00,0.2925
3751.00,0.2926
3750.00,0.2927
3749.00,0.2929
3748.00,0.2931
3747.00,0.2933
3746.00,0.2934
3745.00,0.2932
3744.00,0.2928
3743.00,0.2922
3742.00,0.2918
3741.00,0.2915
3740.00,0.2914
3739.00,0.2912
3738.00,0.2910
3737.00,0.2909
3736.00,0.2909
3735.00,0.2911
3734.00,0.2912
3733.00,0.2912
3732.00,0.2910
3731.00,0.2907
3730.00,0.2903
3729.00,0.2900
3728.00,0.2897
3727.00,0.2894
3726.00,0.2890
3725.00,0.2886
3724.00,0.2884
3723.00,0.2883
3722.00,0.2882
3721.00,0.2880
3720.00,0.2879
3719.00,0.2877
3718.00,0.2875
3717.00,0.2873
3716.00,0.2870
3715.00,0.2869
3714.00,0.2868
3713.00,0.2867
3712.00,0.2868
3711.00,0.2869
3710.00,0.2871
3709.00,0.2872
3708.00,0.2872
3707.00,0.2871
3706.00,0.2869
3705.00,0.2867
3704.00,0.2865
3703.00,0.2864
3702.00,0.2862
3701.00,0.2861
3700.00,0.2860
3699.00,0.2859
3698.00,0.2859
3697.00,0.2859
3696.00,0.2859
3695.00,0.2860
3694.00,0.2861
3693.00,0.2863
3692.00,0.2865
3691.00,0.2868
3690.00,0.2870
3689.00,0.2871
3688.00,0.2871
3687.00,0.2871
3686.00,0.2870
3685.00,0.2868
3684.00,0.2866
3683.00,0.2863
3682.00,0.2860
3681.00,0.2857
3680.00,0.2856
3679.00,0.2856
3678.00,0.2856
3677.00,0.2857
3676.00,0.2858
3675.00,0.2861
3674.00,0.2863
3673.00,0.2865
3672.00,0.2866
3671.00,0.2867
3670.00,0.2866
3669.00,0.2864
3668.00,0.2861
3667.00,0.2859
3666.00,0.2857
3665.00,0.2855
3664.00,0.2853
3663.00,0.2851
3662.00,0.2850
3661.00,0.2850
3660.00,0.2851
3659.00,0.2852
3658.00,0.2855
3657.00,0.2857
3656.00,0.2859
3655.00,0.2861
3654.00,0.2864
3653.00,0.2868
3652.00,0.2872
3651.00,0.2876
3650.00,0.2878
3649.00,0.2881
3648.00,0.2884
3647.00,0.2886
3646.00,0.2887
3645.00,0.2885
3644.00,0.2883
3643.00,0.2880
3642.00,0.2877
3641.00,0.2874
3640.00,0.2873
3639.00,0.2872
3638.00,0.2871
3637.00,0.2871
3636.00,0.2872
3635.00,0.2874
3634.00,0.2877
3633.00,0.2881
3632.00,0.2886
3631.00,0.2891
3630.00,0.2896
3629.00,0.2902
3628.00,0.2906
3627.00,0.2909
3626.00,0.2911
3625.00,0.2913
3624.00,0.2915
3623.00,0.2915
3622.00,0.2915
3621.00,0.2915
3620.00,0.2916
3619.00,0.2916
3618.00,0.2917
3617.00,0.2917
3616.00,0.2917
3615.00,0.2916
3614.00,0.2916
3613.00,0.2915
3612.00,0.2915
3611.00,0.2915
3610.00,0.2914
3609.00,0.2913
3608.00,0.2912
3607.00,0.2911
3606.00,0.2909
3605.00,0.2907
3604.00,0.2904
3603.00,0.2900
3602.00,0.2895
3601.00,0.2890
3600.00,0.2885
3599.00,0.2881
3598.00,0.2876
3597.00,0.2872
3596.00,0.2867
3595.00,0.2863
3594.00,0.2859
3593.00,0.2856
3592.00,0.2853
3591.00,0.2851
3590.00,0.2850
3589.00,0.2849
3588.00,0.2848
3587.00,0.2848
3586.00,0.2848
3585.00,0.2847
3584.00,0.2846
3583.00,0.2845
3582.00,0.2843
3581.00,0.2841
3580.00,0.2840
3579.00,0.2839
3578.00,0.2838
3577.00,0.2838
3576.00,0.2838
3575.00,0.2839
3574.00,0.2840
3573.00,0.2840
3572.00,0.2841
3571.00,0.2843
3570.00,0.2845
3569.00,0.2847
3568.00,0.2849
3567.00,0.2852
3566.00,0.2856
3565.00,0.2859
3564.00,0.2862
3563.00,0.2863
3562.00,0.2864
3561.00,0.2865
3560.00,0.2866
3559.00,0.2868
3558.00,0.2871
3557.00,0.2873
3556.00,0.2877
3555.00,0.2880
3554.00,0.2883
3553.00,0.2887
3552.00,0.2891
3551.00,0.2895
3550.00,0.2898
3549.00,0.2902
3548.00,0.2906
3547.00,0.2911
3546.00,0.2916
3545.00,0.2921
3544.00,0.2924
3543.00,0.2927
3542.00,0.2930
3541.00,0.2933
3540.00,0.2935
3539.00,0.2937
3538.00,0.2940
3537.00,0.2943
3536.00,0.2946
3535.00,0.2948
3534.00,0.2951
3533.00,0.2953
3532.00,0.2955
3531.00,0.2956
3530.00,0.2958
3529.00,0.2960
3528.00,0.2962
3527.00,0.2965
3526.00,0.2969
3525.00,0.2973
3524.00,0.2977
3523.00,0.2981
3522.00,0.2984
3521.00,0.2987
3520.00,0.2991
3519.00,0.2994
3518.00,0.2998
3517.00,0.3001
3516.00,0.3005
3515.00,0.3009
3514.00,0.3013
3513.00,0.3017
3512.00,0.3021
3511.00,0.3026
3510.00,0.3031
3509.00,0.3036
3508.00,0.3041
3507.00,0.3045
3506.00,0.3049
3505.00,0.3053
3504.00,0.3057
3503.00,0.3060
3502.00,0.3065
3501.00,0.3069
3500.00,0.3074
3499.00,0.3079
3498.00,0.3083
3497.00,0.3088
3496.00,0.3093
3495.00,0.3099
3494.00,0.3104
3493.00,0.3110
3492.00,0.3117
3491.00,0.3123
3490.00,0.3130
3489.00,0.3137
3488.00,0.3145
3487.00,0.3152
3486.00,0.3159
3485.00,0.3165
3484.00,0.3171
3483.00,0.3177
3482.00,0.3182
3481.00,0.3187
3480.00,0.3192
3479.00,0.3197
3478.00,0.3201
3477.00,0.3204
3476.00,0.3208
3475.00,0.3212
3474.00,0.3216
3473.00,0.3220
3472.00,0.3225
3471.00,0.3229
3470.00,0.3234
3469.00,0.3238
3468.00,0.3242
3467.00,0.3246
3466.00,0.3250
3465.00,0.3255
3464.00,0.3259
3463.00,0.3264
3462.00,0.3269
3461.00,0.3274
3460.00,0.3279
3459.00,0.3284
3458.00,0.3289
3457.00,0.3294
3456.00,0.3299
3455.00,0.3305
3454.00,0.3311
3453.00,0.3317
3452.00,0.3324
3451.00,0.3331
3450.00,0.3337
3449.00,0.3343
3448.00,0.3349
3447.00,0.3354
3446.00,0.3361
3445.00,0.3368
3444.00,0.3375
3443.00,0.3382
3442.00,0.3389
3441.00,0.3395
3440.00,0.3401
3439.00,0.3406
3438.00,0.3412
3437.00,0.3419
3436.00,0.3425
3435.00,0.3431
3434.00,0.3437
3433.00,0.3443
3432.00,0.3449
3431.00,0.3454
3430.00,0.3460
3429.00,0.3466
3428.00,0.3472
3427.00,0.3478
3426.00,0.3484
3425.00,0.3491
3424.00,0.3497
3423.00,0.3504
3422.00,0.3512
3421.00,0.3520
3420.00,0.3527
3419.00,0.3534
3418.00,0.3542
3417.00,0.3550
3416.00,0.3558
3415.00,0.3566
3414.00,0.3574
3413.00,0.3582
3412.00,0.3590
3411.00,0.3598
3410.00,0.3606
3409.00,0.3614
3408.00,0.3621
3407.00,0.3629
3406.00,0.3637
3405.00,0.3645
3404.00,0.3654
3403.00,0.3663
3402.00,0.3672
3401.00,0.3681
3400.00,0.3691
3399.00,0.3701
3398.00,0.3711
3397.00,0.3720
3396.00,0.3729
3395.00,0.3738
3394.00,0.3746
3393.00,0.3754
3392.00,0.3762
3391.00,0.3770
3390.00,0.3778
3389.00,0.3786
3388.00,0.3794
3387.00,0.3802
3386.00,0.3811
3385.00,0.3820
3384.00,0.3829
3383.00,0.3839
3382.00,0.3849
3381.00,0.3859
3380.00,0.3870
3379.00,0.3880
3378.00,0.3891
3377.00,0.3901
3376.00,0.3912
3375.00,0.3922
3374.00,0.3932
3373.00,0.3943
3372.00,0.3953
3371.00,0.3964
3370.00,0.3975
3369.00,0.3986
3368.00,0.3999
3367.00,0.4011
3366.00,0.4022
3365.00,0.4033
3364.00,0.4043
3363.00,0.4055
3362.00,0.4068
3361.00,0.4082
3360.00,0.4096
3359.00,0.4110
3358.00,0.4123
3357.00,0.4136
3356.00,0.4148
3355.00,0.4161
3354.00,0.4174
3353.00,0.4187
3352.00,0.4201
3351.00,0.4214
3350.00,0.4227
3349.00,0.4240
3348.00,0.4253
3347.00,0.4266
3346.00,0.4279
3345.00,0.4291
3344.00,0.4303
3343.00,0.4315
3342.00,0.4327
3341.00,0.4338
3340.00,0.4349
3339.00,0.4359
3338.00,0.4369
3337.00,0.4378
3336.00,0.4386
3335.00,0.4393
3334.00,0.4400
3333.00,0.4405
3332.00,0.4411
3331.00,0.4416
3330.00,0.4420
3329.00,0.4423
3328.00,0.4426
3327.00,0.4428
3326.00,0.4429
3325.00,0.4429
3324.00,0.4429
3323.00,0.4427
3322.00,0.4425
3321.00,0.4423
3320.00,0.4420
3319.00,0.4416
3318.00,0.4412
3317.00,0.4409
3316.00,0.4405
3315.00,0.4401
3314.00,0.4396
3313.00,0.4391
3312.00,0.4386
3311.00,0.4380
3310.00,0.4374
3309.00,0.4368
3308.00,0.4361
3307.00,0.4354
3306.00,0.4347
3305.00,0.4340
3304.00,0.4333
3303.00,0.4326
3302.00,0.4320
3301.00,0.4313
3300.00,0.4306
3299.00,0.4300
3298.00,0.4293
3297.00,0.4287
3296.00,0.4281
3295.00,0.4276
3294.00,0.4272
3293.00,0.4268
3292.00,0.4264
3291.00,0.4259
3290.00,0.4256
3289.00,0.4253
3288.00,0.4251
3287.00,0.4248
3286.00,0.4245
3285.00,0.4243
3284.00,0.4242
3283.00,0.4242
3282.00,0.4243
3281.00,0.4244
3280.00,0.4245
3279.00,0.4247
3278.00,0.4248
3277.00,0.4249
3276.00,0.4251
3275.00,0.4253
3274.00,0.4256
3273.00,0.4260
3272.00,0.4264
3271.00,0.4267
3270.00,0.4271
3269.00,0.4274
3268.00,0.4278
3267.00,0.4281
3266.00,0.4285
3265.00,0.4289
3264.00,0.4293
3263.00,0.4297
3262.00,0.4302
3261.00,0.4306
3260.00,0.4311
3259.00,0.4315
3258.00,0.4319
3257.00,0.4323
3256.00,0.4328
3255.00,0.4333
3254.00,0.4338
3253.00,0.4342
3252.00,0.4347
3251.00,0.4351
3250.00,0.4356
3249.00,0.4360
3248.00,0.4364
3247.00,0.4368
3246.00,0.4373
3245.00,0.4377
3244.00,0.4382
3243.00,0.4387
3242.00,0.4391
3241.00,0.4394
3240.00,0.4398
3239.00,0.4400
3238.00,0.4403
3237.00,0.4406
3236.00,0.4409
3235.00,0.4411
3234.00,0.4413
3233.00,0.4415
3232.00,0.4417
3231.00,0.4418
3230.00,0.4420
3229.00,0.4420
3228.00,0.4420
3227.00,0.4419
3226.00,0.4419
3225.00,0.4420
3224.00,0.4420
3223.00,0.4420
3222.00,0.4419
3221.00,0.4418
3220.00,0.4418
3219.00,0.4418
3218.00,0.4418
3217.00,0.4418
3216.00,0.4418
3215.00,0.4418
3214.00,0.4418
3213.00,0.4419
3212.00,0.4419
3211.00,0.4419
3210.00,0.4419
3209.00,0.4419
3208.00,0.4419
3207.00,0.4418
3206.00,0.4417
3205.00,0.4417
3204.00,0.4417
3203.00,0.4417
3202.00,0.4416
3201.00,0.4416
3200.00,0.4415
3199.00,0.4414
3198.00,0.4413
3197.00,0.4412
3196.00,0.4411
3195.00,0.4409
3194.00,0.4408
3193.00,0.4406
3192.00,0.4404
3191.00,0.4400
3190.00,0.4396
3189.00,0.4393
3188.00,0.4389
3187.00,0.4386
3186.00,0.4382
3185.00,0.4378
3184.00,0.4374
3183.00,0.4370
3182.00,0.4366
3181.00,0.4362
3180.00,0.4357
3179.00,0.4352
3178.00,0.4347
3177.00,0.4342
3176.00,0.4336
3175.00,0.4331
3174.00,0.4326
3173.00,0.4321
3172.00,0.4316
3171.00,0.4311
3170.00,0.4306
3169.00,0.4300
3168.00,0.4294
3167.00,0.4288
3166.00,0.4281
3165.00,0.4275
3164.00,0.4269
3163.00,0.4263
3162.00,0.4257
3161.00,0.4250
3160.00,0.4244
3159.00,0.4238
3158.00,0.4231
3157.00,0.4225
3156.00,0.4217
3155.00,0.4210
3154.00,0.4204
3153.00,0.4197
3152.00,0.4190
3151.00,0.4183
3150.00,0.4176
3149.00,0.4169
3148.00,0.4164
3147.00,0.4158
3146.00,0.4152
3145.00,0.4147
3144.00,0.4142
3143.00,0.4137
3142.00,0.4132
3141.00,0.4129
3140.00,0.4125
3139.00,0.4122
3138.00,0.4119
3137.00,0.4116
3136.00,0.4114
3135.00,0.4112
3134.00,0.4109
3133.00,0.4108
3132.00,0.4107
3131.00,0.4106
3130.00,0.4105
3129.00,0.4105
3128.00,0.4105
3127.00,0.4105
3126.00,0.4106
3125.00,0.4107
3124.00,0.4108
3123.00,0.4109
3122.00,0.4111
3121.00,0.4113
3120.00,0.4116
3119.00,0.4118
3118.00,0.4121
3117.00,0.4124
3116.00,0.4128
3115.00,0.4131
3114.00,0.4135
3113.00,0.4139
3112.00,0.4145
3111.00,0.4152
3110.00,0.4160
3109.00,0.4169
3108.00,0.4177
3107.00,0.4186
3106.00,0.4195
3105.00,0.4204
3104.00,0.4214
3103.00,0.4223
3102.00,0.4233
3101.00,0.4243
3100.00,0.4253
3099.00,0.4263
3098.00,0.4274
3097.00,0.4285
3096.00,0.4298
3095.00,0.4312
3094.00,0.4327
3093.00,0.4344
3092.00,0.4363
3091.00,0.4383
3090.00,0.4406
3089.00,0.4430
3088.00,0.4454
3087.00,0.4479
3086.00,0.4505
3085.00,0.4532
3084.00,0.4560
3083.00,0.4590
3082.00,0.4621
3081.00,0.4655
3080.00,0.4690
3079.00,0.4726
3078.00,0.4766
3077.00,0.4807
3076.00,0.4851
3075.00,0.4896
3074.00,0.4941
3073.00,0.4985
3072.00,0.5029
3071.00,0.5073
3070.00,0.5117
3069.00,0.5162
3068.00,0.5206
3067.00,0.5249
3066.00,0.5292
3065.00,0.5334
3064.00,0.5373
3063.00,0.5409
3062.00,0.5441
3061.00,0.5470
3060.00,0.5497
3059.00,0.5524
3058.00,0.5550
3057.00,0.5577
3056.00,0.5605
3055.00,0.5634
3054.00,0.5666
3053.00,0.5700
3052.00,0.5736
3051.00,0.5774
3050.00,0.5814
3049.00,0.5857
3048.00,0.5902
3047.00,0.5948
3046.00,0.5994
3045.00,0.6041
3044.00,0.6088
3043.00,0.6134
3042.00,0.6181
3041.00,0.6227
3040.00,0.6273
3039.00,0.6319
3038.00,0.6367
3037.00,0.6417
3036.00,0.6472
3035.00,0.6530
3034.00,0.6593
3033.00,0.6660
3032.00,0.6732
3031.00,0.6809
3030.00,0.6889
3029.00,0.6973
3028.00,0.7060
3027.00,0.7152
3026.00,0.7247
3025.00,0.7346
3024.00,0.7448
3023.00,0.7553
3022.00,0.7660
3021.00,0.7771
3020.00,0.7885
3019.00,0.7999
3018.00,0.8115
3017.00,0.8232
3016.00,0.8350
3015.00,0.8468
3014.00,0.8589
3013.00,0.8712
3012.00,0.8838
3011.00,0.8968
3010.00,0.9101
3009.00,0.9241
3008.00,0.9387
3007.00,0.9539
3006.00,0.9698
3005.00,0.9864
3004.00,1.0035
3003.00,1.0212
3002.00,1.0393
3001.00,1.0581
3000.00,1.0776
2999.00,1.0983
2998.00,1.1205
2997.00,1.1447
2996.00,1.1713
2995.00,1.2008
2994.00,1.2338
2993.00,1.2707
2992.00,1.3118
2991.00,1.3574
2990.00,1.4083
2989.00,1.4654
2988.00,1.5295
2987.00,1.6009
2986.00,1.6801
2985.00,1.7672
2984.00,1.8630
2983.00,1.9686
2982.00,2.0861
2981.00,2.2177
2980.00,2.3640
2979.00,2.5222
2978.00,2.6867
2977.00,2.8514
2976.00,3.0158
2975.00,3.1858
2974.00,3.3653
2973.00,3.5389
2972.00,3.6599
2971.00,3.6915
2970.00,3.6547
2969.00,3.6079
2968.00,3.6011
2967.00,3.6509
2966.00,3.7229
2965.00,3.7420
2964.00,3.6946
2963.00,3.6385
2962.00,3.5999
2961.00,3.5764
2960.00,3.5766
2959.00,3.6047
2958.00,3.6310
2957.00,3.6215
2956.00,3.5957
2955.00,3.5947
2954.00,3.6192
2953.00,3.6401
2952.00,3.6509
2951.00,3.6690
2950.00,3.6974
2949.00,3.7192
2948.00,3.7419
2947.00,3.8081
2946.00,3.9324
2945.00,4.0607
2944.00,4.0505
2943.00,3.9254
2942.00,3.8128
2941.00,3.7507
2940.00,3.7471
2939.00,3.7836
2938.00,3.8032
2937.00,3.7672
2936.00,3.7260
2935.00,3.7242
2934.00,3.7276
2933.00,3.7153
2932.00,3.7239
2931.00,3.8178
2930.00,4.0593
2929.00,4.2035
2928.00,3.9805
2927.00,3.7978
2926.00,3.7642
2925.00,3.8848
2924.00,4.0698
2923.00,4.1071
2922.00,3.9369
2921.00,3.7774
2920.00,3.7679
2919.00,3.8793
2918.00,4.0929
2917.00,4.2530
2916.00,4.0791
2915.00,3.9479
2914.00,3.9723
2913.00,4.1050
2912.00,4.1047
2911.00,4.0260
2910.00,3.9896
2909.00,4.0000
2908.00,4.0731
2907.00,4.2359
2906.00,4.3355
2905.00,4.1463
2904.00,3.9669
2903.00,3.9210
2902.00,4.0775
2901.00,4.3086
2900.00,4.1820
2899.00,4.0122
2898.00,3.9274
2897.00,3.8790
2896.00,3.7803
2895.00,3.7477
2894.00,3.8355
2893.00,3.9785
2892.00,4.0746
2891.00,4.0050
2890.00,3.8459
2889.00,3.7362
2888.00,3.7428
2887.00,3.9025
2886.00,4.1075
2885.00,4.0709
2884.00,3.9129
2883.00,3.8322
2882.00,3.8581
2881.00,3.9254
2880.00,3.9627
2879.00,3.9052
2878.00,3.7826
2877.00,3.6726
2876.00,3.6131
2875.00,3.6292
2874.00,3.7022
2873.00,3.7726
2872.00,3.8217
2871.00,3.8679
2870.00,3.8937
2869.00,3.8468
2868.00,3.7458
2867.00,3.6750
2866.00,3.6610
2865.00,3.6777
2864.00,3.6988
2863.00,3.7374
2862.00,3.7902
2861.00,3.8124
2860.00,3.7977
2859.00,3.8231
2858.00,3.9124
2857.00,3.9864
2856.00,3.9801
2855.00,3.8969
2854.00,3.8221
2853.00,3.8084
2852.00,3.8742
2851.00,3.9884
2850.00,4.0072
2849.00,3.9166
2848.00,3.8429
2847.00,3.8224
2846.00,3.7988
2845.00,3.7278
2844.00,3.6727
2843.00,3.6886
2842.00,3.7400
2841.00,3.7398
2840.00,3.6547
2839.00,3.5088
2838.00,3.3094
2837.00,3.0814
2836.00,2.8633
2835.00,2.6693
2834.00,2.4957
2833.00,2.3368
2832.00,2.1906
2831.00,2.0585
2830.00,1.9407
2829.00,1.8362
2828.00,1.7429
2827.00,1.6589
2826.00,1.5830
2825.00,1.5141
2824.00,1.4518
2823.00,1.3953
2822.00,1.3437
2821.00,1.2960
2820.00,1.2520
2819.00,1.2114
2818.00,1.1737
2817.00,1.1385
2816.00,1.1057
2815.00,1.0749
2814.00,1.0462
2813.00,1.0193
2812.00,0.9940
2811.00,0.9702
2810.00,0.9475
2809.00,0.9260
2808.00,0.9054
2807.00,0.8857
2806.00,0.8672
2805.00,0.8496
2804.00,0.8329
2803.00,0.8172
2802.00,0.8023
2801.00,0.7881
2800.00,0.7746
2799.00,0.7616
2798.00,0.7492
2797.00,0.7373
2796.00,0.7259
2795.00,0.7149
2794.00,0.7042
2793.00,0.6937
2792.00,0.6835
2791.00,0.6735
2790.00,0.6639
2789.00,0.6544
2788.00,0.6452
2787.00,0.6361
2786.00,0.6273
2785.00,0.6186
2784.00,0.6101
2783.00,0.6019
2782.00,0.5941
2781.00,0.5865
2780.00,0.5793
2779.00,0.5723
2778.00,0.5657
2777.00,0.5594
2776.00,0.5535
2775.00,0.5479
2774.00,0.5426
2773.00,0.5377
2772.00,0.5331
2771.00,0.5289
2770.00,0.5249
2769.00,0.5212
2768.00,0.5179
2767.00,0.5150
2766.00,0.5125
2765.00,0.5102
2764.00,0.5082
2763.00,0.5064
2762.00,0.5049
2761.00,0.5035
2760.00,0.5022
2759.00,0.5010
2758.00,0.4998
2757.00,0.4987
2756.00,0.4976
2755.00,0.4967
2754.00,0.4959
2753.00,0.4952
2752.00,0.4947
2751.00,0.4945
2750.00,0.4944
2749.00,0.4945
2748.00,0.4947
2747.00,0.4952
2746.00,0.4959
2745.00,0.4969
2744.00,0.4981
2743.00,0.4997
2742.00,0.5016
2741.00,0.5040
2740.00,0.5068
2739.00,0.5100
2738.00,0.5137
2737.00,0.5179
2736.00,0.5226
2735.00,0.5277
2734.00,0.5331
2733.00,0.5383
2732.00,0.5431
2731.00,0.5472
2730.00,0.5503
2729.00,0.5522
2728.00,0.5531
2727.00,0.5531
2726.00,0.5523
2725.00,0.5510
2724.00,0.5491
2723.00,0.5468
2722.00,0.5441
2721.00,0.5411
2720.00,0.5378
2719.00,0.5343
2718.00,0.5305
2717.00,0.5264
2716.00,0.5221
2715.00,0.5177
2714.00,0.5132
2713.00,0.5088
2712.00,0.5046
2711.00,0.5007
2710.00,0.4972
2709.00,0.4942
2708.00,0.4916
2707.00,0.4894
2706.00,0.4876
2705.00,0.4861
2704.00,0.4850
2703.00,0.4842
2702.00,0.4836
2701.00,0.4832
2700.00,0.4830
2699.00,0.4830
2698.00,0.4833
2697.00,0.4837
2696.00,0.4844
2695.00,0.4851
2694.00,0.4859
2693.00,0.4868
2692.00,0.4876
2691.00,0.4886
2690.00,0.4895
2689.00,0.4905
2688.00,0.4914
2687.00,0.4922
2686.00,0.4928
2685.00,0.4933
2684.00,0.4937
2683.00,0.4941
2682.00,0.4945
2681.00,0.4948
2680.00,0.4951
2679.00,0.4955
2678.00,0.4959
2677.00,0.4964
2676.00,0.4968
2675.00,0.4972
2674.00,0.4976
2673.00,0.4979
2672.00,0.4980
2671.00,0.4979
2670.00,0.4977
2669.00,0.4972
2668.00,0.4964
2667.00,0.4953
2666.00,0.4940
2665.00,0.4925
2664.00,0.4909
2663.00,0.4891
2662.00,0.4873
2661.00,0.4854
2660.00,0.4834
2659.00,0.4813
2658.00,0.4792
2657.00,0.4772
2656.00,0.4751
2655.00,0.4732
2654.00,0.4713
2653.00,0.4696
2652.00,0.4679
2651.00,0.4663
2650.00,0.4648
2649.00,0.4634
2648.00,0.4619
2647.00,0.4606
2646.00,0.4593
2645.00,0.4581
2644.00,0.4569
2643.00,0.4557
2642.00,0.4545
2641.00,0.4535
2640.00,0.4525
2639.00,0.4515
2638.00,0.4505
2637.00,0.4496
2636.00,0.4486
2635.00,0.4478
2634.00,0.4470
2633.00,0.4463
2632.00,0.4456
2631.00,0.4449
2630.00,0.4441
2629.00,0.4433
2628.00,0.4425
2627.00,0.4417
2626.00,0.4408
2625.00,0.4400
2624.00,0.4391
2623.00,0.4383
2622.00,0.4375
2621.00,0.4368
2620.00,0.4361
2619.00,0.4353
2618.00,0.4345
2617.00,0.4336
2616.00,0.4326
2615.00,0.4317
2614.00,0.4307
2613.00,0.4297
2612.00,0.4287
2611.00,0.4277
2610.00,0.4267
2609.00,0.4256
2608.00,0.4246
2607.00,0.4235
2606.00,0.4225
2605.00,0.4216
2604.00,0.4206
2603.00,0.4195
2602.00,0.4184
2601.00,0.4172
2600.00,0.4160
2599.00,0.4147
2598.00,0.4135
2597.00,0.4122
2596.00,0.4108
2595.00,0.4093
2594.00,0.4079
2593.00,0.4066
2592.00,0.4052
2591.00,0.4038
2590.00,0.4023
2589.00,0.4008
2588.00,0.3993
2587.00,0.3978
2586.00,0.3962
2585.00,0.3947
2584.00,0.3931
2583.00,0.3914
2582.00,0.3897
2581.00,0.3879
2580.00,0.3862
2579.00,0.3845
2578.00,0.3828
2577.00,0.3811
2576.00,0.3794
2575.00,0.3777
2574.00,0.3761
2573.00,0.3744
2572.00,0.3728
2571.00,0.3711
2570.00,0.3696
2569.00,0.3681
2568.00,0.3666
2567.00,0.3651
2566.00,0.3636
2565.00,0.3622
2564.00,0.3608
2563.00,0.3594
2562.00,0.3581
2561.00,0.3568
2560.00,0.3557
2559.00,0.3545
2558.00,0.3534
2557.00,0.3523
2556.00,0.3512
2555.00,0.3501
2554.00,0.3491
2553.00,0.3481
2552.00,0.3472
2551.00,0.3463
2550.00,0.3454
2549.00,0.3445
2548.00,0.3436
2547.00,0.3427
2546.00,0.3418
2545.00,0.3409
2544.00,0.3401
2543.00,0.3392
2542.00,0.3383
2541.00,0.3374
2540.00,0.3365
2539.00,0.3357
2538.00,0.3349
2537.00,0.3342
2536.00,0.3334
2535.00,0.3327
2534.00,0.3319
2533.00,0.3311
2532.00,0.3304
2531.00,0.3295
2530.00,0.3287
2529.00,0.3278
2528.00,0.3269
2527.00,0.3260
2526.00,0.3251
2525.00,0.3242
2524.00,0.3234
2523.00,0.3225
2522.00,0.3217
2521.00,0.3209
2520.00,0.3201
2519.00,0.3193
2518.00,0.3185
2517.00,0.3178
2516.00,0.3171
2515.00,0.3164
2514.00,0.3157
2513.00,0.3150
2512.00,0.3143
2511.00,0.3135
2510.00,0.3128
2509.00,0.3121
2508.00,0.3114
2507.00,0.3107
2506.00,0.3101
2505.00,0.3095
2504.00,0.3089
2503.00,0.3084
2502.00,0.3078
2501.00,0.3072
2500.00,0.3065
2499.00,0.3060
2498.00,0.3054
2497.00,0.3049
2496.00,0.3045
2495.00,0.3040
2494.00,0.3035
2493.00,0.3030
2492.00,0.3026
2491.00,0.3022
2490.00,0.3018
2489.00,0.3014
2488.00,0.3011
2487.00,0.3008
2486.00,0.3006
2485.00,0.3003
2484.00,0.3000
2483.00,0.2997
2482.00,0.2994
2481.00,0.2991
2480.00,0.2989
2479.00,0.2987
2478.00,0.2984
2477.00,0.2982
2476.00,0.2980
2475.00,0.2977
2474.00,0.2975
2473.00,0.2973
2472.00,0.2970
2471.00,0.2967
2470.00,0.2964
2469.00,0.2961
2468.00,0.2957
2467.00,0.2954
2466.00,0.2950
2465.00,0.2947
2464.00,0.2943
2463.00,0.2939
2462.00,0.2936
2461.00,0.2932
2460.00,0.2930
2459.00,0.2927
2458.00,0.2924
2457.00,0.2922
2456.00,0.2921
2455.00,0.2920
2454.00,0.2919
2453.00,0.2918
2452.00,0.2917
2451.00,0.2916
2450.00,0.2915
2449.00,0.2915
2448.00,0.2915
2447.00,0.2915
2446.00,0.2916
2445.00,0.2916
2444.00,0.2917
2443.00,0.2917
2442.00,0.2917
2441.00,0.2917
2440.00,0.2918
2439.00,0.2919
2438.00,0.2920
2437.00,0.2921
2436.00,0.2922
2435.00,0.2922
2434.00,0.2922
2433.00,0.2921
2432.00,0.2921
2431.00,0.2922
2430.00,0.2922
2429.00,0.2922
2428.00,0.2922
2427.00,0.2922
2426.00,0.2921
2425.00,0.2921
2424.00,0.2921
2423.00,0.2921
2422.00,0.2920
2421.00,0.2921
2420.00,0.2922
2419.00,0.2923
2418.00,0.2923
2417.00,0.2923
2416.00,0.2924
2415.00,0.2924
2414.00,0.2924
2413.00,0.2925
2412.00,0.2926
2411.00,0.2926
2410.00,0.2926
2409.00,0.2926
2408.00,0.2926
2407.00,0.2926
2406.00,0.2926
2405.00,0.2926
2404.00,0.2926
2403.00,0.2926
2402.00,0.2925
2401.00,0.2925
2400.00,0.2924
2399.00,0.2922
2398.00,0.2920
2397.00,0.2917
2396.00,0.2915
2395.00,0.2912
2394.00,0.2910
2393.00,0.2909
2392.00,0.2908
2391.00,0.2906
2390.00,0.2904
2389.00,0.2903
2388.00,0.2901
2387.00,0.2900
2386.00,0.2899
2385.00,0.2898
2384.00,0.2897
2383.00,0.2896
2382.00,0.2895
2381.00,0.2895
2380.00,0.2895
2379.00,0.2895
2378.00,0.2895
2377.00,0.2895
2376.00,0.2895
2375.00,0.2895
2374.00,0.2894
2373.00,0.2894
2372.00,0.2893
2371.00,0.2891
2370.00,0.2889
2369.00,0.2888
2368.00,0.2886
2367.00,0.2886
2366.00,0.2885
2365.00,0.2885
2364.00,0.2884
2363.00,0.2884
2362.00,0.2883
2361.00,0.2884
2360.00,0.2884
2359.00,0.2885
2358.00,0.2886
2357.00,0.2887
2356.00,0.2888
2355.00,0.2890
2354.00,0.2891
2353.00,0.2892
2352.00,0.2893
2351.00,0.2892
2350.00,0.2888
2349.00,0.2882
2348.00,0.2877
2347.00,0.2872
2346.00,0.2871
2345.00,0.2871
2344.00,0.2872
2343.00,0.2872
2342.00,0.2872
2341.00,0.2871
2340.00,0.2870
2339.00,0.2868
2338.00,0.2867
2337.00,0.2866
2336.00,0.2865
2335.00,0.2864
2334.00,0.2863
2333.00,0.2861
2332.00,0.2860
2331.00,0.2859
2330.00,0.2859
2329.00,0.2858
2328.00,0.2856
2327.00,0.2854
2326.00,0.2851
2325.00,0.2849
2324.00,0.2848
2323.00,0.2848
2322.00,0.2848
2321.00,0.2848
2320.00,0.2847
2319.00,0.2846
2318.00,0.2844
2317.00,0.2841
2316.00,0.2838
2315.00,0.2835
2314.00,0.2832
2313.00,0.2830
2312.00,0.2828
2311.00,0.2825
2310.00,0.2822
2309.00,0.2819
2308.00,0.2816
2307.00,0.2812
2306.00,0.2808
2305.00,0.2805
2304.00,0.2801
2303.00,0.2798
2302.00,0.2794
2301.00,0.2791
2300.00,0.2788
2299.00,0.2784
2298.00,0.2781
2297.00,0.2777
2296.00,0.2774
2295.00,0.2770
2294.00,0.2767
2293.00,0.2765
2292.00,0.2762
2291.00,0.2759
2290.00,0.2755
2289.00,0.2752
2288.00,0.2749
2287.00,0.2747
2286.00,0.2745
2285.00,0.2743
2284.00,0.2741
2283.00,0.2738
2282.00,0.2735
2281.00,0.2732
2280.00,0.2729
2279.00,0.2726
2278.00,0.2723
2277.00,0.2720
2276.00,0.2718
2275.00,0.2716
2274.00,0.2713
2273.00,0.2711
2272.00,0.2709
2271.00,0.2707
2270.00,0.2706
2269.00,0.2704
2268.00,0.2702
2267.00,0.2700
2266.00,0.2697
2265.00,0.2694
2264.00,0.2692
2263.00,0.2689
2262.00,0.2686
2261.00,0.2684
2260.00,0.2681
2259.00,0.2677
2258.00,0.2674
2257.00,0.2672
2256.00,0.2670
2255.00,0.2667
2254.00,0.2665
2253.00,0.2663
2252.00,0.2661
2251.00,0.2659
2250.00,0.2657
2249.00,0.2655
2248.00,0.2653
2247.00,0.2652
2246.00,0.2650
2245.00,0.2648
2244.00,0.2647
2243.00,0.2645
2242.00,0.2644
2241.00,0.2643
2240.00,0.2642
2239.00,0.2641
2238.00,0.2640
2237.00,0.2640
2236.00,0.2639
2235.00,0.2638
2234.00,0.2636
2233.00,0.2636
2232.00,0.2635
2231.00,0.2634
2230.00,0.2633
2229.00,0.2632
2228.00,0.2630
2227.00,0.2629
2226.00,0.2627
2225.00,0.2625
2224.00,0.2624
2223.00,0.2622
2222.00,0.2620
2221.00,0.2619
2220.00,0.2617
2219.00,0.2615
2218.00,0.2613
2217.00,0.2612
2216.00,0.2612
2215.00,0.2611
2214.00,0.2611
2213.00,0.2611
2212.00,0.2610
2211.00,0.2610
2210.00,0.2609
2209.00,0.2610
2208.00,0.2610
2207.00,0.2611
2206.00,0.2611
2205.00,0.2611
2204.00,0.2611
2203.00,0.2611
2202.00,0.2611
2201.00,0.2611
2200.00,0.2612
2199.00,0.2612
2198.00,0.2613
2197.00,0.2614
2196.00,0.2615
2195.00,0.2615
2194.00,0.2616
2193.00,0.2615
2192.00,0.2615
2191.00,0.2614
2190.00,0.2614
2189.00,0.2613
2188.00,0.2613
2187.00,0.2612
2186.00,0.2611
2185.00,0.2610
2184.00,0.2608
2183.00,0.2607
2182.00,0.2606
2181.00,0.2604
2180.00,0.2603
2179.00,0.2601
2178.00,0.2599
2177.00,0.2598
2176.00,0.2597
2175.00,0.2596
2174.00,0.2595
2173.00,0.2595
2172.00,0.2594
2171.00,0.2593
2170.00,0.2592
2169.00,0.2592
2168.00,0.2591
2167.00,0.2590
2166.00,0.2590
2165.00,0.2589
2164.00,0.2589
2163.00,0.2588
2162.00,0.2588
2161.00,0.2587
2160.00,0.2585
2159.00,0.2584
2158.00,0.2582
2157.00,0.2580
2156.00,0.2579
2155.00,0.2578
2154.00,0.2576
2153.00,0.2573
2152.00,0.2571
2151.00,0.2568
2150.00,0.2565
2149.00,0.2562
2148.00,0.2559
2147.00,0.2555
2146.00,0.2550
2145.00,0.2546
2144.00,0.2542
2143.00,0.2537
2142.00,0.2533
2141.00,0.2529
2140.00,0.2525
2139.00,0.2521
2138.00,0.2518
2137.00,0.2516
2136.00,0.2514
2135.00,0.2512
2134.00,0.2510
2133.00,0.2508
2132.00,0.2507
2131.00,0.2505
2130.00,0.2504
2129.00,0.2504
2128.00,0.2504
2127.00,0.2503
2126.00,0.2502
2125.00,0.2502
2124.00,0.2501
2123.00,0.2500
2122.00,0.2499
2121.00,0.2499
2120.00,0.2498
2119.00,0.2497
2118.00,0.2496
2117.00,0.2495
2116.00,0.2494
2115.00,0.2492
2114.00,0.2490
2113.00,0.2488
2112.00,0.2486
2111.00,0.2485
2110.00,0.2483
2109.00,0.2482
2108.00,0.2480
2107.00,0.2479
2106.00,0.2477
2105.00,0.2476
2104.00,0.2476
2103.00,0.2475
2102.00,0.2474
2101.00,0.2474
2100.00,0.2473
2099.00,0.2473
2098.00,0.2472
2097.00,0.2472
2096.00,0.2472
2095.00,0.2472
2094.00,0.2471
2093.00,0.2471
2092.00,0.2472
2091.00,0.2472
2090.00,0.2472
2089.00,0.2473
2088.00,0.2473
2087.00,0.2473
2086.00,0.2473
2085.00,0.2474
2084.00,0.2474
2083.00,0.2474
2082.00,0.2475
2081.00,0.2475
2080.00,0.2476
2079.00,0.2476
2078.00,0.2475
2077.00,0.2475
2076.00,0.2474
2075.00,0.2474
2074.00,0.2474
2073.00,0.2475
2072.00,0.2475
2071.00,0.2475
2070.00,0.2475
2069.00,0.2474
2068.00,0.2475
2067.00,0.2475
2066.00,0.2476
2065.00,0.2477
2064.00,0.2478
2063.00,0.2479
2062.00,0.2479
2061.00,0.2480
2060.00,0.2481
2059.00,0.2482
2058.00,0.2483
2057.00,0.2485
2056.00,0.2486
2055.00,0.2488
2054.00,0.2489
2053.00,0.2491
2052.00,0.2492
2051.00,0.2494
2050.00,0.2495
2049.00,0.2497
2048.00,0.2499
2047.00,0.2501
2046.00,0.2503
2045.00,0.2505
2044.00,0.2506
2043.00,0.2508
2042.00,0.2509
2041.00,0.2510
2040.00,0.2511
2039.00,0.2512
2038.00,0.2512
2037.00,0.2513
2036.00,0.2515
2035.00,0.2515
2034.00,0.2515
2033.00,0.2515
2032.00,0.2515
2031.00,0.2514
2030.00,0.2514
2029.00,0.2514
2028.00,0.2513
2027.00,0.2512
2026.00,0.2511
2025.00,0.2509
2024.00,0.2508
2023.00,0.2506
2022.00,0.2503
2021.00,0.2500
2020.00,0.2496
2019.00,0.2491
2018.00,0.2486
2017.00,0.2481
2016.00,0.2476
2015.00,0.2472
2014.00,0.2467
2013.00,0.2462
2012.00,0.2457
2011.00,0.2451
2010.00,0.2447
2009.00,0.2443
2008.00,0.2441
2007.00,0.2438
2006.00,0.2435
2005.00,0.2433
2004.00,0.2431
2003.00,0.2429
2002.00,0.2427
2001.00,0.2425
2000.00,0.2424
1999.00,0.2422
1998.00,0.2421
1997.00,0.2420
1996.00,0.2419
1995.00,0.2418
1994.00,0.2416
1993.00,0.2415
1992.00,0.2415
1991.00,0.2415
1990.00,0.2414
1989.00,0.2414
1988.00,0.2413
1987.00,0.2411
1986.00,0.2410
1985.00,0.2409
1984.00,0.2409
1983.00,0.2408
1982.00,0.2407
1981.00,0.2407
1980.00,0.2407
1979.00,0.2406
1978.00,0.2406
1977.00,0.2406
1976.00,0.2406
1975.00,0.2406
1974.00,0.2406
1973.00,0.2406
1972.00,0.2406
1971.00,0.2406
1970.00,0.2406
1969.00,0.2407
1968.00,0.2407
1967.00,0.2408
1966.00,0.2409
1965.00,0.2410
1964.00,0.2411
1963.00,0.2411
1962.00,0.2411
1961.00,0.2411
1960.00,0.2413
1959.00,0.2414
1958.00,0.2416
1957.00,0.2417
1956.00,0.2419
1955.00,0.2420
1954.00,0.2421
1953.00,0.2422
1952.00,0.2423
1951.00,0.2423
1950.00,0.2424
1949.00,0.2424
1948.00,0.2425
1947.00,0.2426
1946.00,0.2428
1945.00,0.2431
1944.00,0.2435
1943.00,0.2440
1942.00,0.2445
1941.00,0.2451
1940.00,0.2456
1939.00,0.2459
1938.00,0.2460
1937.00,0.2460
1936.00,0.2460
1935.00,0.2458
1934.00,0.2457
1933.00,0.2456
1932.00,0.2457
1931.00,0.2458
1930.00,0.2458
1929.00,0.2459
1928.00,0.2460
1927.00,0.2461
1926.00,0.2462
1925.00,0.2464
1924.00,0.2466
1923.00,0.2469
1922.00,0.2473
1921.00,0.2479
1920.00,0.2484
1919.00,0.2488
1918.00,0.2493
1917.00,0.2497
1916.00,0.2499
1915.00,0.2499
1914.00,0.2498
1913.00,0.2497
1912.00,0.2497
1911.00,0.2496
1910.00,0.2497
1909.00,0.2498
1908.00,0.2500
1907.00,0.2501
1906.00,0.2501
1905.00,0.2501
1904.00,0.2501
1903.00,0.2501
1902.00,0.2502
1901.00,0.2502
1900.00,0.2503
1899.00,0.2504
1898.00,0.2505
1897.00,0.2506
1896.00,0.2508
1895.00,0.2510
1894.00,0.2512
1893.00,0.2514
1892.00,0.2516
1891.00,0.2518
1890.00,0.2520
1889.00,0.2522
1888.00,0.2524
1887.00,0.2525
1886.00,0.2525
1885.00,0.2526
1884.00,0.2526
1883.00,0.2526
1882.00,0.2525
1881.00,0.2524
1880.00,0.2524
1879.00,0.2523
1878.00,0.2522
1877.00,0.2520
1876.00,0.2519
1875.00,0.2517
1874.00,0.2515
1873.00,0.2513
1872.00,0.2511
1871.00,0.2508
1870.00,0.2505
1869.00,0.2503
1868.00,0.2503
1867.00,0.2503
1866.00,0.2501
1865.00,0.2499
1864.00,0.2497
1863.00,0.2493
1862.00,0.2489
1861.00,0.2486
1860.00,0.2484
1859.00,0.2482
1858.00,0.2480
1857.00,0.2478
1856.00,0.2477
1855.00,0.2476
1854.00,0.2473
1853.00,0.2472
1852.00,0.2471
1851.00,0.2470
1850.00,0.2468
1849.00,0.2467
1848.00,0.2467
1847.00,0.2466
1846.00,0.2466
1845.00,0.2467
1844.00,0.2469
1843.00,0.2470
1842.00,0.2468
1841.00,0.2466
1840.00,0.2463
1839.00,0.2460
1838.00,0.2457
1837.00,0.2456
1836.00,0.2456
1835.00,0.2456
1834.00,0.2455
1833.00,0.2454
1832.00,0.2453
1831.00,0.2452
1830.00,0.2452
1829.00,0.2453
1828.00,0.2455
1827.00,0.2454
1826.00,0.2453
1825.00,0.2452
1824.00,0.2453
1823.00,0.2452
1822.00,0.2450
1821.00,0.2448
1820.00,0.2448
1819.00,0.2448
1818.00,0.2448
1817.00,0.2449
1816.00,0.2451
1815.00,0.2452
1814.00,0.2452
1813.00,0.2452
1812.00,0.2454
1811.00,0.2456
1810.00,0.2459
1809.00,0.2463
1808.00,0.2467
1807.00,0.2469
1806.00,0.2471
1805.00,0.2474
1804.00,0.2479
1803.00,0.2483
1802.00,0.2488
1801.00,0.2495
1800.00,0.2502
1799.00,0.2508
1798.00,0.2511
1797.00,0.2514
1796.00,0.2517
1795.00,0.2520
1794.00,0.2523
1793.00,0.2529
1792.00,0.2537
1791.00,0.2544
1790.00,0.2549
1789.00,0.2551
1788.00,0.2552
1787.00,0.2554
1786.00,0.2556
1785.00,0.2560
1784.00,0.2564
1783.00,0.2567
1782.00,0.2569
1781.00,0.2572
1780.00,0.2577
1779.00,0.2582
1778.00,0.2586
1777.00,0.2589
1776.00,0.2593
1775.00,0.2597
1774.00,0.2601
1773.00,0.2608
1772.00,0.2620
1771.00,0.2634
1770.00,0.2645
1769.00,0.2653
1768.00,0.2662
1767.00,0.2670
1766.00,0.2677
1765.00,0.2686
1764.00,0.2696
1763.00,0.2709
1762.00,0.2725
1761.00,0.2744
1760.00,0.2762
1759.00,0.2780
1758.00,0.2799
1757.00,0.2824
1756.00,0.2851
1755.00,0.2877
1754.00,0.2900
1753.00,0.2924
1752.00,0.2954
1751.00,0.2987
1750.00,0.3020
1749.00,0.3051
1748.00,0.3077
1747.00,0.3099
1746.00,0.3116
1745.00,0.3130
1744.00,0.3142
1743.00,0.3151
1742.00,0.3157
1741.00,0.3161
1740.00,0.3163
1739.00,0.3160
1738.00,0.3155
1737.00,0.3149
1736.00,0.3141
1735.00,0.3132
1734.00,0.3124
1733.00,0.3120
1732.00,0.3118
1731.00,0.3114
1730.00,0.3112
1729.00,0.3114
1728.00,0.3119
1727.00,0.3126
1726.00,0.3137
1725.00,0.3154
1724.00,0.3178
1723.00,0.3207
1722.00,0.3241
1721.00,0.3279
1720.00,0.3323
1719.00,0.3381
1718.00,0.3464
1717.00,0.3573
1716.00,0.3696
1715.00,0.3825
1714.00,0.3959
1713.00,0.4095
1712.00,0.4225
1711.00,0.4348
1710.00,0.4459
1709.00,0.4548
1708.00,0.4600
1707.00,0.4614
1706.00,0.4589
1705.00,0.4531
1704.00,0.4455
1703.00,0.4375
1702.00,0.4282
1701.00,0.4149
1700.00,0.3989
1699.00,0.3853
1698.00,0.3754
1697.00,0.3666
1696.00,0.3573
1695.00,0.3488
1694.00,0.3424
1693.00,0.3377
1692.00,0.3334
1691.00,0.3293
1690.00,0.3256
1689.00,0.3225
1688.00,0.3200
1687.00,0.3178
1686.00,0.3157
1685.00,0.3137
1684.00,0.3121
1683.00,0.3112
1682.00,0.3103
1681.00,0.3090
1680.00,0.3076
1679.00,0.3064
1678.00,0.3056
1677.00,0.3051
1676.00,0.3047
1675.00,0.3043
1674.00,0.3038
1673.00,0.3034
1672.00,0.3029
1671.00,0.3024
1670.00,0.3022
1669.00,0.3023
1668.00,0.3024
1667.00,0.3021
1666.00,0.3017
1665.00,0.3014
1664.00,0.3012
1663.00,0.3013
1662.00,0.3015
1661.00,0.3019
1660.00,0.3020
1659.00,0.3020
1658.00,0.3020
1657.00,0.3022
1656.00,0.3025
1655.00,0.3027
1654.00,0.3032
1653.00,0.3049
1652.00,0.3067
1651.00,0.3074
1650.00,0.3077
1649.00,0.3080
1648.00,0.3085
1647.00,0.3095
1646.00,0.3110
1645.00,0.3124
1644.00,0.3133
1643.00,0.3138
1642.00,0.3142
1641.00,0.3150
1640.00,0.3161
1639.00,0.3172
1638.00,0.3183
1637.00,0.3200
1636.00,0.3227
1635.00,0.3258
1634.00,0.3283
1633.00,0.3300
1632.00,0.3314
1631.00,0.3329
1630.00,0.3346
1629.00,0.3370
1628.00,0.3398
1627.00,0.3427
1626.00,0.3455
1625.00,0.3487
1624.00,0.3525
1623.00,0.3570
1622.00,0.3618
1621.00,0.3668
1620.00,0.3718
1619.00,0.3773
1618.00,0.3844
1617.00,0.3945
1616.00,0.4064
1615.00,0.4175
1614.00,0.4268
1613.00,0.4357
1612.00,0.4450
1611.00,0.4544
1610.00,0.4638
1609.00,0.4732
1608.00,0.4822
1607.00,0.4901
1606.00,0.4965
1605.00,0.5021
1604.00,0.5074
1603.00,0.5121
1602.00,0.5163
1601.00,0.5208
1600.00,0.5260
1599.00,0.5315
1598.00,0.5377
1597.00,0.5459
1596.00,0.5570
1595.00,0.5713
1594.00,0.5894
1593.00,0.6128
1592.00,0.6430
1591.00,0.6812
1590.00,0.7291
1589.00,0.7903
1588.00,0.8691
1587.00,0.9684
1586.00,1.0904
1585.00,1.2389
1584.00,1.4154
1583.00,1.6009
1582.00,1.7341
1581.00,1.7557
1580.00,1.6817
1579.00,1.5509
1578.00,1.3860
1577.00,1.2126
1576.00,1.0614
1575.00,0.9515
1574.00,0.8795
1573.00,0.8312
1572.00,0.7953
1571.00,0.7661
1570.00,0.7439
1569.00,0.7328
1568.00,0.7347
1567.00,0.7484
1566.00,0.7744
1565.00,0.8156
1564.00,0.8695
1563.00,0.9268
1562.00,0.9774
1561.00,1.0157
1560.00,1.0236
1559.00,0.9696
1558.00,0.8838
1557.00,0.8138
1556.00,0.7580
1555.00,0.7041
1554.00,0.6531
1553.00,0.6114
1552.00,0.5805
1551.00,0.5557
1550.00,0.5344
1549.00,0.5170
1548.00,0.5042
1547.00,0.4945
1546.00,0.4863
1545.00,0.4790
1544.00,0.4733
1543.00,0.4688
1542.00,0.4647
1541.00,0.4607
1540.00,0.4569
1539.00,0.4534
1538.00,0.4500
1537.00,0.4473
1536.00,0.4450
1535.00,0.4425
1534.00,0.4397
1533.00,0.4379
1532.00,0.4372
1531.00,0.4371
1530.00,0.4372
1529.00,0.4378
1528.00,0.4389
1527.00,0.4397
1526.00,0.4401
1525.00,0.4404
1524.00,0.4408
1523.00,0.4415
1522.00,0.4429
1521.00,0.4460
1520.00,0.4500
1519.00,0.4537
1518.00,0.4573
1517.00,0.4615
1516.00,0.4658
1515.00,0.4686
1514.00,0.4698
1513.00,0.4705
1512.00,0.4713
1511.00,0.4724
1510.00,0.4741
1509.00,0.4773
1508.00,0.4835
1507.00,0.4942
1506.00,0.5079
1505.00,0.5202
1504.00,0.5295
1503.00,0.5368
1502.00,0.5437
1501.00,0.5510
1500.00,0.5583
1499.00,0.5652
1498.00,0.5724
1497.00,0.5816
1496.00,0.5925
1495.00,0.6031
1494.00,0.6130
1493.00,0.6234
1492.00,0.6355
1491.00,0.6492
1490.00,0.6652
1489.00,0.6835
1488.00,0.7030
1487.00,0.7230
1486.00,0.7447
1485.00,0.7699
1484.00,0.7990
1483.00,0.8328
1482.00,0.8737
1481.00,0.9230
1480.00,0.9783
1479.00,1.0377
1478.00,1.1048
1477.00,1.1858
1476.00,1.2813
1475.00,1.3894
1474.00,1.5194
1473.00,1.6943
1472.00,1.9265
1471.00,2.1952
1470.00,2.4777
1469.00,2.7870
1468.00,3.1157
1467.00,3.3522
1466.00,3.5288
1465.00,3.7060
1464.00,3.6415
1463.00,3.5236
1462.00,3.5361
1461.00,3.7395
1460.00,3.8051
1459.00,3.6695
1458.00,3.5873
1457.00,3.5427
1456.00,3.5301
1455.00,3.5013
1454.00,3.5241
1453.00,3.7342
1452.00,3.7088
1451.00,3.3544
1450.00,3.1655
1449.00,3.0860
1448.00,2.9715
1447.00,2.8243
1446.00,2.7196
1445.00,2.6363
1444.00,2.5180
1443.00,2.3725
1442.00,2.2387
1441.00,2.1239
1440.00,2.0167
1439.00,1.9102
1438.00,1.7998
1437.00,1.6807
1436.00,1.5623
1435.00,1.4594
1434.00,1.3722
1433.00,1.2905
1432.00,1.2087
1431.00,1.1290
1430.00,1.0565
1429.00,0.9943
1428.00,0.9438
1427.00,0.9042
1426.00,0.8723
1425.00,0.8446
1424.00,0.8210
1423.00,0.8029
1422.00,0.7899
1421.00,0.7792
1420.00,0.7688
1419.00,0.7587
1418.00,0.7501
1417.00,0.7428
1416.00,0.7366
1415.00,0.7318
1414.00,0.7280
1413.00,0.7249
1412.00,0.7224
1411.00,0.7209
1410.00,0.7194
1409.00,0.7167
1408.00,0.7123
1407.00,0.7062
1406.00,0.6979
1405.00,0.6875
1404.00,0.6762
1403.00,0.6659
1402.00,0.6570
1401.00,0.6491
1400.00,0.6421
1399.00,0.6370
1398.00,0.6341
1397.00,0.6332
1396.00,0.6349
1395.00,0.6403
1394.00,0.6499
1393.00,0.6634
1392.00,0.6821
1391.00,0.7085
1390.00,0.7449
1389.00,0.7950
1388.00,0.8635
1387.00,0.9517
1386.00,1.0526
1385.00,1.1571
1384.00,1.2641
1383.00,1.3789
1382.00,1.5061
1381.00,1.6481
1380.00,1.8071
1379.00,1.9733
1378.00,2.1066
1377.00,2.1556
1376.00,2.1063
1375.00,1.9784
1374.00,1.8119
1373.00,1.6526
1372.00,1.5229
1371.00,1.4233
1370.00,1.3496
1369.00,1.2993
1368.00,1.2683
1367.00,1.2463
1366.00,1.2186
1365.00,1.1742
1364.00,1.1121
1363.00,1.0415
1362.00,0.9755
1361.00,0.9223
1360.00,0.8825
1359.00,0.8533
1358.00,0.8317
1357.00,0.8161
1356.00,0.8055
1355.00,0.7988
1354.00,0.7949
1353.00,0.7923
1352.00,0.7900
1351.00,0.7874
1350.00,0.7841
1349.00,0.7803
1348.00,0.7764
1347.00,0.7728
1346.00,0.7698
1345.00,0.7672
1344.00,0.7650
1343.00,0.7629
1342.00,0.7601
1341.00,0.7559
1340.00,0.7496
1339.00,0.7412
1338.00,0.7308
1337.00,0.7187
1336.00,0.7055
1335.00,0.6921
1334.00,0.6790
1333.00,0.6670
1332.00,0.6563
1331.00,0.6474
1330.00,0.6402
1329.00,0.6345
1328.00,0.6301
1327.00,0.6271
1326.00,0.6254
1325.00,0.6246
1324.00,0.6245
1323.00,0.6250
1322.00,0.6257
1321.00,0.6264
1320.00,0.6272
1319.00,0.6283
1318.00,0.6299
1317.00,0.6320
1316.00,0.6346
1315.00,0.6376
1314.00,0.6411
1313.00,0.6447
1312.00,0.6485
1311.00,0.6523
1310.00,0.6557
1309.00,0.6586
1308.00,0.6608
1307.00,0.6625
1306.00,0.6635
1305.00,0.6634
1304.00,0.6620
1303.00,0.6595
1302.00,0.6560
1301.00,0.6518
1300.00,0.6470
1299.00,0.6419
1298.00,0.6366
1297.00,0.6312
1296.00,0.6258
1295.00,0.6208
1294.00,0.6162
1293.00,0.6120
1292.00,0.6081
1291.00,0.6043
1290.00,0.6007
1289.00,0.5972
1288.00,0.5936
1287.00,0.5901
1286.00,0.5865
1285.00,0.5827
1284.00,0.5787
1283.00,0.5749
1282.00,0.5715
1281.00,0.5684
1280.00,0.5657
1279.00,0.5635
1278.00,0.5615
1277.00,0.5594
1276.00,0.5574
1275.00,0.5554
1274.00,0.5535
1273.00,0.5517
1272.00,0.5502
1271.00,0.5490
1270.00,0.5481
1269.00,0.5472
1268.00,0.5457
1267.00,0.5435
1266.00,0.5403
1265.00,0.5367
1264.00,0.5329
1263.00,0.5297
1262.00,0.5270
1261.00,0.5249
1260.00,0.5232
1259.00,0.5217
1258.00,0.5202
1257.00,0.5184
1256.00,0.5164
1255.00,0.5144
1254.00,0.5127
1253.00,0.5112
1252.00,0.5099
1251.00,0.5087
1250.00,0.5076
1249.00,0.5063
1248.00,0.5049
1247.00,0.5032
1246.00,0.5011
1245.00,0.4985
1244.00,0.4955
1243.00,0.4923
1242.00,0.4890
1241.00,0.4858
1240.00,0.4826
1239.00,0.4798
1238.00,0.4774
1237.00,0.4753
1236.00,0.4738
1235.00,0.4727
1234.00,0.4721
1233.00,0.4718
1232.00,0.4716
1231.00,0.4717
1230.00,0.4720
1229.00,0.4717
1228.00,0.4708
1227.00,0.4691
1226.00,0.4670
1225.00,0.4644
1224.00,0.4617
1223.00,0.4593
1222.00,0.4573
1221.00,0.4557
1220.00,0.4545
1219.00,0.4538
1218.00,0.4536
1217.00,0.4537
1216.00,0.4541
1215.00,0.4548
1214.00,0.4556
1213.00,0.4560
1212.00,0.4559
1211.00,0.4552
1210.00,0.4542
1209.00,0.4530
1208.00,0.4516
1207.00,0.4501
1206.00,0.4486
1205.00,0.4469
1204.00,0.4453
1203.00,0.4438
1202.00,0.4426
1201.00,0.4415
1200.00,0.4407
1199.00,0.4401
1198.00,0.4396
1197.00,0.4391
1196.00,0.4384
1195.00,0.4376
1194.00,0.4369
1193.00,0.4362
1192.00,0.4357
1191.00,0.4353
1190.00,0.4351
1189.00,0.4346
1188.00,0.4341
1187.00,0.4336
1186.00,0.4333
1185.00,0.4330
1184.00,0.4328
1183.00,0.4327
1182.00,0.4329
1181.00,0.4333
1180.00,0.4338
1179.00,0.4346
1178.00,0.4355
1177.00,0.4367
1176.00,0.4385
1175.00,0.4412
1174.00,0.4450
1173.00,0.4495
1172.00,0.4543
1171.00,0.4585
1170.00,0.4617
1169.00,0.4631
1168.00,0.4630
1167.00,0.4619
1166.00,0.4603
1165.00,0.4588
1164.00,0.4578
1163.00,0.4576
1162.00,0.4581
1161.00,0.4590
1160.00,0.4603
1159.00,0.4620
1158.00,0.4636
1157.00,0.4649
1156.00,0.4654
1155.00,0.4653
1154.00,0.4645
1153.00,0.4629
1152.00,0.4608
1151.00,0.4583
1150.00,0.4557
1149.00,0.4529
1148.00,0.4502
1147.00,0.4476
1146.00,0.4454
1145.00,0.4435
1144.00,0.4421
1143.00,0.4413
1142.00,0.4414
1141.00,0.4423
1140.00,0.4443
1139.00,0.4473
1138.00,0.4515
1137.00,0.4566
1136.00,0.4624
1135.00,0.4686
1134.00,0.4741
1133.00,0.4774
1132.00,0.4775
1131.00,0.4740
1130.00,0.4680
1129.00,0.4610
1128.00,0.4547
1127.00,0.4498
1126.00,0.4464
1125.00,0.4441
1124.00,0.4423
1123.00,0.4408
1122.00,0.4394
1121.00,0.4380
1120.00,0.4369
1119.00,0.4366
1118.00,0.4375
1117.00,0.4394
1116.00,0.4421
1115.00,0.4448
1114.00,0.4463
1113.00,0.4456
1112.00,0.4425
1111.00,0.4377
1110.00,0.4324
1109.00,0.4276
1108.00,0.4238
1107.00,0.4212
1106.00,0.4197
1105.00,0.4186
1104.00,0.4179
1103.00,0.4174
1102.00,0.4169
1101.00,0.4162
1100.00,0.4155
1099.00,0.4147
1098.00,0.4139
1097.00,0.4131
1096.00,0.4124
1095.00,0.4121
1094.00,0.4121
1093.00,0.4124
1092.00,0.4128
1091.00,0.4132
1090.00,0.4139
1089.00,0.4149
1088.00,0.4166
1087.00,0.4190
1086.00,0.4222
1085.00,0.4258
1084.00,0.4301
1083.00,0.4351
1082.00,0.4408
1081.00,0.4470
1080.00,0.4534
1079.00,0.4594
1078.00,0.4642
1077.00,0.4669
1076.00,0.4670
1075.00,0.4649
1074.00,0.4610
1073.00,0.4560
1072.00,0.4508
1071.00,0.4462
1070.00,0.4425
1069.00,0.4398
1068.00,0.4380
1067.00,0.4370
1066.00,0.4364
1065.00,0.4361
1064.00,0.4359
1063.00,0.4358
1062.00,0.4360
1061.00,0.4364
1060.00,0.4369
1059.00,0.4376
1058.00,0.4380
1057.00,0.4379
1056.00,0.4373
1055.00,0.4367
1054.00,0.4363
1053.00,0.4362
1052.00,0.4367
1051.00,0.4378
1050.00,0.4393
1049.00,0.4411
1048.00,0.4428
1047.00,0.4445
1046.00,0.4458
1045.00,0.4466
1044.00,0.4468
1043.00,0.4469
1042.00,0.4467
1041.00,0.4464
1040.00,0.4460
1039.00,0.4455
1038.00,0.4449
1037.00,0.4443
1036.00,0.4439
1035.00,0.4440
1034.00,0.4449
1033.00,0.4461
1032.00,0.4475
1031.00,0.4488
1030.00,0.4496
1029.00,0.4495
1028.00,0.4485
1027.00,0.4466
1026.00,0.4437
1025.00,0.4398
1024.00,0.4351
1023.00,0.4301
1022.00,0.4253
1021.00,0.4210
1020.00,0.4171
1019.00,0.4137
1018.00,0.4107
1017.00,0.4080
1016.00,0.4056
1015.00,0.4035
1014.00,0.4017
1013.00,0.4001
1012.00,0.3987
1011.00,0.3976
1010.00,0.3969
1009.00,0.3967
1008.00,0.3968
1007.00,0.3972
1006.00,0.3979
1005.00,0.3989
1004.00,0.4002
1003.00,0.4018
1002.00,0.4034
1001.00,0.4048
1000.00,0.4059
999.00,0.4068
998.00,0.4071
997.00,0.4067
996.00,0.4055
995.00,0.4038
994.00,0.4017
993.00,0.3993
992.00,0.3968
991.00,0.3944
990.00,0.3922
989.00,0.3904
988.00,0.3891
987.00,0.3885
986.00,0.3885
985.00,0.3892
984.00,0.3903
983.00,0.3920
982.00,0.3941
981.00,0.3965
980.00,0.3990
979.00,0.4016
978.00,0.4041
977.00,0.4063
976.00,0.4082
975.00,0.4098
974.00,0.4109
973.00,0.4115
972.00,0.4117
971.00,0.4117
970.00,0.4116
969.00,0.4117
968.00,0.4118
967.00,0.4118
966.00,0.4118
965.00,0.4114
964.00,0.4106
963.00,0.4095
962.00,0.4083
961.00,0.4071
960.00,0.4060
959.00,0.4051
958.00,0.4046
957.00,0.4042
956.00,0.4038
955.00,0.4035
954.00,0.4029
953.00,0.4021
952.00,0.4012
951.00,0.4003
950.00,0.3998
949.00,0.3996
948.00,0.3996
947.00,0.4000
946.00,0.4006
945.00,0.4015
944.00,0.4026
943.00,0.4040
942.00,0.4055
941.00,0.4070
940.00,0.4081
939.00,0.4090
938.00,0.4094
937.00,0.4093
936.00,0.4085
935.00,0.4070
934.00,0.4053
933.00,0.4031
932.00,0.4008
931.00,0.3984
930.00,0.3962
929.00,0.3944
928.00,0.3932
927.00,0.3930
926.00,0.3939
925.00,0.3959
924.00,0.3990
923.00,0.4030
922.00,0.4070
921.00,0.4097
920.00,0.4098
919.00,0.4070
918.00,0.4015
917.00,0.3946
916.00,0.3872
915.00,0.3806
914.00,0.3751
913.00,0.3708
912.00,0.3675
911.00,0.3650
910.00,0.3630
909.00,0.3614
908.00,0.3601
907.00,0.3592
906.00,0.3587
905.00,0.3586
904.00,0.3589
903.00,0.3596
902.00,0.3608
901.00,0.3626
900.00,0.3649
899.00,0.3678
898.00,0.3709
897.00,0.3743
896.00,0.3777
895.00,0.3815
894.00,0.3857
893.00,0.3899
892.00,0.3939
891.00,0.3972
890.00,0.3995
889.00,0.4005
888.00,0.4001
887.00,0.3987
886.00,0.3968
885.00,0.3948
884.00,0.3931
883.00,0.3922
882.00,0.3921
881.00,0.3926
880.00,0.3937
879.00,0.3949
878.00,0.3960
877.00,0.3965
876.00,0.3964
875.00,0.3961
874.00,0.3960
873.00,0.3963
872.00,0.3969
871.00,0.3978
870.00,0.3990
869.00,0.4003
868.00,0.4016
867.00,0.4033
866.00,0.4056
865.00,0.4083
864.00,0.4110
863.00,0.4130
862.00,0.4132
861.00,0.4110
860.00,0.4066
859.00,0.4010
858.00,0.3955
857.00,0.3909
856.00,0.3873
855.00,0.3848
854.00,0.3831
853.00,0.3818
852.00,0.3807
851.00,0.3796
850.00,0.3785
849.00,0.3769
848.00,0.3746
847.00,0.3717
846.00,0.3687
845.00,0.3658
844.00,0.3631
843.00,0.3609
842.00,0.3596
841.00,0.3595
840.00,0.3612
839.00,0.3648
838.00,0.3698
837.00,0.3750
836.00,0.3787
835.00,0.3799
834.00,0.3786
833.00,0.3756
832.00,0.3728
831.00,0.3714
830.00,0.3719
829.00,0.3742
828.00,0.3778
827.00,0.3826
826.00,0.3881
825.00,0.3940
824.00,0.4003
823.00,0.4071
822.00,0.4144
821.00,0.4217
820.00,0.4287
819.00,0.4351
818.00,0.4404
817.00,0.4446
816.00,0.4471
815.00,0.4477
814.00,0.4462
813.00,0.4425
812.00,0.4373
811.00,0.4312
810.00,0.4249
809.00,0.4188
808.00,0.4129
807.00,0.4074
806.00,0.4025
805.00,0.3978
804.00,0.3929
803.00,0.3876
802.00,0.3818
801.00,0.3759
800.00,0.3703
799.00,0.3656
798.00,0.3621
797.00,0.3596
796.00,0.3579
795.00,0.3570
794.00,0.3569
793.00,0.3574
792.00,0.3584
791.00,0.3600
790.00,0.3621
789.00,0.3648
788.00,0.3678
787.00,0.3714
786.00,0.3755
785.00,0.3801
784.00,0.3847
783.00,0.3893
782.00,0.3934
781.00,0.3967
780.00,0.3990
779.00,0.4007
778.00,0.4022
777.00,0.4035
776.00,0.4051
775.00,0.4070
774.00,0.4091
773.00,0.4111
772.00,0.4131
771.00,0.4155
770.00,0.4185
769.00,0.4218
768.00,0.4249
767.00,0.4277
766.00,0.4299
765.00,0.4316
764.00,0.4329
763.00,0.4344
762.00,0.4366
761.00,0.4396
760.00,0.4432
759.00,0.4470
758.00,0.4507
757.00,0.4539
756.00,0.4567
755.00,0.4597
754.00,0.4633
753.00,0.4674
752.00,0.4720
751.00,0.4768
750.00,0.4817
749.00,0.4863
748.00,0.4904
747.00,0.4939
746.00,0.4972
745.00,0.5003
744.00,0.5037
743.00,0.5078
742.00,0.5125
741.00,0.5173
740.00,0.5216
739.00,0.5252
738.00,0.5282
737.00,0.5311
736.00,0.5341
735.00,0.5378
734.00,0.5424
733.00,0.5481
732.00,0.5552
731.00,0.5643
730.00,0.5761
729.00,0.5906
728.00,0.6080
727.00,0.6286
726.00,0.6525
725.00,0.6788
724.00,0.7050
723.00,0.7264
722.00,0.7360
721.00,0.7275
720.00,0.6998
719.00,0.6596
718.00,0.6159
717.00,0.5753
716.00,0.5404
715.00,0.5120
714.00,0.4893
713.00,0.4710
712.00,0.4559
711.00,0.4435
710.00,0.4334
709.00,0.4252
708.00,0.4186
707.00,0.4134
706.00,0.4091
705.00,0.4054
704.00,0.4023
703.00,0.4000
702.00,0.3990
701.00,0.3986
700.00,0.3972
699.00,0.3925
698.00,0.3830
697.00,0.3692
696.00,0.3535
695.00,0.3386
694.00,0.3263
693.00,0.3168
692.00,0.3099
691.00,0.3050
690.00,0.3014
689.00,0.2987
688.00,0.2964
687.00,0.2947
686.00,0.2935
685.00,0.2926
684.00,0.2916
683.00,0.2907
682.00,0.2898
681.00,0.2893
680.00,0.2889
679.00,0.2887
678.00,0.2887
677.00,0.2887
676.00,0.2888
675.00,0.2890
674.00,0.2893
673.00,0.2893
672.00,0.2894
671.00,0.2894
670.00,0.2896
669.00,0.2901
668.00,0.2906
667.00,0.2910
666.00,0.2916
665.00,0.2925
664.00,0.2936
663.00,0.2948
662.00,0.2960
661.00,0.2971
660.00,0.2980
659.00,0.2990
658.00,0.3002
657.00,0.3012
656.00,0.3022
655.00,0.3032
654.00,0.3042
653.00,0.3051
652.00,0.3060
651.00,0.3069
650.00,0.3078
649.00,0.3088
648.00,0.3099
647.00,0.3111
646.00,0.3122
645.00,0.3133
644.00,0.3144
643.00,0.3158
642.00,0.3175
641.00,0.3192
640.00,0.3205
639.00,0.3217
638.00,0.3226
637.00,0.3234
636.00,0.3240
635.00,0.3245
634.00,0.3251
633.00,0.3254
632.00,0.3258
631.00,0.3265
630.00,0.3276
629.00,0.3289
628.00,0.3305
627.00,0.3324
626.00,0.3349
625.00,0.3377
624.00,0.3404
623.00,0.3428
622.00,0.3448
621.00,0.3464
620.00,0.3476
619.00,0.3488
618.00,0.3498
617.00,0.3507
616.00,0.3510
615.00,0.3506
614.00,0.3496
613.00,0.3484
612.00,0.3474
611.00,0.3467
610.00,0.3459
609.00,0.3446
608.00,0.3426
607.00,0.3405
606.00,0.3389
605.00,0.3380
604.00,0.3376
603.00,0.3374
602.00,0.3369
601.00,0.3360
600.00,0.3354
599.00,0.3355
598.00,0.3365
597.00,0.3380
596.00,0.3396
595.00,0.3413
594.00,0.3432
593.00,0.3451
592.00,0.3468
591.00,0.3482
590.00,0.3494
589.00,0.3508
588.00,0.3526
587.00,0.3549
586.00,0.3576
585.00,0.3601
584.00,0.3624
583.00,0.3648
582.00,0.3673
581.00,0.3700
580.00,0.3727
579.00,0.3751
578.00,0.3773
577.00,0.3794
576.00,0.3816
575.00,0.3838
574.00,0.3859
573.00,0.3879
572.00,0.3899
571.00,0.3920
570.00,0.3938
569.00,0.3951
568.00,0.3958
567.00,0.3961
566.00,0.3964
565.00,0.3967
564.00,0.3972
563.00,0.3979
562.00,0.3986
561.00,0.3991
560.00,0.3996
559.00,0.4006
558.00,0.4018
557.00,0.4030
556.00,0.4038
555.00,0.4044
554.00,0.4051
553.00,0.4060
552.00,0.4074
551.00,0.4092
550.00,0.4108
