Created as New Dataset,
cm-1,A
4000.00,0.3634
3999.00,0.3630
3998.00,0.3627
3997.00,0.3624
3996.00,0.3621
3995.00,0.3618
3994.00,0.3616
3993.00,0.3613
3992.00,0.3609
3991.00,0.3606
3990.00,0.3602
3989.00,0.3598
3988.00,0.3594
3987.00,0.3590
3986.00,0.3586
3985.00,0.3582
3984.00,0.3577
3983.00,0.3573
3982.00,0.3569
3981.00,0.3565
3980.00,0.3562
3979.00,0.3559
3978.00,0.3556
3977.00,0.3553
3976.00,0.3550
3975.00,0.3547
3974.00,0.3543
3973.00,0.3540
3972.00,0.3538
3971.00,0.3537
3970.00,0.3536
3969.00,0.3534
3968.00,0.3533
3967.00,0.3531
3966.00,0.3530
3965.00,0.3528
3964.00,0.3527
3963.00,0.3525
3962.00,0.3524
3961.00,0.3522
3960.00,0.3521
3959.00,0.3519
3958.00,0.3518
3957.00,0.3516
3956.00,0.3515
3955.00,0.3513
3954.00,0.3512
3953.00,0.3510
3952.00,0.3509
3951.00,0.3508
3950.00,0.3506
3949.00,0.3504
3948.00,0.3502
3947.00,0.3500
3946.00,0.3498
3945.00,0.3496
3944.00,0.3495
3943.00,0.3493
3942.00,0.3492
3941.00,0.3491
3940.00,0.3489
3939.00,0.3488
3938.00,0.3487
3937.00,0.3485
3936.00,0.3485
3935.00,0.3484
3934.00,0.3484
3933.00,0.3484
3932.00,0.3485
3931.00,0.3486
3930.00,0.3486
3929.00,0.3487
3928.00,0.3487
3927.00,0.3488
3926.00,0.3488
3925.00,0.3488
3924.00,0.3487
3923.00,0.3486
3922.00,0.3486
3921.00,0.3486
3920.00,0.3486
3919.00,0.3487
3918.00,0.3486
3917.00,0.3486
3916.00,0.3485
3915.00,0.3483
3914.00,0.3482
3913.00,0.3481
3912.00,0.3480
3911.00,0.3479
3910.00,0.3478
3909.00,0.3478
3908.00,0.3478
3907.00,0.3478
3906.00,0.3479
3905.00,0.3479
3904.00,0.3478
3903.00,0.3478
3902.00,0.3477
3901.00,0.3477
3900.00,0.3477
3899.00,0.3477
3898.00,0.3476
3897.00,0.3475
3896.00,0.3473
3895.00,0.3472
3894.00,0.3470
3893.00,0.3469
3892.00,0.3468
3891.00,0.3467
3890.00,0.3467
3889.00,0.3467
3888.00,0.3467
3887.00,0.3467
3886.00,0.3467
3885.00,0.3468
3884.00,0.3469
3883.00,0.3470
3882.00,0.3470
3881.00,0.3470
3880.00,0.3468
3879.00,0.3467
3878.00,0.3465
3877.00,0.3463
3876.00,0.3462
3875.00,0.3462
3874.00,0.3460
3873.00,0.3458
3872.00,0.3456
3871.00,0.3455
3870.00,0.3455
3869.00,0.3456
3868.00,0.3457
3867.00,0.3456
3866.00,0.3453
3865.00,0.3450
3864.00,0.3447
3863.00,0.3444
3862.00,0.3442
3861.00,0.3440
3860.00,0.3439
3859.00,0.3439
3858.00,0.3439
3857.00,0.3441
3856.00,0.3443
3855.00,0.3444
3854.00,0.3445
3853.00,0.3446
3852.00,0.3447
3851.00,0.3447
3850.00,0.3445
3849.00,0.3443
3848.00,0.3441
3847.00,0.3438
3846.00,0.3436
3845.00,0.3435
3844.00,0.3433
3843.00,0.3433
3842.00,0.3433
3841.00,0.3434
3840.00,0.3435
3839.00,0.3436
3838.00,0.3436
3837.00,0.3437
3836.00,0.3437
3835.00,0.3436
3834.00,0.3435
3833.00,0.3432
3832.00,0.3429
3831.00,0.3426
3830.00,0.3422
3829.00,0.3419
3828.00,0.3416
3827.00,0.3414
3826.00,0.3413
3825.00,0.3412
3824.00,0.3412
3823.00,0.3413
3822.00,0.3415
3821.00,0.3416
3820.00,0.3417
3819.00,0.3416
3818.00,0.3415
3817.00,0.3415
3816.00,0.3414
3815.00,0.3411
3814.00,0.3408
3813.00,0.3404
3812.00,0.3401
3811.00,0.3399
3810.00,0.3397
3809.00,0.3395
3808.00,0.3392
3807.00,0.3390
3806.00,0.3390
3805.00,0.3389
3804.00,0.3389
3803.00,0.3389
3802.00,0.3388
3801.00,0.3387
3800.00,0.3386
3799.00,0.3383
3798.00,0.3381
3797.00,0.3378
3796.00,0.3375
3795.00,0.3372
3794.00,0.3369
3793.00,0.3365
3792.00,0.3363
3791.00,0.3360
3790.00,0.3358
3789.00,0.3355
3788.00,0.3353
3787.00,0.3351
3786.00,0.3349
3785.00,0.3348
3784.00,0.3347
3783.00,0.3347
3782.00,0.3346
3781.00,0.3345
3780.00,0.3343
3779.00,0.3342
3778.00,0.3340
3777.00,0.3339
3776.00,0.3338
3775.00,0.3337
3774.00,0.3335
3773.00,0.3334
3772.00,0.3332
3771.00,0.3331
3770.00,0.3330
3769.00,0.3329
3768.00,0.3328
3767.00,0.3328
3766.00,0.3327
3765.00,0.3326
3764.00,0.3324
3763.00,0.3322
3762.00,0.3320
3761.00,0.3318
3760.00,0.3316
3759.00,0.3315
3758.00,0.3313
3757.00,0.3312
3756.00,0.3310
3755.00,0.3310
3754.00,0.3310
3753.00,0.3310
3752.00,0.3310
3751.00,0.3310
3750.00,0.3310
3749.00,0.3311
3748.00,0.3311
3747.00,0.3312
3746.00,0.3310
3745.00,0.3308
3744.00,0.3305
3743.00,0.3302
3742.00,0.3300
3741.00,0.3298
3740.00,0.3296
3739.00,0.3295
3738.00,0.3294
3737.00,0.3293
3736.00,0.3292
3735.00,0.3292
3734.00,0.3292
3733.00,0.3291
3732.00,0.3290
3731.00,0.3287
3730.00,0.3284
3729.00,0.3281
3728.00,0.3278
3727.00,0.3276
3726.00,0.3274
3725.00,0.3271
3724.00,0.3269
3723.00,0.3267
3722.00,0.3265
3721.00,0.3264
3720.00,0.3263
3719.00,0.3262
3718.00,0.3260
3717.00,0.3258
3716.00,0.3256
3715.00,0.3254
3714.00,0.3253
3713.00,0.3253
3712.00,0.3254
3711.00,0.3255
3710.00,0.3255
3709.00,0.3255
3708.00,0.3254
3707.00,0.3253
3706.00,0.3251
3705.00,0.3249
3704.00,0.3248
3703.00,0.3248
3702.00,0.3248
3701.00,0.3247
3700.00,0.3247
3699.00,0.3246
3698.00,0.3246
3697.00,0.3245
3696.00,0.3246
3695.00,0.3246
3694.00,0.3246
3693.00,0.3247
3692.00,0.3248
3691.00,0.3250
3690.00,0.3251
3689.00,0.3253
3688.00,0.3255
3687.00,0.3255
3686.00,0.3254
3685.00,0.3251
3684.00,0.3248
3683.00,0.3246
3682.00,0.3243
3681.00,0.3242
3680.00,0.3240
3679.00,0.3240
3678.00,0.3240
3677.00,0.3241
3676.00,0.3243
3675.00,0.3245
3674.00,0.3246
3673.00,0.3247
3672.00,0.3246
3671.00,0.3246
3670.00,0.3245
3669.00,0.3244
3668.00,0.3242
3667.00,0.3240
3666.00,0.3239
3665.00,0.3238
3664.00,0.3237
3663.00,0.3236
3662.00,0.3236
3661.00,0.3236
3660.00,0.3238
3659.00,0.3239
3658.00,0.3240
3657.00,0.3242
3656.00,0.3244
3655.00,0.3246
3654.00,0.3249
3653.00,0.3251
3652.00,0.3254
3651.00,0.3257
3650.00,0.3259
3649.00,0.3261
3648.00,0.3262
3647.00,0.3263
3646.00,0.3264
3645.00,0.3264
3644.00,0.3263
3643.00,0.3262
3642.00,0.3261
3641.00,0.3260
3640.00,0.3259
3639.00,0.3259
3638.00,0.3259
3637.00,0.3261
3636.00,0.3262
3635.00,0.3264
3634.00,0.3266
3633.00,0.3268
3632.00,0.3270
3631.00,0.3273
3630.00,0.3276
3629.00,0.3280
3628.00,0.3285
3627.00,0.3289
3626.00,0.3292
3625.00,0.3295
3624.00,0.3297
3623.00,0.3300
3622.00,0.3301
3621.00,0.3302
3620.00,0.3302
3619.00,0.3301
3618.00,0.3301
3617.00,0.3300
3616.00,0.3300
3615.00,0.3299
3614.00,0.3299
3613.00,0.3299
3612.00,0.3298
3611.00,0.3298
3610.00,0.3298
3609.00,0.3297
3608.00,0.3297
3607.00,0.3297
3606.00,0.3296
3605.00,0.3295
3604.00,0.3294
3603.00,0.3291
3602.00,0.3288
3601.00,0.3284
3600.00,0.3280
3599.00,0.3275
3598.00,0.3270
3597.00,0.3265
3596.00,0.3259
3595.00,0.3254
3594.00,0.3250
3593.00,0.3245
3592.00,0.3241
3591.00,0.3238
3590.00,0.3235
3589.00,0.3233
3588.00,0.3231
3587.00,0.3230
3586.00,0.3229
3585.00,0.3227
3584.00,0.3226
3583.00,0.3225
3582.00,0.3224
3581.00,0.3223
3580.00,0.3222
3579.00,0.3221
3578.00,0.3221
3577.00,0.3221
3576.00,0.3221
3575.00,0.3222
3574.00,0.3224
3573.00,0.3226
3572.00,0.3228
3571.00,0.3229
3570.00,0.3231
3569.00,0.3234
3568.00,0.3237
3567.00,0.3240
3566.00,0.3243
3565.00,0.3245
3564.00,0.3246
3563.00,0.3246
3562.00,0.3248
3561.00,0.3250
3560.00,0.3252
3559.00,0.3254
3558.00,0.3257
3557.00,0.3260
3556.00,0.3263
3555.00,0.3266
3554.00,0.3270
3553.00,0.3273
3552.00,0.3276
3551.00,0.3280
3550.00,0.3284
3549.00,0.3287
3548.00,0.3291
3547.00,0.3295
3546.00,0.3298
3545.00,0.3302
3544.00,0.3306
3543.00,0.3309
3542.00,0.3313
3541.00,0.3316
3540.00,0.3319
3539.00,0.3322
3538.00,0.3325
3537.00,0.3328
3536.00,0.3330
3535.00,0.3332
3534.00,0.3335
3533.00,0.3338
3532.00,0.3341
3531.00,0.3345
3530.00,0.3348
3529.00,0.3351
3528.00,0.3354
3527.00,0.3358
3526.00,0.3361
3525.00,0.3365
3524.00,0.3369
3523.00,0.3372
3522.00,0.3376
3521.00,0.3379
3520.00,0.3383
3519.00,0.3387
3518.00,0.3391
3517.00,0.3395
3516.00,0.3398
3515.00,0.3402
3514.00,0.3406
3513.00,0.3411
3512.00,0.3416
3511.00,0.3422
3510.00,0.3426
3509.00,0.3430
3508.00,0.3435
3507.00,0.3439
3506.00,0.3443
3505.00,0.3448
3504.00,0.3453
3503.00,0.3458
3502.00,0.3463
3501.00,0.3467
3500.00,0.3472
3499.00,0.3477
3498.00,0.3482
3497.00,0.3488
3496.00,0.3494
3495.00,0.3500
3494.00,0.3506
3493.00,0.3513
3492.00,0.3520
3491.00,0.3528
3490.00,0.3535
3489.00,0.3543
3488.00,0.3551
3487.00,0.3558
3486.00,0.3565
3485.00,0.3572
3484.00,0.3578
3483.00,0.3584
3482.00,0.3589
3481.00,0.3594
3480.00,0.3598
3479.00,0.3603
3478.00,0.3607
3477.00,0.3611
3476.00,0.3616
3475.00,0.3620
3474.00,0.3625
3473.00,0.3629
3472.00,0.3634
3471.00,0.3638
3470.00,0.3643
3469.00,0.3647
3468.00,0.3652
3467.00,0.3657
3466.00,0.3663
3465.00,0.3668
3464.00,0.3674
3463.00,0.3678
3462.00,0.3683
3461.00,0.3689
3460.00,0.3694
3459.00,0.3700
3458.00,0.3707
3457.00,0.3714
3456.00,0.3721
3455.00,0.3728
3454.00,0.3735
3453.00,0.3742
3452.00,0.3749
3451.00,0.3756
3450.00,0.3763
3449.00,0.3770
3448.00,0.3776
3447.00,0.3783
3446.00,0.3790
3445.00,0.3797
3444.00,0.3804
3443.00,0.3810
3442.00,0.3816
3441.00,0.3823
3440.00,0.3830
3439.00,0.3838
3438.00,0.3844
3437.00,0.3851
3436.00,0.3857
3435.00,0.3864
3434.00,0.3870
3433.00,0.3877
3432.00,0.3883
3431.00,0.3889
3430.00,0.3896
3429.00,0.3903
3428.00,0.3910
3427.00,0.3918
3426.00,0.3925
3425.00,0.3933
3424.00,0.3941
3423.00,0.3950
3422.00,0.3960
3421.00,0.3968
3420.00,0.3977
3419.00,0.3985
3418.00,0.3994
3417.00,0.4003
3416.00,0.4013
3415.00,0.4022
3414.00,0.4030
3413.00,0.4039
3412.00,0.4048
3411.00,0.4058
3410.00,0.4067
3409.00,0.4077
3408.00,0.4086
3407.00,0.4095
3406.00,0.4105
3405.00,0.4115
3404.00,0.4125
3403.00,0.4135
3402.00,0.4144
3401.00,0.4152
3400.00,0.4160
3399.00,0.4169
3398.00,0.4177
3397.00,0.4186
3396.00,0.4196
3395.00,0.4206
3394.00,0.4216
3393.00,0.4227
3392.00,0.4237
3391.00,0.4248
3390.00,0.4258
3389.00,0.4268
3388.00,0.4279
3387.00,0.4289
3386.00,0.4301
3385.00,0.4313
3384.00,0.4324
3383.00,0.4335
3382.00,0.4346
3381.00,0.4358
3380.00,0.4370
3379.00,0.4382
3378.00,0.4393
3377.00,0.4405
3376.00,0.4418
3375.00,0.4430
3374.00,0.4443
3373.00,0.4456
3372.00,0.4469
3371.00,0.4482
3370.00,0.4494
3369.00,0.4507
3368.00,0.4521
3367.00,0.4534
3366.00,0.4548
3365.00,0.4562
3364.00,0.4575
3363.00,0.4589
3362.00,0.4603
3361.00,0.4618
3360.00,0.4634
3359.00,0.4649
3358.00,0.4664
3357.00,0.4680
3356.00,0.4695
3355.00,0.4711
3354.00,0.4727
3353.00,0.4742
3352.00,0.4758
3351.00,0.4773
3350.00,0.4789
3349.00,0.4806
3348.00,0.4822
3347.00,0.4838
3346.00,0.4853
3345.00,0.4868
3344.00,0.4883
3343.00,0.4898
3342.00,0.4913
3341.00,0.4926
3340.00,0.4939
3339.00,0.4950
3338.00,0.4962
3337.00,0.4974
3336.00,0.4984
3335.00,0.4994
3334.00,0.5002
3333.00,0.5010
3332.00,0.5017
3331.00,0.5024
3330.00,0.5030
3329.00,0.5035
3328.00,0.5039
3327.00,0.5041
3326.00,0.5042
3325.00,0.5042
3324.00,0.5042
3323.00,0.5042
3322.00,0.5041
3321.00,0.5039
3320.00,0.5037
3319.00,0.5033
3318.00,0.5029
3317.00,0.5025
3316.00,0.5020
3315.00,0.5013
3314.00,0.5007
3313.00,0.5000
3312.00,0.4992
3311.00,0.4985
3310.00,0.4977
3309.00,0.4970
3308.00,0.4963
3307.00,0.4955
3306.00,0.4946
3305.00,0.4937
3304.00,0.4928
3303.00,0.4919
3302.00,0.4909
3301.00,0.4901
3300.00,0.4893
3299.00,0.4886
3298.00,0.4880
3297.00,0.4873
3296.00,0.4867
3295.00,0.4859
3294.00,0.4852
3293.00,0.4846
3292.00,0.4840
3291.00,0.4834
3290.00,0.4829
3289.00,0.4825
3288.00,0.4821
3287.00,0.4817
3286.00,0.4815
3285.00,0.4813
3284.00,0.4811
3283.00,0.4811
3282.00,0.4811
3281.00,0.4812
3280.00,0.4812
3279.00,0.4813
3278.00,0.4815
3277.00,0.4816
3276.00,0.4819
3275.00,0.4821
3274.00,0.4823
3273.00,0.4826
3272.00,0.4829
3271.00,0.4832
3270.00,0.4836
3269.00,0.4840
3268.00,0.4843
3267.00,0.4848
3266.00,0.4852
3265.00,0.4857
3264.00,0.4862
3263.00,0.4868
3262.00,0.4873
3261.00,0.4878
3260.00,0.4883
3259.00,0.4887
3258.00,0.4891
3257.00,0.4896
3256.00,0.4901
3255.00,0.4906
3254.00,0.4911
3253.00,0.4916
3252.00,0.4921
3251.00,0.4926
3250.00,0.4931
3249.00,0.4936
3248.00,0.4941
3247.00,0.4946
3246.00,0.4950
3245.00,0.4955
3244.00,0.4959
3243.00,0.4962
3242.00,0.4966
3241.00,0.4970
3240.00,0.4973
3239.00,0.4976
3238.00,0.4978
3237.00,0.4981
3236.00,0.4984
3235.00,0.4987
3234.00,0.4990
3233.00,0.4992
3232.00,0.4992
3231.00,0.4992
3230.00,0.4991
3229.00,0.4990
3228.00,0.4989
3227.00,0.4988
3226.00,0.4987
3225.00,0.4986
3224.00,0.4985
3223.00,0.4984
3222.00,0.4983
3221.00,0.4982
3220.00,0.4980
3219.00,0.4978
3218.00,0.4977
3217.00,0.4975
3216.00,0.4974
3215.00,0.4971
3214.00,0.4969
3213.00,0.4966
3212.00,0.4964
3211.00,0.4961
3210.00,0.4960
3209.00,0.4958
3208.00,0.4956
3207.00,0.4955
3206.00,0.4953
3205.00,0.4951
3204.00,0.4949
3203.00,0.4946
3202.00,0.4943
3201.00,0.4940
3200.00,0.4937
3199.00,0.4934
3198.00,0.4931
3197.00,0.4927
3196.00,0.4923
3195.00,0.4918
3194.00,0.4913
3193.00,0.4909
3192.00,0.4904
3191.00,0.4899
3190.00,0.4894
3189.00,0.4889
3188.00,0.4883
3187.00,0.4877
3186.00,0.4871
3185.00,0.4864
3184.00,0.4858
3183.00,0.4852
3182.00,0.4846
3181.00,0.4840
3180.00,0.4833
3179.00,0.4826
3178.00,0.4819
3177.00,0.4812
3176.00,0.4804
3175.00,0.4797
3174.00,0.4790
3173.00,0.4782
3172.00,0.4775
3171.00,0.4767
3170.00,0.4760
3169.00,0.4753
3168.00,0.4746
3167.00,0.4739
3166.00,0.4731
3165.00,0.4723
3164.00,0.4715
3163.00,0.4706
3162.00,0.4698
3161.00,0.4690
3160.00,0.4682
3159.00,0.4673
3158.00,0.4664
3157.00,0.4656
3156.00,0.4647
3155.00,0.4639
3154.00,0.4631
3153.00,0.4624
3152.00,0.4616
3151.00,0.4608
3150.00,0.4600
3149.00,0.4593
3148.00,0.4586
3147.00,0.4579
3146.00,0.4573
3145.00,0.4567
3144.00,0.4562
3143.00,0.4556
3142.00,0.4550
3141.00,0.4544
3140.00,0.4539
3139.00,0.4534
3138.00,0.4530
3137.00,0.4526
3136.00,0.4522
3135.00,0.4519
3134.00,0.4515
3133.00,0.4512
3132.00,0.4509
3131.00,0.4506
3130.00,0.4503
3129.00,0.4502
3128.00,0.4502
3127.00,0.4502
3126.00,0.4501
3125.00,0.4500
3124.00,0.4500
3123.00,0.4501
3122.00,0.4502
3121.00,0.4503
3120.00,0.4505
3119.00,0.4506
3118.00,0.4508
3117.00,0.4510
3116.00,0.4513
3115.00,0.4517
3114.00,0.4521
3113.00,0.4526
3112.00,0.4530
3111.00,0.4535
3110.00,0.4542
3109.00,0.4549
3108.00,0.4557
3107.00,0.4565
3106.00,0.4573
3105.00,0.4581
3104.00,0.4589
3103.00,0.4597
3102.00,0.4606
3101.00,0.4614
3100.00,0.4624
3099.00,0.4633
3098.00,0.4644
3097.00,0.4655
3096.00,0.4667
3095.00,0.4681
3094.00,0.4695
3093.00,0.4712
3092.00,0.4731
3091.00,0.4751
3090.00,0.4772
3089.00,0.4794
3088.00,0.4818
3087.00,0.4842
3086.00,0.4869
3085.00,0.4896
3084.00,0.4925
3083.00,0.4955
3082.00,0.4987
3081.00,0.5020
3080.00,0.5057
3079.00,0.5095
3078.00,0.5135
3077.00,0.5176
3076.00,0.5218
3075.00,0.5261
3074.00,0.5304
3073.00,0.5347
3072.00,0.5391
3071.00,0.5435
3070.00,0.5479
3069.00,0.5523
3068.00,0.5567
3067.00,0.5611
3066.00,0.5653
3065.00,0.5694
3064.00,0.5733
3063.00,0.5769
3062.00,0.5802
3061.00,0.5831
3060.00,0.5859
3059.00,0.5885
3058.00,0.5911
3057.00,0.5937
3056.00,0.5963
3055.00,0.5992
3054.00,0.6024
3053.00,0.6058
3052.00,0.6094
3051.00,0.6132
3050.00,0.6173
3049.00,0.6214
3048.00,0.6258
3047.00,0.6304
3046.00,0.6351
3045.00,0.6399
3044.00,0.6447
3043.00,0.6495
3042.00,0.6541
3041.00,0.6586
3040.00,0.6631
3039.00,0.6677
3038.00,0.6726
3037.00,0.6777
3036.00,0.6832
3035.00,0.6890
3034.00,0.6952
3033.00,0.7020
3032.00,0.7093
3031.00,0.7171
3030.00,0.7252
3029.00,0.7337
3028.00,0.7425
3027.00,0.7517
3026.00,0.7612
3025.00,0.7712
3024.00,0.7815
3023.00,0.7921
3022.00,0.8030
3021.00,0.8143
3020.00,0.8259
3019.00,0.8377
3018.00,0.8496
3017.00,0.8615
3016.00,0.8734
3015.00,0.8854
3014.00,0.8976
3013.00,0.9100
3012.00,0.9228
3011.00,0.9360
3010.00,0.9498
3009.00,0.9642
3008.00,0.9792
3007.00,0.9948
3006.00,1.0110
3005.00,1.0279
3004.00,1.0453
3003.00,1.0634
3002.00,1.0820
3001.00,1.1011
3000.00,1.1206
2999.00,1.1413
2998.00,1.1636
2997.00,1.1883
2996.00,1.2155
2995.00,1.2456
2994.00,1.2789
2993.00,1.3160
2992.00,1.3576
2991.00,1.4042
2990.00,1.4564
2989.00,1.5146
2988.00,1.5793
2987.00,1.6514
2986.00,1.7314
2985.00,1.8197
2984.00,1.9166
2983.00,2.0231
2982.00,2.1409
2981.00,2.2721
2980.00,2.4182
2979.00,2.5810
2978.00,2.7594
2977.00,2.9436
2976.00,3.1195
2975.00,3.2862
2974.00,3.4638
2973.00,3.6660
2972.00,3.8587
2971.00,3.9401
2970.00,3.8965
2969.00,3.8544
2968.00,3.8462
2967.00,3.8338
2966.00,3.8123
2965.00,3.8211
2964.00,3.9017
2963.00,4.0005
2962.00,4.0098
2961.00,3.8939
2960.00,3.7590
2959.00,3.7270
2958.00,3.7759
2957.00,3.8097
2956.00,3.7963
2955.00,3.8102
2954.00,3.9248
2953.00,4.1740
2952.00,4.4430
2951.00,4.3312
2950.00,4.1930
2949.00,4.1137
2948.00,4.0821
2947.00,4.0430
2946.00,4.1393
2945.00,4.3308
2944.00,4.2519
2943.00,4.1719
2942.00,4.2984
2941.00,4.7084
2940.00,4.4439
2939.00,4.0792
2938.00,3.8828
2937.00,3.8039
2936.00,3.8021
2935.00,3.8682
2934.00,4.0113
2933.00,4.1126
2932.00,4.1326
2931.00,4.2004
2930.00,4.3509
2929.00,4.5472
2928.00,4.6249
2927.00,4.4653
2926.00,4.1781
2925.00,3.9219
2924.00,3.7932
2923.00,3.7526
2922.00,3.7678
2921.00,3.7920
2920.00,3.7994
2919.00,3.8274
2918.00,3.9310
2917.00,4.1023
2916.00,4.1632
2915.00,4.1187
2914.00,4.0233
2913.00,3.9486
2912.00,3.9217
2911.00,4.0528
2910.00,4.4812
2909.00,4.5784
2908.00,4.3466
2907.00,4.3300
2906.00,4.4794
2905.00,4.2351
2904.00,4.0396
2903.00,4.0309
2902.00,4.1178
2901.00,4.1676
2900.00,4.2618
2899.00,4.3674
2898.00,4.3077
2897.00,4.1743
2896.00,4.2317
2895.00,4.5886
2894.00,4.5312
2893.00,4.5187
2892.00,4.3793
2891.00,4.3240
2890.00,4.1978
2889.00,4.0837
2888.00,4.0654
2887.00,3.9580
2886.00,3.8318
2885.00,3.7449
2884.00,3.7534
2883.00,3.9074
2882.00,4.1200
2881.00,4.1764
2880.00,4.1347
2879.00,4.2696
2878.00,4.5624
2877.00,4.2641
2876.00,3.9305
2875.00,3.7568
2874.00,3.7258
2873.00,3.7424
2872.00,3.7772
2871.00,3.8641
2870.00,3.9763
2869.00,4.1414
2868.00,4.4207
2867.00,4.5293
2866.00,4.3232
2865.00,4.0632
2864.00,3.9504
2863.00,3.9313
2862.00,3.9697
2861.00,4.0844
2860.00,4.3204
2859.00,4.6225
2858.00,4.2742
2857.00,3.9125
2856.00,3.7378
2855.00,3.7517
2854.00,3.8685
2853.00,3.9474
2852.00,3.8800
2851.00,3.7817
2850.00,3.7683
2849.00,3.8103
2848.00,3.8760
2847.00,3.9842
2846.00,4.1961
2845.00,4.4189
2844.00,4.5227
2843.00,4.5471
2842.00,4.2694
2841.00,3.9204
2840.00,3.6553
2839.00,3.4786
2838.00,3.3129
2837.00,3.1286
2836.00,2.9347
2835.00,2.7429
2834.00,2.5641
2833.00,2.4024
2832.00,2.2573
2831.00,2.1263
2830.00,2.0069
2829.00,1.8984
2828.00,1.8012
2827.00,1.7149
2826.00,1.6379
2825.00,1.5685
2824.00,1.5054
2823.00,1.4479
2822.00,1.3953
2821.00,1.3467
2820.00,1.3017
2819.00,1.2602
2818.00,1.2218
2817.00,1.1864
2816.00,1.1533
2815.00,1.1223
2814.00,1.0931
2813.00,1.0655
2812.00,1.0396
2811.00,1.0152
2810.00,0.9921
2809.00,0.9703
2808.00,0.9494
2807.00,0.9296
2806.00,0.9108
2805.00,0.8931
2804.00,0.8764
2803.00,0.8604
2802.00,0.8452
2801.00,0.8307
2800.00,0.8169
2799.00,0.8038
2798.00,0.7911
2797.00,0.7789
2796.00,0.7672
2795.00,0.7560
2794.00,0.7452
2793.00,0.7348
2792.00,0.7246
2791.00,0.7146
2790.00,0.7047
2789.00,0.6951
2788.00,0.6856
2787.00,0.6763
2786.00,0.6673
2785.00,0.6586
2784.00,0.6501
2783.00,0.6420
2782.00,0.6341
2781.00,0.6265
2780.00,0.6192
2779.00,0.6122
2778.00,0.6055
2777.00,0.5992
2776.00,0.5932
2775.00,0.5876
2774.00,0.5823
2773.00,0.5772
2772.00,0.5725
2771.00,0.5681
2770.00,0.5641
2769.00,0.5604
2768.00,0.5571
2767.00,0.5542
2766.00,0.5516
2765.00,0.5493
2764.00,0.5473
2763.00,0.5456
2762.00,0.5442
2761.00,0.5429
2760.00,0.5417
2759.00,0.5405
2758.00,0.5394
2757.00,0.5383
2756.00,0.5372
2755.00,0.5362
2754.00,0.5353
2753.00,0.5346
2752.00,0.5341
2751.00,0.5338
2750.00,0.5337
2749.00,0.5338
2748.00,0.5341
2747.00,0.5346
2746.00,0.5353
2745.00,0.5363
2744.00,0.5376
2743.00,0.5391
2742.00,0.5411
2741.00,0.5434
2740.00,0.5461
2739.00,0.5493
2738.00,0.5530
2737.00,0.5573
2736.00,0.5621
2735.00,0.5673
2734.00,0.5727
2733.00,0.5780
2732.00,0.5828
2731.00,0.5869
2730.00,0.5900
2729.00,0.5920
2728.00,0.5929
2727.00,0.5928
2726.00,0.5920
2725.00,0.5905
2724.00,0.5885
2723.00,0.5862
2722.00,0.5835
2721.00,0.5805
2720.00,0.5773
2719.00,0.5737
2718.00,0.5698
2717.00,0.5657
2716.00,0.5613
2715.00,0.5568
2714.00,0.5522
2713.00,0.5477
2712.00,0.5435
2711.00,0.5395
2710.00,0.5360
2709.00,0.5329
2708.00,0.5303
2707.00,0.5281
2706.00,0.5263
2705.00,0.5249
2704.00,0.5237
2703.00,0.5229
2702.00,0.5223
2701.00,0.5219
2700.00,0.5218
2699.00,0.5218
2698.00,0.5220
2697.00,0.5223
2696.00,0.5229
2695.00,0.5236
2694.00,0.5245
2693.00,0.5253
2692.00,0.5262
2691.00,0.5271
2690.00,0.5280
2689.00,0.5289
2688.00,0.5296
2687.00,0.5302
2686.00,0.5308
2685.00,0.5313
2684.00,0.5317
2683.00,0.5321
2682.00,0.5324
2681.00,0.5327
2680.00,0.5331
2679.00,0.5335
2678.00,0.5339
2677.00,0.5343
2676.00,0.5347
2675.00,0.5352
2674.00,0.5355
2673.00,0.5358
2672.00,0.5360
2671.00,0.5360
2670.00,0.5358
2669.00,0.5354
2668.00,0.5346
2667.00,0.5336
2666.00,0.5323
2665.00,0.5309
2664.00,0.5293
2663.00,0.5276
2662.00,0.5257
2661.00,0.5237
2660.00,0.5215
2659.00,0.5194
2658.00,0.5173
2657.00,0.5152
2656.00,0.5131
2655.00,0.5111
2654.00,0.5092
2653.00,0.5073
2652.00,0.5055
2651.00,0.5038
2650.00,0.5022
2649.00,0.5008
2648.00,0.4994
2647.00,0.4981
2646.00,0.4968
2645.00,0.4956
2644.00,0.4944
2643.00,0.4933
2642.00,0.4922
2641.00,0.4912
2640.00,0.4901
2639.00,0.4892
2638.00,0.4884
2637.00,0.4876
2636.00,0.4868
2635.00,0.4861
2634.00,0.4853
2633.00,0.4845
2632.00,0.4838
2631.00,0.4830
2630.00,0.4823
2629.00,0.4816
2628.00,0.4807
2627.00,0.4799
2626.00,0.4790
2625.00,0.4782
2624.00,0.4774
2623.00,0.4765
2622.00,0.4756
2621.00,0.4746
2620.00,0.4736
2619.00,0.4726
2618.00,0.4716
2617.00,0.4707
2616.00,0.4697
2615.00,0.4687
2614.00,0.4677
2613.00,0.4666
2612.00,0.4656
2611.00,0.4647
2610.00,0.4638
2609.00,0.4630
2608.00,0.4620
2607.00,0.4611
2606.00,0.4601
2605.00,0.4590
2604.00,0.4580
2603.00,0.4570
2602.00,0.4561
2601.00,0.4552
2600.00,0.4541
2599.00,0.4530
2598.00,0.4517
2597.00,0.4504
2596.00,0.4491
2595.00,0.4477
2594.00,0.4462
2593.00,0.4448
2592.00,0.4433
2591.00,0.4418
2590.00,0.4402
2589.00,0.4386
2588.00,0.4369
2587.00,0.4352
2586.00,0.4335
2585.00,0.4318
2584.00,0.4300
2583.00,0.4282
2582.00,0.4264
2581.00,0.4246
2580.00,0.4227
2579.00,0.4208
2578.00,0.4190
2577.00,0.4173
2576.00,0.4156
2575.00,0.4139
2574.00,0.4123
2573.00,0.4107
2572.00,0.4092
2571.00,0.4077
2570.00,0.4063
2569.00,0.4049
2568.00,0.4035
2567.00,0.4021
2566.00,0.4008
2565.00,0.3995
2564.00,0.3983
2563.00,0.3970
2562.00,0.3958
2561.00,0.3946
2560.00,0.3934
2559.00,0.3922
2558.00,0.3910
2557.00,0.3899
2556.00,0.3888
2555.00,0.3877
2554.00,0.3866
2553.00,0.3854
2552.00,0.3843
2551.00,0.3831
2550.00,0.3820
2549.00,0.3809
2548.00,0.3799
2547.00,0.3789
2546.00,0.3779
2545.00,0.3770
2544.00,0.3761
2543.00,0.3752
2542.00,0.3744
2541.00,0.3735
2540.00,0.3727
2539.00,0.3719
2538.00,0.3712
2537.00,0.3705
2536.00,0.3698
2535.00,0.3692
2534.00,0.3687
2533.00,0.3682
2532.00,0.3677
2531.00,0.3671
2530.00,0.3664
2529.00,0.3657
2528.00,0.3649
2527.00,0.3641
2526.00,0.3632
2525.00,0.3624
2524.00,0.3616
2523.00,0.3608
2522.00,0.3599
2521.00,0.3590
2520.00,0.3581
2519.00,0.3572
2518.00,0.3562
2517.00,0.3553
2516.00,0.3544
2515.00,0.3535
2514.00,0.3526
2513.00,0.3517
2512.00,0.3508
2511.00,0.3499
2510.00,0.3491
2509.00,0.3483
2508.00,0.3476
2507.00,0.3469
2506.00,0.3463
2505.00,0.3457
2504.00,0.3451
2503.00,0.3446
2502.00,0.3441
2501.00,0.3436
2500.00,0.3432
2499.00,0.3429
2498.00,0.3426
2497.00,0.3423
2496.00,0.3421
2495.00,0.3418
2494.00,0.3416
2493.00,0.3413
2492.00,0.3411
2491.00,0.3408
2490.00,0.3404
2489.00,0.3401
2488.00,0.3398
2487.00,0.3395
2486.00,0.3392
2485.00,0.3388
2484.00,0.3385
2483.00,0.3381
2482.00,0.3377
2481.00,0.3373
2480.00,0.3369
2479.00,0.3364
2478.00,0.3359
2477.00,0.3353
2476.00,0.3348
2475.00,0.3344
2474.00,0.3340
2473.00,0.3337
2472.00,0.3334
2471.00,0.3330
2470.00,0.3327
2469.00,0.3323
2468.00,0.3321
2467.00,0.3318
2466.00,0.3316
2465.00,0.3314
2464.00,0.3312
2463.00,0.3310
2462.00,0.3308
2461.00,0.3307
2460.00,0.3306
2459.00,0.3305
2458.00,0.3304
2457.00,0.3303
2456.00,0.3302
2455.00,0.3302
2454.00,0.3302
2453.00,0.3301
2452.00,0.3301
2451.00,0.3300
2450.00,0.3300
2449.00,0.3299
2448.00,0.3299
2447.00,0.3297
2446.00,0.3296
2445.00,0.3295
2444.00,0.3294
2443.00,0.3293
2442.00,0.3293
2441.00,0.3292
2440.00,0.3292
2439.00,0.3291
2438.00,0.3290
2437.00,0.3289
2436.00,0.3289
2435.00,0.3289
2434.00,0.3290
2433.00,0.3291
2432.00,0.3292
2431.00,0.3291
2430.00,0.3291
2429.00,0.3292
2428.00,0.3292
2427.00,0.3293
2426.00,0.3295
2425.00,0.3296
2424.00,0.3298
2423.00,0.3300
2422.00,0.3302
2421.00,0.3303
2420.00,0.3305
2419.00,0.3306
2418.00,0.3307
2417.00,0.3309
2416.00,0.3310
2415.00,0.3310
2414.00,0.3310
2413.00,0.3311
2412.00,0.3312
2411.00,0.3312
2410.00,0.3312
2409.00,0.3311
2408.00,0.3310
2407.00,0.3308
2406.00,0.3307
2405.00,0.3305
2404.00,0.3304
2403.00,0.3302
2402.00,0.3300
2401.00,0.3298
2400.00,0.3296
2399.00,0.3294
2398.00,0.3292
2397.00,0.3291
2396.00,0.3289
2395.00,0.3287
2394.00,0.3286
2393.00,0.3284
2392.00,0.3283
2391.00,0.3282
2390.00,0.3281
2389.00,0.3281
2388.00,0.3281
2387.00,0.3281
2386.00,0.3282
2385.00,0.3282
2384.00,0.3282
2383.00,0.3282
2382.00,0.3283
2381.00,0.3285
2380.00,0.3286
2379.00,0.3286
2378.00,0.3285
2377.00,0.3284
2376.00,0.3283
2375.00,0.3281
2374.00,0.3280
2373.00,0.3278
2372.00,0.3277
2371.00,0.3276
2370.00,0.3275
2369.00,0.3276
2368.00,0.3278
2367.00,0.3278
2366.00,0.3278
2365.00,0.3278
2364.00,0.3278
2363.00,0.3277
2362.00,0.3276
2361.00,0.3276
2360.00,0.3275
2359.00,0.3274
2358.00,0.3273
2357.00,0.3273
2356.00,0.3273
2355.00,0.3272
2354.00,0.3271
2353.00,0.3270
2352.00,0.3269
2351.00,0.3268
2350.00,0.3268
2349.00,0.3267
2348.00,0.3266
2347.00,0.3265
2346.00,0.3264
2345.00,0.3262
2344.00,0.3260
2343.00,0.3260
2342.00,0.3261
2341.00,0.3261
2340.00,0.3260
2339.00,0.3259
2338.00,0.3257
2337.00,0.3256
2336.00,0.3255
2335.00,0.3255
2334.00,0.3253
2333.00,0.3251
2332.00,0.3249
2331.00,0.3246
2330.00,0.3242
2329.00,0.3239
2328.00,0.3236
2327.00,0.3234
2326.00,0.3232
2325.00,0.3231
2324.00,0.3229
2323.00,0.3226
2322.00,0.3223
2321.00,0.3219
2320.00,0.3216
2319.00,0.3213
2318.00,0.3210
2317.00,0.3208
2316.00,0.3207
2315.00,0.3205
2314.00,0.3204
2313.00,0.3201
2312.00,0.3199
2311.00,0.3196
2310.00,0.3193
2309.00,0.3190
2308.00,0.3187
2307.00,0.3184
2306.00,0.3181
2305.00,0.3178
2304.00,0.3176
2303.00,0.3173
2302.00,0.3171
2301.00,0.3168
2300.00,0.3165
2299.00,0.3162
2298.00,0.3159
2297.00,0.3157
2296.00,0.3154
2295.00,0.3152
2294.00,0.3149
2293.00,0.3146
2292.00,0.3143
2291.00,0.3140
2290.00,0.3138
2289.00,0.3136
2288.00,0.3133
2287.00,0.3130
2286.00,0.3127
2285.00,0.3124
2284.00,0.3121
2283.00,0.3119
2282.00,0.3116
2281.00,0.3113
2280.00,0.3110
2279.00,0.3107
2278.00,0.3104
2277.00,0.3101
2276.00,0.3099
2275.00,0.3096
2274.00,0.3093
2273.00,0.3090
2272.00,0.3088
2271.00,0.3086
2270.00,0.3083
2269.00,0.3082
2268.00,0.3080
2267.00,0.3078
2266.00,0.3076
2265.00,0.3074
2264.00,0.3072
2263.00,0.3070
2262.00,0.3068
2261.00,0.3066
2260.00,0.3064
2259.00,0.3062
2258.00,0.3059
2257.00,0.3057
2256.00,0.3054
2255.00,0.3052
2254.00,0.3050
2253.00,0.3049
2252.00,0.3047
2251.00,0.3045
2250.00,0.3042
2249.00,0.3040
2248.00,0.3037
2247.00,0.3035
2246.00,0.3033
2245.00,0.3031
2244.00,0.3029
2243.00,0.3027
2242.00,0.3024
2241.00,0.3022
2240.00,0.3020
2239.00,0.3018
2238.00,0.3016
2237.00,0.3014
2236.00,0.3012
2235.00,0.3011
2234.00,0.3010
2233.00,0.3009
2232.00,0.3008
2231.00,0.3006
2230.00,0.3005
2229.00,0.3004
2228.00,0.3003
2227.00,0.3003
2226.00,0.3002
2225.00,0.3001
2224.00,0.3000
2223.00,0.2999
2222.00,0.2999
2221.00,0.2998
2220.00,0.2998
2219.00,0.2998
2218.00,0.2997
2217.00,0.2997
2216.00,0.2997
2215.00,0.2997
2214.00,0.2997
2213.00,0.2996
2212.00,0.2996
2211.00,0.2995
2210.00,0.2995
2209.00,0.2995
2208.00,0.2995
2207.00,0.2994
2206.00,0.2993
2205.00,0.2992
2204.00,0.2992
2203.00,0.2991
2202.00,0.2989
2201.00,0.2988
2200.00,0.2988
2199.00,0.2988
2198.00,0.2988
2197.00,0.2988
2196.00,0.2988
2195.00,0.2988
2194.00,0.2988
2193.00,0.2987
2192.00,0.2987
2191.00,0.2987
2190.00,0.2987
2189.00,0.2988
2188.00,0.2988
2187.00,0.2988
2186.00,0.2988
2185.00,0.2988
2184.00,0.2988
2183.00,0.2988
2182.00,0.2988
2181.00,0.2988
2180.00,0.2988
2179.00,0.2987
2178.00,0.2986
2177.00,0.2985
2176.00,0.2984
2175.00,0.2983
2174.00,0.2982
2173.00,0.2981
2172.00,0.2980
2171.00,0.2979
2170.00,0.2977
2169.00,0.2975
2168.00,0.2974
2167.00,0.2972
2166.00,0.2970
2165.00,0.2968
2164.00,0.2966
2163.00,0.2963
2162.00,0.2961
2161.00,0.2959
2160.00,0.2958
2159.00,0.2956
2158.00,0.2954
2157.00,0.2952
2156.00,0.2951
2155.00,0.2949
2154.00,0.2948
2153.00,0.2946
2152.00,0.2945
2151.00,0.2943
2150.00,0.2942
2149.00,0.2940
2148.00,0.2939
2147.00,0.2937
2146.00,0.2934
2145.00,0.2930
2144.00,0.2927
2143.00,0.2923
2142.00,0.2920
2141.00,0.2916
2140.00,0.2913
2139.00,0.2909
2138.00,0.2906
2137.00,0.2904
2136.00,0.2901
2135.00,0.2898
2134.00,0.2896
2133.00,0.2893
2132.00,0.2892
2131.00,0.2890
2130.00,0.2887
2129.00,0.2885
2128.00,0.2883
2127.00,0.2880
2126.00,0.2877
2125.00,0.2875
2124.00,0.2873
2123.00,0.2871
2122.00,0.2869
2121.00,0.2869
2120.00,0.2868
2119.00,0.2867
2118.00,0.2865
2117.00,0.2863
2116.00,0.2861
2115.00,0.2860
2114.00,0.2860
2113.00,0.2860
2112.00,0.2861
2111.00,0.2861
2110.00,0.2861
2109.00,0.2861
2108.00,0.2861
2107.00,0.2860
2106.00,0.2860
2105.00,0.2860
2104.00,0.2861
2103.00,0.2860
2102.00,0.2860
2101.00,0.2859
2100.00,0.2859
2099.00,0.2859
2098.00,0.2858
2097.00,0.2857
2096.00,0.2856
2095.00,0.2855
2094.00,0.2855
2093.00,0.2854
2092.00,0.2854
2091.00,0.2853
2090.00,0.2852
2089.00,0.2852
2088.00,0.2852
2087.00,0.2851
2086.00,0.2850
2085.00,0.2849
2084.00,0.2848
2083.00,0.2848
2082.00,0.2847
2081.00,0.2847
2080.00,0.2847
2079.00,0.2847
2078.00,0.2846
2077.00,0.2846
2076.00,0.2847
2075.00,0.2848
2074.00,0.2849
2073.00,0.2850
2072.00,0.2851
2071.00,0.2852
2070.00,0.2853
2069.00,0.2854
2068.00,0.2855
2067.00,0.2856
2066.00,0.2857
2065.00,0.2858
2064.00,0.2859
2063.00,0.2861
2062.00,0.2862
2061.00,0.2864
2060.00,0.2865
2059.00,0.2866
2058.00,0.2867
2057.00,0.2868
2056.00,0.2869
2055.00,0.2870
2054.00,0.2871
2053.00,0.2872
2052.00,0.2873
2051.00,0.2873
2050.00,0.2874
2049.00,0.2875
2048.00,0.2877
2047.00,0.2879
2046.00,0.2880
2045.00,0.2881
2044.00,0.2882
2043.00,0.2883
2042.00,0.2883
2041.00,0.2884
2040.00,0.2886
2039.00,0.2888
2038.00,0.2890
2037.00,0.2891
2036.00,0.2893
2035.00,0.2894
2034.00,0.2894
2033.00,0.2895
2032.00,0.2895
2031.00,0.2895
2030.00,0.2896
2029.00,0.2896
2028.00,0.2896
2027.00,0.2895
2026.00,0.2894
2025.00,0.2893
2024.00,0.2891
2023.00,0.2889
2022.00,0.2886
2021.00,0.2883
2020.00,0.2878
2019.00,0.2872
2018.00,0.2865
2017.00,0.2859
2016.00,0.2855
2015.00,0.2851
2014.00,0.2846
2013.00,0.2841
2012.00,0.2836
2011.00,0.2830
2010.00,0.2825
2009.00,0.2820
2008.00,0.2816
2007.00,0.2813
2006.00,0.2810
2005.00,0.2808
2004.00,0.2805
2003.00,0.2803
2002.00,0.2801
2001.00,0.2800
2000.00,0.2799
1999.00,0.2798
1998.00,0.2797
1997.00,0.2797
1996.00,0.2796
1995.00,0.2794
1994.00,0.2791
1993.00,0.2788
1992.00,0.2787
1991.00,0.2787
1990.00,0.2787
1989.00,0.2788
1988.00,0.2788
1987.00,0.2788
1986.00,0.2789
1985.00,0.2790
1984.00,0.2791
1983.00,0.2790
1982.00,0.2790
1981.00,0.2789
1980.00,0.2789
1979.00,0.2788
1978.00,0.2788
1977.00,0.2788
1976.00,0.2787
1975.00,0.2787
1974.00,0.2786
1973.00,0.2786
1972.00,0.2787
1971.00,0.2786
1970.00,0.2784
1969.00,0.2782
1968.00,0.2780
1967.00,0.2780
1966.00,0.2782
1965.00,0.2785
1964.00,0.2787
1963.00,0.2787
1962.00,0.2787
1961.00,0.2787
1960.00,0.2788
1959.00,0.2789
1958.00,0.2790
1957.00,0.2792
1956.00,0.2793
1955.00,0.2795
1954.00,0.2796
1953.00,0.2797
1952.00,0.2799
1951.00,0.2800
1950.00,0.2801
1949.00,0.2802
1948.00,0.2803
1947.00,0.2804
1946.00,0.2805
1945.00,0.2806
1944.00,0.2808
1943.00,0.2811
1942.00,0.2816
1941.00,0.2825
1940.00,0.2834
1939.00,0.2840
1938.00,0.2843
1937.00,0.2844
1936.00,0.2843
1935.00,0.2841
1934.00,0.2839
1933.00,0.2838
1932.00,0.2838
1931.00,0.2838
1930.00,0.2838
1929.00,0.2839
1928.00,0.2839
1927.00,0.2839
1926.00,0.2837
1925.00,0.2835
1924.00,0.2834
1923.00,0.2835
1922.00,0.2839
1921.00,0.2846
1920.00,0.2853
1919.00,0.2857
1918.00,0.2860
1917.00,0.2865
1916.00,0.2869
1915.00,0.2872
1914.00,0.2872
1913.00,0.2872
1912.00,0.2872
1911.00,0.2871
1910.00,0.2870
1909.00,0.2871
1908.00,0.2874
1907.00,0.2877
1906.00,0.2879
1905.00,0.2881
1904.00,0.2882
1903.00,0.2882
1902.00,0.2882
1901.00,0.2883
1900.00,0.2884
1899.00,0.2885
1898.00,0.2886
1897.00,0.2886
1896.00,0.2887
1895.00,0.2889
1894.00,0.2891
1893.00,0.2894
1892.00,0.2895
1891.00,0.2894
1890.00,0.2892
1889.00,0.2892
1888.00,0.2894
1887.00,0.2896
1886.00,0.2897
1885.00,0.2897
1884.00,0.2897
1883.00,0.2897
1882.00,0.2897
1881.00,0.2896
1880.00,0.2896
1879.00,0.2895
1878.00,0.2894
1877.00,0.2893
1876.00,0.2893
1875.00,0.2891
1874.00,0.2889
1873.00,0.2887
1872.00,0.2884
1871.00,0.2879
1870.00,0.2874
1869.00,0.2869
1868.00,0.2869
1867.00,0.2871
1866.00,0.2873
1865.00,0.2874
1864.00,0.2874
1863.00,0.2872
1862.00,0.2869
1861.00,0.2866
1860.00,0.2864
1859.00,0.2862
1858.00,0.2861
1857.00,0.2860
1856.00,0.2858
1855.00,0.2856
1854.00,0.2854
1853.00,0.2852
1852.00,0.2850
1851.00,0.2847
1850.00,0.2843
1849.00,0.2838
1848.00,0.2834
1847.00,0.2832
1846.00,0.2831
1845.00,0.2830
1844.00,0.2830
1843.00,0.2830
1842.00,0.2831
1841.00,0.2831
1840.00,0.2830
1839.00,0.2828
1838.00,0.2826
1837.00,0.2825
1836.00,0.2826
1835.00,0.2826
1834.00,0.2826
1833.00,0.2826
1832.00,0.2825
1831.00,0.2823
1830.00,0.2822
1829.00,0.2823
1828.00,0.2824
1827.00,0.2824
1826.00,0.2822
1825.00,0.2821
1824.00,0.2822
1823.00,0.2825
1822.00,0.2827
1821.00,0.2828
1820.00,0.2828
1819.00,0.2828
1818.00,0.2826
1817.00,0.2827
1816.00,0.2828
1815.00,0.2829
1814.00,0.2829
1813.00,0.2827
1812.00,0.2827
1811.00,0.2828
1810.00,0.2830
1809.00,0.2833
1808.00,0.2836
1807.00,0.2840
1806.00,0.2843
1805.00,0.2846
1804.00,0.2847
1803.00,0.2847
1802.00,0.2848
1801.00,0.2854
1800.00,0.2864
1799.00,0.2872
1798.00,0.2878
1797.00,0.2881
1796.00,0.2884
1795.00,0.2889
1794.00,0.2892
1793.00,0.2896
1792.00,0.2900
1791.00,0.2906
1790.00,0.2913
1789.00,0.2921
1788.00,0.2926
1787.00,0.2929
1786.00,0.2929
1785.00,0.2932
1784.00,0.2936
1783.00,0.2941
1782.00,0.2943
1781.00,0.2945
1780.00,0.2949
1779.00,0.2954
1778.00,0.2960
1777.00,0.2965
1776.00,0.2969
1775.00,0.2974
1774.00,0.2980
1773.00,0.2987
1772.00,0.2996
1771.00,0.3004
1770.00,0.3010
1769.00,0.3014
1768.00,0.3022
1767.00,0.3032
1766.00,0.3045
1765.00,0.3057
1764.00,0.3068
1763.00,0.3079
1762.00,0.3093
1761.00,0.3111
1760.00,0.3132
1759.00,0.3152
1758.00,0.3173
1757.00,0.3199
1756.00,0.3231
1755.00,0.3264
1754.00,0.3294
1753.00,0.3322
1752.00,0.3351
1751.00,0.3384
1750.00,0.3420
1749.00,0.3456
1748.00,0.3490
1747.00,0.3518
1746.00,0.3540
1745.00,0.3556
1744.00,0.3571
1743.00,0.3584
1742.00,0.3595
1741.00,0.3603
1740.00,0.3604
1739.00,0.3598
1738.00,0.3590
1737.00,0.3582
1736.00,0.3570
1735.00,0.3552
1734.00,0.3533
1733.00,0.3520
1732.00,0.3513
1731.00,0.3508
1730.00,0.3505
1729.00,0.3505
1728.00,0.3510
1727.00,0.3515
1726.00,0.3521
1725.00,0.3530
1724.00,0.3544
1723.00,0.3562
1722.00,0.3586
1721.00,0.3614
1720.00,0.3646
1719.00,0.3683
1718.00,0.3733
1717.00,0.3803
1716.00,0.3887
1715.00,0.3979
1714.00,0.4077
1713.00,0.4176
1712.00,0.4272
1711.00,0.4361
1710.00,0.4441
1709.00,0.4504
1708.00,0.4543
1707.00,0.4554
1706.00,0.4538
1705.00,0.4497
1704.00,0.4444
1703.00,0.4388
1702.00,0.4322
1701.00,0.4230
1700.00,0.4116
1699.00,0.4014
1698.00,0.3938
1697.00,0.3871
1696.00,0.3807
1695.00,0.3750
1694.00,0.3708
1693.00,0.3675
1692.00,0.3645
1691.00,0.3614
1690.00,0.3583
1689.00,0.3558
1688.00,0.3541
1687.00,0.3527
1686.00,0.3514
1685.00,0.3497
1684.00,0.3482
1683.00,0.3474
1682.00,0.3468
1681.00,0.3461
1680.00,0.3456
1679.00,0.3453
1678.00,0.3454
1677.00,0.3456
1676.00,0.3455
1675.00,0.3453
1674.00,0.3450
1673.00,0.3449
1672.00,0.3447
1671.00,0.3444
1670.00,0.3441
1669.00,0.3441
1668.00,0.3443
1667.00,0.3443
1666.00,0.3442
1665.00,0.3443
1664.00,0.3444
1663.00,0.3444
1662.00,0.3444
1661.00,0.3445
1660.00,0.3447
1659.00,0.3447
1658.00,0.3448
1657.00,0.3450
1656.00,0.3453
1655.00,0.3456
1654.00,0.3459
1653.00,0.3471
1652.00,0.3484
1651.00,0.3489
1650.00,0.3491
1649.00,0.3494
1648.00,0.3497
1647.00,0.3506
1646.00,0.3522
1645.00,0.3540
1644.00,0.3554
1643.00,0.3565
1642.00,0.3577
1641.00,0.3591
1640.00,0.3608
1639.00,0.3625
1638.00,0.3643
1637.00,0.3665
1636.00,0.3694
1635.00,0.3727
1634.00,0.3753
1633.00,0.3772
1632.00,0.3790
1631.00,0.3809
1630.00,0.3830
1629.00,0.3856
1628.00,0.3885
1627.00,0.3916
1626.00,0.3947
1625.00,0.3982
1624.00,0.4023
1623.00,0.4069
1622.00,0.4118
1621.00,0.4172
1620.00,0.4230
1619.00,0.4295
1618.00,0.4375
1617.00,0.4480
1616.00,0.4599
1615.00,0.4712
1614.00,0.4811
1613.00,0.4908
1612.00,0.5010
1611.00,0.5113
1610.00,0.5214
1609.00,0.5316
1608.00,0.5415
1607.00,0.5503
1606.00,0.5579
1605.00,0.5649
1604.00,0.5717
1603.00,0.5781
1602.00,0.5842
1601.00,0.5910
1600.00,0.5987
1599.00,0.6071
1598.00,0.6165
1597.00,0.6285
1596.00,0.6441
1595.00,0.6637
1594.00,0.6881
1593.00,0.7190
1592.00,0.7585
1591.00,0.8081
1590.00,0.8701
1589.00,0.9489
1588.00,1.0499
1587.00,1.1765
1586.00,1.3309
1585.00,1.5172
1584.00,1.7390
1583.00,1.9688
1582.00,2.1054
1581.00,2.0731
1580.00,1.9360
1579.00,1.7552
1578.00,1.5562
1577.00,1.3638
1576.00,1.2020
1575.00,1.0836
1574.00,1.0038
1573.00,0.9496
1572.00,0.9100
1571.00,0.8794
1570.00,0.8581
1569.00,0.8499
1568.00,0.8561
1567.00,0.8759
1566.00,0.9101
1565.00,0.9619
1564.00,1.0293
1563.00,1.1016
1562.00,1.1662
1561.00,1.2129
1560.00,1.2156
1559.00,1.1433
1558.00,1.0374
1557.00,0.9491
1556.00,0.8777
1555.00,0.8113
1554.00,0.7504
1553.00,0.7010
1552.00,0.6636
1551.00,0.6336
1550.00,0.6082
1549.00,0.5880
1548.00,0.5728
1547.00,0.5607
1546.00,0.5499
1545.00,0.5403
1544.00,0.5328
1543.00,0.5272
1542.00,0.5225
1541.00,0.5178
1540.00,0.5132
1539.00,0.5088
1538.00,0.5048
1537.00,0.5015
1536.00,0.4988
1535.00,0.4959
1534.00,0.4929
1533.00,0.4908
1532.00,0.4902
1531.00,0.4905
1530.00,0.4909
1529.00,0.4917
1528.00,0.4925
1527.00,0.4929
1526.00,0.4929
1525.00,0.4929
1524.00,0.4931
1523.00,0.4932
1522.00,0.4937
1521.00,0.4957
1520.00,0.4990
1519.00,0.5024
1518.00,0.5056
1517.00,0.5092
1516.00,0.5130
1515.00,0.5159
1514.00,0.5175
1513.00,0.5182
1512.00,0.5188
1511.00,0.5193
1510.00,0.5204
1509.00,0.5231
1508.00,0.5287
1507.00,0.5390
1506.00,0.5531
1505.00,0.5665
1504.00,0.5768
1503.00,0.5850
1502.00,0.5926
1501.00,0.6004
1500.00,0.6082
1499.00,0.6155
1498.00,0.6229
1497.00,0.6322
1496.00,0.6434
1495.00,0.6548
1494.00,0.6656
1493.00,0.6768
1492.00,0.6890
1491.00,0.7023
1490.00,0.7176
1489.00,0.7358
1488.00,0.7561
1487.00,0.7777
1486.00,0.8014
1485.00,0.8286
1484.00,0.8597
1483.00,0.8953
1482.00,0.9376
1481.00,0.9879
1480.00,1.0446
1479.00,1.1064
1478.00,1.1764
1477.00,1.2599
1476.00,1.3583
1475.00,1.4711
1474.00,1.6076
1473.00,1.7883
1472.00,2.0244
1471.00,2.3006
1470.00,2.6016
1469.00,2.9425
1468.00,3.3193
1467.00,3.5278
1466.00,3.6775
1465.00,4.1692
1464.00,3.9657
1463.00,3.7428
1462.00,3.6417
1461.00,3.6349
1460.00,3.7568
1459.00,3.5888
1458.00,3.4048
1457.00,3.4209
1456.00,3.4338
1455.00,3.3591
1454.00,3.3565
1453.00,3.4787
1452.00,3.5736
1451.00,3.4842
1450.00,3.4253
1449.00,3.4325
1448.00,3.3183
1447.00,3.1112
1446.00,2.9651
1445.00,2.8592
1444.00,2.7142
1443.00,2.5394
1442.00,2.3851
1441.00,2.2594
1440.00,2.1456
1439.00,2.0324
1438.00,1.9151
1437.00,1.7921
1436.00,1.6718
1435.00,1.5661
1434.00,1.4746
1433.00,1.3886
1432.00,1.3032
1431.00,1.2209
1430.00,1.1467
1429.00,1.0832
1428.00,1.0311
1427.00,0.9895
1426.00,0.9554
1425.00,0.9263
1424.00,0.9022
1423.00,0.8839
1422.00,0.8705
1421.00,0.8590
1420.00,0.8474
1419.00,0.8363
1418.00,0.8268
1417.00,0.8193
1416.00,0.8132
1415.00,0.8085
1414.00,0.8048
1413.00,0.8018
1412.00,0.7996
1411.00,0.7983
1410.00,0.7970
1409.00,0.7944
1408.00,0.7899
1407.00,0.7829
1406.00,0.7732
1405.00,0.7612
1404.00,0.7483
1403.00,0.7365
1402.00,0.7260
1401.00,0.7163
1400.00,0.7076
1399.00,0.7009
1398.00,0.6966
1397.00,0.6946
1396.00,0.6953
1395.00,0.6998
1394.00,0.7088
1393.00,0.7224
1392.00,0.7416
1391.00,0.7684
1390.00,0.8054
1389.00,0.8558
1388.00,0.9239
1387.00,1.0111
1386.00,1.1119
1385.00,1.2183
1384.00,1.3283
1383.00,1.4453
1382.00,1.5730
1381.00,1.7146
1380.00,1.8735
1379.00,2.0410
1378.00,2.1774
1377.00,2.2262
1376.00,2.1697
1375.00,2.0362
1374.00,1.8710
1373.00,1.7148
1372.00,1.5857
1371.00,1.4847
1370.00,1.4092
1369.00,1.3579
1368.00,1.3270
1367.00,1.3056
1366.00,1.2781
1365.00,1.2327
1364.00,1.1686
1363.00,1.0963
1362.00,1.0293
1361.00,0.9753
1360.00,0.9351
1359.00,0.9055
1358.00,0.8838
1357.00,0.8681
1356.00,0.8576
1355.00,0.8512
1354.00,0.8477
1353.00,0.8458
1352.00,0.8442
1351.00,0.8423
1350.00,0.8396
1349.00,0.8363
1348.00,0.8327
1347.00,0.8295
1346.00,0.8268
1345.00,0.8244
1344.00,0.8223
1343.00,0.8200
1342.00,0.8167
1341.00,0.8115
1340.00,0.8040
1339.00,0.7947
1338.00,0.7839
1337.00,0.7718
1336.00,0.7585
1335.00,0.7446
1334.00,0.7308
1333.00,0.7177
1332.00,0.7059
1331.00,0.6960
1330.00,0.6880
1329.00,0.6818
1328.00,0.6773
1327.00,0.6744
1326.00,0.6728
1325.00,0.6722
1324.00,0.6721
1323.00,0.6726
1322.00,0.6731
1321.00,0.6736
1320.00,0.6740
1319.00,0.6746
1318.00,0.6758
1317.00,0.6776
1316.00,0.6800
1315.00,0.6829
1314.00,0.6863
1313.00,0.6902
1312.00,0.6944
1311.00,0.6986
1310.00,0.7024
1309.00,0.7055
1308.00,0.7080
1307.00,0.7099
1306.00,0.7110
1305.00,0.7108
1304.00,0.7092
1303.00,0.7063
1302.00,0.7023
1301.00,0.6975
1300.00,0.6920
1299.00,0.6862
1298.00,0.6802
1297.00,0.6743
1296.00,0.6687
1295.00,0.6636
1294.00,0.6590
1293.00,0.6546
1292.00,0.6505
1291.00,0.6466
1290.00,0.6429
1289.00,0.6393
1288.00,0.6359
1287.00,0.6326
1286.00,0.6293
1285.00,0.6257
1284.00,0.6218
1283.00,0.6180
1282.00,0.6147
1281.00,0.6118
1280.00,0.6094
1279.00,0.6074
1278.00,0.6055
1277.00,0.6036
1276.00,0.6015
1275.00,0.5994
1274.00,0.5974
1273.00,0.5955
1272.00,0.5940
1271.00,0.5931
1270.00,0.5926
1269.00,0.5921
1268.00,0.5908
1267.00,0.5884
1266.00,0.5849
1265.00,0.5807
1264.00,0.5765
1263.00,0.5729
1262.00,0.5702
1261.00,0.5680
1260.00,0.5661
1259.00,0.5645
1258.00,0.5629
1257.00,0.5610
1256.00,0.5588
1255.00,0.5566
1254.00,0.5547
1253.00,0.5532
1252.00,0.5522
1251.00,0.5513
1250.00,0.5502
1249.00,0.5488
1248.00,0.5471
1247.00,0.5451
1246.00,0.5430
1245.00,0.5406
1244.00,0.5377
1243.00,0.5347
1242.00,0.5315
1241.00,0.5282
1240.00,0.5250
1239.00,0.5221
1238.00,0.5197
1237.00,0.5177
1236.00,0.5162
1235.00,0.5152
1234.00,0.5145
1233.00,0.5142
1232.00,0.5142
1231.00,0.5148
1230.00,0.5153
1229.00,0.5152
1228.00,0.5141
1227.00,0.5119
1226.00,0.5092
1225.00,0.5061
1224.00,0.5031
1223.00,0.5003
1222.00,0.4980
1221.00,0.4961
1220.00,0.4948
1219.00,0.4941
1218.00,0.4939
1217.00,0.4942
1216.00,0.4948
1215.00,0.4958
1214.00,0.4969
1213.00,0.4976
1212.00,0.4977
1211.00,0.4972
1210.00,0.4963
1209.00,0.4949
1208.00,0.4933
1207.00,0.4918
1206.00,0.4902
1205.00,0.4887
1204.00,0.4873
1203.00,0.4860
1202.00,0.4850
1201.00,0.4843
1200.00,0.4838
1199.00,0.4836
1198.00,0.4834
1197.00,0.4829
1196.00,0.4822
1195.00,0.4814
1194.00,0.4806
1193.00,0.4798
1192.00,0.4791
1191.00,0.4783
1190.00,0.4777
1189.00,0.4770
1188.00,0.4763
1187.00,0.4757
1186.00,0.4753
1185.00,0.4750
1184.00,0.4747
1183.00,0.4745
1182.00,0.4744
1181.00,0.4746
1180.00,0.4749
1179.00,0.4756
1178.00,0.4768
1177.00,0.4785
1176.00,0.4807
1175.00,0.4838
1174.00,0.4877
1173.00,0.4923
1172.00,0.4973
1171.00,0.5020
1170.00,0.5055
1169.00,0.5073
1168.00,0.5073
1167.00,0.5062
1166.00,0.5049
1165.00,0.5037
1164.00,0.5029
1163.00,0.5027
1162.00,0.5032
1161.00,0.5043
1160.00,0.5058
1159.00,0.5074
1158.00,0.5089
1157.00,0.5099
1156.00,0.5103
1155.00,0.5101
1154.00,0.5094
1153.00,0.5080
1152.00,0.5059
1151.00,0.5034
1150.00,0.5008
1149.00,0.4982
1148.00,0.4956
1147.00,0.4932
1146.00,0.4911
1145.00,0.4894
1144.00,0.4883
1143.00,0.4880
1142.00,0.4888
1141.00,0.4905
1140.00,0.4934
1139.00,0.4975
1138.00,0.5029
1137.00,0.5095
1136.00,0.5172
1135.00,0.5253
1134.00,0.5326
1133.00,0.5373
1132.00,0.5377
1131.00,0.5337
1130.00,0.5267
1129.00,0.5185
1128.00,0.5109
1127.00,0.5049
1126.00,0.5008
1125.00,0.4981
1124.00,0.4963
1123.00,0.4948
1122.00,0.4935
1121.00,0.4921
1120.00,0.4910
1119.00,0.4905
1118.00,0.4911
1117.00,0.4931
1116.00,0.4963
1115.00,0.4995
1114.00,0.5014
1113.00,0.5006
1112.00,0.4967
1111.00,0.4908
1110.00,0.4844
1109.00,0.4785
1108.00,0.4738
1107.00,0.4705
1106.00,0.4683
1105.00,0.4669
1104.00,0.4660
1103.00,0.4654
1102.00,0.4649
1101.00,0.4643
1100.00,0.4633
1099.00,0.4621
1098.00,0.4608
1097.00,0.4597
1096.00,0.4589
1095.00,0.4587
1094.00,0.4589
1093.00,0.4594
1092.00,0.4603
1091.00,0.4613
1090.00,0.4626
1089.00,0.4641
1088.00,0.4663
1087.00,0.4692
1086.00,0.4731
1085.00,0.4779
1084.00,0.4834
1083.00,0.4898
1082.00,0.4968
1081.00,0.5042
1080.00,0.5116
1079.00,0.5183
1078.00,0.5237
1077.00,0.5265
1076.00,0.5264
1075.00,0.5232
1074.00,0.5180
1073.00,0.5118
1072.00,0.5056
1071.00,0.5002
1070.00,0.4957
1069.00,0.4922
1068.00,0.4897
1067.00,0.4880
1066.00,0.4868
1065.00,0.4860
1064.00,0.4855
1063.00,0.4853
1062.00,0.4854
1061.00,0.4858
1060.00,0.4864
1059.00,0.4870
1058.00,0.4873
1057.00,0.4870
1056.00,0.4862
1055.00,0.4853
1054.00,0.4849
1053.00,0.4848
1052.00,0.4854
1051.00,0.4865
1050.00,0.4881
1049.00,0.4901
1048.00,0.4922
1047.00,0.4941
1046.00,0.4956
1045.00,0.4965
1044.00,0.4966
1043.00,0.4963
1042.00,0.4958
1041.00,0.4954
1040.00,0.4952
1039.00,0.4948
1038.00,0.4944
1037.00,0.4938
1036.00,0.4934
1035.00,0.4935
1034.00,0.4942
1033.00,0.4956
1032.00,0.4974
1031.00,0.4992
1030.00,0.5007
1029.00,0.5014
1028.00,0.5010
1027.00,0.4993
1026.00,0.4961
1025.00,0.4915
1024.00,0.4859
1023.00,0.4801
1022.00,0.4745
1021.00,0.4695
1020.00,0.4651
1019.00,0.4614
1018.00,0.4582
1017.00,0.4554
1016.00,0.4529
1015.00,0.4508
1014.00,0.4489
1013.00,0.4473
1012.00,0.4459
1011.00,0.4450
1010.00,0.4445
1009.00,0.4444
1008.00,0.4448
1007.00,0.4456
1006.00,0.4466
1005.00,0.4478
1004.00,0.4493
1003.00,0.4509
1002.00,0.4527
1001.00,0.4543
1000.00,0.4557
999.00,0.4565
998.00,0.4567
997.00,0.4559
996.00,0.4544
995.00,0.4524
994.00,0.4500
993.00,0.4472
992.00,0.4442
991.00,0.4412
990.00,0.4383
989.00,0.4358
988.00,0.4337
987.00,0.4325
986.00,0.4322
985.00,0.4327
984.00,0.4340
983.00,0.4359
982.00,0.4380
981.00,0.4404
980.00,0.4428
979.00,0.4454
978.00,0.4479
977.00,0.4503
976.00,0.4522
975.00,0.4537
974.00,0.4548
973.00,0.4553
972.00,0.4555
971.00,0.4556
970.00,0.4557
969.00,0.4557
968.00,0.4556
967.00,0.4553
966.00,0.4549
965.00,0.4541
964.00,0.4530
963.00,0.4518
962.00,0.4505
961.00,0.4491
960.00,0.4477
959.00,0.4465
958.00,0.4456
957.00,0.4449
956.00,0.4442
955.00,0.4435
954.00,0.4427
953.00,0.4417
952.00,0.4406
951.00,0.4395
950.00,0.4387
949.00,0.4384
948.00,0.4385
947.00,0.4390
946.00,0.4399
945.00,0.4411
944.00,0.4425
943.00,0.4441
942.00,0.4457
941.00,0.4472
940.00,0.4484
939.00,0.4493
938.00,0.4497
937.00,0.4496
936.00,0.4488
935.00,0.4476
934.00,0.4458
933.00,0.4436
932.00,0.4411
931.00,0.4387
930.00,0.4366
929.00,0.4352
928.00,0.4344
927.00,0.4347
926.00,0.4362
925.00,0.4390
924.00,0.4433
923.00,0.4485
922.00,0.4534
921.00,0.4564
920.00,0.4563
919.00,0.4526
918.00,0.4461
917.00,0.4378
916.00,0.4294
915.00,0.4219
914.00,0.4158
913.00,0.4110
912.00,0.4072
911.00,0.4043
910.00,0.4021
909.00,0.4004
908.00,0.3989
907.00,0.3979
906.00,0.3974
905.00,0.3971
904.00,0.3971
903.00,0.3977
902.00,0.3988
901.00,0.4005
900.00,0.4029
899.00,0.4059
898.00,0.4095
897.00,0.4133
896.00,0.4172
895.00,0.4211
894.00,0.4249
893.00,0.4288
892.00,0.4325
891.00,0.4360
890.00,0.4388
889.00,0.4402
888.00,0.4403
887.00,0.4392
886.00,0.4374
885.00,0.4353
884.00,0.4334
883.00,0.4324
882.00,0.4327
881.00,0.4342
880.00,0.4362
879.00,0.4379
878.00,0.4388
877.00,0.4387
876.00,0.4380
875.00,0.4373
874.00,0.4371
873.00,0.4372
872.00,0.4376
871.00,0.4383
870.00,0.4393
869.00,0.4405
868.00,0.4421
867.00,0.4444
866.00,0.4474
865.00,0.4511
864.00,0.4550
863.00,0.4579
862.00,0.4586
861.00,0.4563
860.00,0.4512
859.00,0.4445
858.00,0.4377
857.00,0.4318
856.00,0.4272
855.00,0.4240
854.00,0.4220
853.00,0.4207
852.00,0.4198
851.00,0.4190
850.00,0.4180
849.00,0.4165
848.00,0.4144
847.00,0.4118
846.00,0.4090
845.00,0.4064
844.00,0.4041
843.00,0.4022
842.00,0.4012
841.00,0.4017
840.00,0.4041
839.00,0.4087
838.00,0.4148
837.00,0.4211
836.00,0.4256
835.00,0.4268
834.00,0.4248
833.00,0.4207
832.00,0.4165
831.00,0.4138
830.00,0.4133
829.00,0.4146
828.00,0.4176
827.00,0.4219
826.00,0.4272
825.00,0.4333
824.00,0.4397
823.00,0.4465
822.00,0.4533
821.00,0.4601
820.00,0.4665
819.00,0.4727
818.00,0.4781
817.00,0.4823
816.00,0.4848
815.00,0.4852
814.00,0.4836
813.00,0.4800
812.00,0.4749
811.00,0.4690
810.00,0.4629
809.00,0.4570
808.00,0.4516
807.00,0.4469
806.00,0.4426
805.00,0.4381
804.00,0.4330
803.00,0.4273
802.00,0.4211
801.00,0.4150
800.00,0.4096
799.00,0.4056
798.00,0.4030
797.00,0.4013
796.00,0.4001
795.00,0.3991
794.00,0.3985
793.00,0.3984
792.00,0.3991
791.00,0.4005
790.00,0.4026
789.00,0.4051
788.00,0.4080
787.00,0.4112
786.00,0.4149
785.00,0.4190
784.00,0.4235
783.00,0.4281
782.00,0.4320
781.00,0.4350
780.00,0.4371
779.00,0.4387
778.00,0.4404
777.00,0.4423
776.00,0.4444
775.00,0.4467
774.00,0.4490
773.00,0.4512
772.00,0.4535
771.00,0.4563
770.00,0.4596
769.00,0.4634
768.00,0.4671
767.00,0.4704
766.00,0.4730
765.00,0.4747
764.00,0.4759
763.00,0.4775
762.00,0.4799
761.00,0.4833
760.00,0.4873
759.00,0.4914
758.00,0.4951
757.00,0.4981
756.00,0.5006
755.00,0.5033
754.00,0.5066
753.00,0.5106
752.00,0.5148
751.00,0.5191
750.00,0.5235
749.00,0.5277
748.00,0.5316
747.00,0.5352
746.00,0.5390
745.00,0.5430
744.00,0.5474
743.00,0.5523
742.00,0.5578
741.00,0.5634
740.00,0.5686
739.00,0.5730
738.00,0.5766
737.00,0.5798
736.00,0.5830
735.00,0.5866
734.00,0.5915
733.00,0.5979
732.00,0.6061
731.00,0.6163
730.00,0.6287
729.00,0.6439
728.00,0.6623
727.00,0.6844
726.00,0.7101
725.00,0.7387
724.00,0.7679
723.00,0.7926
722.00,0.8049
721.00,0.7971
720.00,0.7682
719.00,0.7252
718.00,0.6782
717.00,0.6345
716.00,0.5976
715.00,0.5680
714.00,0.5447
713.00,0.5261
712.00,0.5107
711.00,0.4980
710.00,0.4879
709.00,0.4797
708.00,0.4728
707.00,0.4669
706.00,0.4621
705.00,0.4582
704.00,0.4547
703.00,0.4518
702.00,0.4497
701.00,0.4484
700.00,0.4465
699.00,0.4418
698.00,0.4323
697.00,0.4183
696.00,0.4022
695.00,0.3872
694.00,0.3750
693.00,0.3656
692.00,0.3588
691.00,0.3539
690.00,0.3505
689.00,0.3479
688.00,0.3457
687.00,0.3438
686.00,0.3422
685.00,0.3409
684.00,0.3398
683.00,0.3391
682.00,0.3386
681.00,0.3384
680.00,0.3382
679.00,0.3383
678.00,0.3383
677.00,0.3383
676.00,0.3382
675.00,0.3383
674.00,0.3387
673.00,0.3391
672.00,0.3395
671.00,0.3397
670.00,0.3397
669.00,0.3396
668.00,0.3392
667.00,0.3388
666.00,0.3394
665.00,0.3402
664.00,0.3409
663.00,0.3416
662.00,0.3424
661.00,0.3432
660.00,0.3440
659.00,0.3450
658.00,0.3462
657.00,0.3472
656.00,0.3482
655.00,0.3489
654.00,0.3497
653.00,0.3504
652.00,0.3513
651.00,0.3525
650.00,0.3538
649.00,0.3549
648.00,0.3558
647.00,0.3569
646.00,0.3581
645.00,0.3595
644.00,0.3608
643.00,0.3622
642.00,0.3637
641.00,0.3651
640.00,0.3664
639.00,0.3676
638.00,0.3687
637.00,0.3693
636.00,0.3696
635.00,0.3698
634.00,0.3703
633.00,0.3707
632.00,0.3712
631.00,0.3719
630.00,0.3728
629.00,0.3741
628.00,0.3757
627.00,0.3776
626.00,0.3796
625.00,0.3819
624.00,0.3842
623.00,0.3866
622.00,0.3886
621.00,0.3903
620.00,0.3917
619.00,0.3932
618.00,0.3947
617.00,0.3957
616.00,0.3958
615.00,0.3952
614.00,0.3943
613.00,0.3935
612.00,0.3926
611.00,0.3916
610.00,0.3903
609.00,0.3887
608.00,0.3873
607.00,0.3863
606.00,0.3856
605.00,0.3850
604.00,0.3843
603.00,0.3839
602.00,0.3838
601.00,0.3836
600.00,0.3833
599.00,0.3835
598.00,0.3844
597.00,0.3860
596.00,0.3876
595.00,0.3887
594.00,0.3894
593.00,0.3900
592.00,0.3912
591.00,0.3930
590.00,0.3951
589.00,0.3971
588.00,0.3988
587.00,0.4006
586.00,0.4026
585.00,0.4050
584.00,0.4078
583.00,0.4108
582.00,0.4139
581.00,0.4165
580.00,0.4189
579.00,0.4212
578.00,0.4238
577.00,0.4266
576.00,0.4295
575.00,0.4322
574.00,0.4347
573.00,0.4368
572.00,0.4387
571.00,0.4407
570.00,0.4427
569.00,0.4446
568.00,0.4462
567.00,0.4473
566.00,0.4480
565.00,0.4483
564.00,0.4485
563.00,0.4487
562.00,0.4494
561.00,0.4504
560.00,0.4517
559.00,0.4530
558.00,0.4540
557.00,0.4547
556.00,0.4554
555.00,0.4562
554.00,0.4571
553.00,0.4579
552.00,0.4589
551.00,0.4603
550.00,0.4622
