Created as New Dataset,
cm-1,A
4000.00,0.3470
3999.00,0.3467
3998.00,0.3464
3997.00,0.3460
3996.00,0.3457
3995.00,0.3454
3994.00,0.3450
3993.00,0.3446
3992.00,0.3442
3991.00,0.3438
3990.00,0.3435
3989.00,0.3431
3988.00,0.3427
3987.00,0.3424
3986.00,0.3421
3985.00,0.3417
3984.00,0.3414
3983.00,0.3411
3982.00,0.3407
3981.00,0.3404
3980.00,0.3401
3979.00,0.3398
3978.00,0.3395
3977.00,0.3393
3976.00,0.3391
3975.00,0.3390
3974.00,0.3388
3973.00,0.3386
3972.00,0.3384
3971.00,0.3381
3970.00,0.3379
3969.00,0.3377
3968.00,0.3375
3967.00,0.3372
3966.00,0.3370
3965.00,0.3368
3964.00,0.3366
3963.00,0.3364
3962.00,0.3362
3961.00,0.3360
3960.00,0.3358
3959.00,0.3356
3958.00,0.3354
3957.00,0.3352
3956.00,0.3350
3955.00,0.3349
3954.00,0.3348
3953.00,0.3346
3952.00,0.3344
3951.00,0.3342
3950.00,0.3340
3949.00,0.3339
3948.00,0.3339
3947.00,0.3339
3946.00,0.3338
3945.00,0.3337
3944.00,0.3336
3943.00,0.3335
3942.00,0.3334
3941.00,0.3334
3940.00,0.3332
3939.00,0.3331
3938.00,0.3329
3937.00,0.3329
3936.00,0.3329
3935.00,0.3329
3934.00,0.3329
3933.00,0.3330
3932.00,0.3330
3931.00,0.3331
3930.00,0.3331
3929.00,0.3331
3928.00,0.3330
3927.00,0.3330
3926.00,0.3329
3925.00,0.3328
3924.00,0.3327
3923.00,0.3327
3922.00,0.3326
3921.00,0.3326
3920.00,0.3325
3919.00,0.3324
3918.00,0.3324
3917.00,0.3323
3916.00,0.3322
3915.00,0.3321
3914.00,0.3320
3913.00,0.3319
3912.00,0.3318
3911.00,0.3318
3910.00,0.3317
3909.00,0.3317
3908.00,0.3318
3907.00,0.3318
3906.00,0.3319
3905.00,0.3320
3904.00,0.3320
3903.00,0.3322
3902.00,0.3323
3901.00,0.3324
3900.00,0.3325
3899.00,0.3324
3898.00,0.3323
3897.00,0.3321
3896.00,0.3320
3895.00,0.3320
3894.00,0.3319
3893.00,0.3317
3892.00,0.3316
3891.00,0.3315
3890.00,0.3314
3889.00,0.3314
3888.00,0.3314
3887.00,0.3312
3886.00,0.3311
3885.00,0.3311
3884.00,0.3312
3883.00,0.3312
3882.00,0.3311
3881.00,0.3309
3880.00,0.3308
3879.00,0.3307
3878.00,0.3306
3877.00,0.3304
3876.00,0.3301
3875.00,0.3299
3874.00,0.3298
3873.00,0.3299
3872.00,0.3299
3871.00,0.3299
3870.00,0.3298
3869.00,0.3298
3868.00,0.3298
3867.00,0.3297
3866.00,0.3296
3865.00,0.3294
3864.00,0.3293
3863.00,0.3292
3862.00,0.3290
3861.00,0.3288
3860.00,0.3287
3859.00,0.3286
3858.00,0.3286
3857.00,0.3286
3856.00,0.3287
3855.00,0.3287
3854.00,0.3287
3853.00,0.3291
3852.00,0.3294
3851.00,0.3295
3850.00,0.3292
3849.00,0.3289
3848.00,0.3286
3847.00,0.3284
3846.00,0.3281
3845.00,0.3279
3844.00,0.3278
3843.00,0.3278
3842.00,0.3278
3841.00,0.3278
3840.00,0.3278
3839.00,0.3279
3838.00,0.3279
3837.00,0.3279
3836.00,0.3278
3835.00,0.3277
3834.00,0.3275
3833.00,0.3273
3832.00,0.3271
3831.00,0.3269
3830.00,0.3266
3829.00,0.3263
3828.00,0.3261
3827.00,0.3259
3826.00,0.3259
3825.00,0.3260
3824.00,0.3262
3823.00,0.3263
3822.00,0.3263
3821.00,0.3263
3820.00,0.3264
3819.00,0.3265
3818.00,0.3265
3817.00,0.3263
3816.00,0.3261
3815.00,0.3258
3814.00,0.3255
3813.00,0.3251
3812.00,0.3248
3811.00,0.3245
3810.00,0.3243
3809.00,0.3241
3808.00,0.3238
3807.00,0.3236
3806.00,0.3235
3805.00,0.3236
3804.00,0.3236
3803.00,0.3235
3802.00,0.3235
3801.00,0.3234
3800.00,0.3232
3799.00,0.3229
3798.00,0.3224
3797.00,0.3219
3796.00,0.3215
3795.00,0.3212
3794.00,0.3209
3793.00,0.3206
3792.00,0.3202
3791.00,0.3200
3790.00,0.3197
3789.00,0.3196
3788.00,0.3195
3787.00,0.3194
3786.00,0.3195
3785.00,0.3195
3784.00,0.3195
3783.00,0.3195
3782.00,0.3195
3781.00,0.3193
3780.00,0.3192
3779.00,0.3190
3778.00,0.3188
3777.00,0.3187
3776.00,0.3184
3775.00,0.3182
3774.00,0.3181
3773.00,0.3179
3772.00,0.3178
3771.00,0.3177
3770.00,0.3175
3769.00,0.3174
3768.00,0.3173
3767.00,0.3172
3766.00,0.3170
3765.00,0.3168
3764.00,0.3167
3763.00,0.3166
3762.00,0.3164
3761.00,0.3162
3760.00,0.3161
3759.00,0.3159
3758.00,0.3158
3757.00,0.3156
3756.00,0.3155
3755.00,0.3155
3754.00,0.3155
3753.00,0.3155
3752.00,0.3156
3751.00,0.3157
3750.00,0.3159
3749.00,0.3160
3748.00,0.3162
3747.00,0.3162
3746.00,0.3161
3745.00,0.3159
3744.00,0.3158
3743.00,0.3157
3742.00,0.3155
3741.00,0.3152
3740.00,0.3150
3739.00,0.3149
3738.00,0.3149
3737.00,0.3148
3736.00,0.3147
3735.00,0.3146
3734.00,0.3144
3733.00,0.3142
3732.00,0.3139
3731.00,0.3137
3730.00,0.3133
3729.00,0.3130
3728.00,0.3127
3727.00,0.3124
3726.00,0.3121
3725.00,0.3118
3724.00,0.3115
3723.00,0.3112
3722.00,0.3110
3721.00,0.3108
3720.00,0.3105
3719.00,0.3103
3718.00,0.3101
3717.00,0.3100
3716.00,0.3099
3715.00,0.3100
3714.00,0.3100
3713.00,0.3100
3712.00,0.3100
3711.00,0.3101
3710.00,0.3102
3709.00,0.3102
3708.00,0.3102
3707.00,0.3102
3706.00,0.3100
3705.00,0.3099
3704.00,0.3099
3703.00,0.3098
3702.00,0.3097
3701.00,0.3097
3700.00,0.3096
3699.00,0.3096
3698.00,0.3095
3697.00,0.3095
3696.00,0.3095
3695.00,0.3095
3694.00,0.3096
3693.00,0.3097
3692.00,0.3098
3691.00,0.3099
3690.00,0.3099
3689.00,0.3100
3688.00,0.3100
3687.00,0.3100
3686.00,0.3099
3685.00,0.3096
3684.00,0.3094
3683.00,0.3092
3682.00,0.3091
3681.00,0.3090
3680.00,0.3090
3679.00,0.3091
3678.00,0.3093
3677.00,0.3093
3676.00,0.3093
3675.00,0.3095
3674.00,0.3097
3673.00,0.3098
3672.00,0.3099
3671.00,0.3098
3670.00,0.3096
3669.00,0.3095
3668.00,0.3093
3667.00,0.3091
3666.00,0.3089
3665.00,0.3087
3664.00,0.3085
3663.00,0.3084
3662.00,0.3083
3661.00,0.3083
3660.00,0.3084
3659.00,0.3085
3658.00,0.3087
3657.00,0.3088
3656.00,0.3091
3655.00,0.3095
3654.00,0.3099
3653.00,0.3102
3652.00,0.3105
3651.00,0.3107
3650.00,0.3109
3649.00,0.3111
3648.00,0.3113
3647.00,0.3114
3646.00,0.3115
3645.00,0.3115
3644.00,0.3114
3643.00,0.3112
3642.00,0.3111
3641.00,0.3111
3640.00,0.3112
3639.00,0.3114
3638.00,0.3117
3637.00,0.3121
3636.00,0.3125
3635.00,0.3129
3634.00,0.3134
3633.00,0.3140
3632.00,0.3147
3631.00,0.3155
3630.00,0.3165
3629.00,0.3178
3628.00,0.3191
3627.00,0.3203
3626.00,0.3212
3625.00,0.3218
3624.00,0.3221
3623.00,0.3222
3622.00,0.3220
3621.00,0.3214
3620.00,0.3206
3619.00,0.3198
3618.00,0.3190
3617.00,0.3183
3616.00,0.3176
3615.00,0.3170
3614.00,0.3165
3613.00,0.3162
3612.00,0.3160
3611.00,0.3158
3610.00,0.3158
3609.00,0.3157
3608.00,0.3156
3607.00,0.3156
3606.00,0.3155
3605.00,0.3154
3604.00,0.3152
3603.00,0.3150
3602.00,0.3147
3601.00,0.3144
3600.00,0.3141
3599.00,0.3137
3598.00,0.3132
3597.00,0.3127
3596.00,0.3121
3595.00,0.3116
3594.00,0.3111
3593.00,0.3107
3592.00,0.3103
3591.00,0.3100
3590.00,0.3097
3589.00,0.3095
3588.00,0.3093
3587.00,0.3091
3586.00,0.3089
3585.00,0.3086
3584.00,0.3083
3583.00,0.3081
3582.00,0.3079
3581.00,0.3076
3580.00,0.3074
3579.00,0.3072
3578.00,0.3071
3577.00,0.3069
3576.00,0.3068
3575.00,0.3068
3574.00,0.3068
3573.00,0.3068
3572.00,0.3069
3571.00,0.3071
3570.00,0.3073
3569.00,0.3075
3568.00,0.3077
3567.00,0.3079
3566.00,0.3081
3565.00,0.3083
3564.00,0.3085
3563.00,0.3086
3562.00,0.3086
3561.00,0.3086
3560.00,0.3087
3559.00,0.3089
3558.00,0.3090
3557.00,0.3093
3556.00,0.3095
3555.00,0.3098
3554.00,0.3101
3553.00,0.3105
3552.00,0.3109
3551.00,0.3113
3550.00,0.3117
3549.00,0.3120
3548.00,0.3123
3547.00,0.3127
3546.00,0.3131
3545.00,0.3135
3544.00,0.3139
3543.00,0.3143
3542.00,0.3146
3541.00,0.3150
3540.00,0.3154
3539.00,0.3158
3538.00,0.3161
3537.00,0.3164
3536.00,0.3168
3535.00,0.3170
3534.00,0.3173
3533.00,0.3176
3532.00,0.3179
3531.00,0.3183
3530.00,0.3186
3529.00,0.3188
3528.00,0.3191
3527.00,0.3194
3526.00,0.3197
3525.00,0.3201
3524.00,0.3204
3523.00,0.3207
3522.00,0.3210
3521.00,0.3213
3520.00,0.3217
3519.00,0.3220
3518.00,0.3223
3517.00,0.3227
3516.00,0.3231
3515.00,0.3234
3514.00,0.3238
3513.00,0.3243
3512.00,0.3247
3511.00,0.3252
3510.00,0.3257
3509.00,0.3263
3508.00,0.3269
3507.00,0.3274
3506.00,0.3280
3505.00,0.3285
3504.00,0.3291
3503.00,0.3296
3502.00,0.3301
3501.00,0.3306
3500.00,0.3311
3499.00,0.3316
3498.00,0.3322
3497.00,0.3328
3496.00,0.3335
3495.00,0.3342
3494.00,0.3348
3493.00,0.3355
3492.00,0.3362
3491.00,0.3368
3490.00,0.3375
3489.00,0.3381
3488.00,0.3388
3487.00,0.3395
3486.00,0.3402
3485.00,0.3409
3484.00,0.3415
3483.00,0.3421
3482.00,0.3426
3481.00,0.3431
3480.00,0.3437
3479.00,0.3443
3478.00,0.3449
3477.00,0.3454
3476.00,0.3459
3475.00,0.3464
3474.00,0.3469
3473.00,0.3475
3472.00,0.3481
3471.00,0.3488
3470.00,0.3494
3469.00,0.3500
3468.00,0.3506
3467.00,0.3512
3466.00,0.3518
3465.00,0.3523
3464.00,0.3530
3463.00,0.3537
3462.00,0.3545
3461.00,0.3553
3460.00,0.3561
3459.00,0.3568
3458.00,0.3574
3457.00,0.3581
3456.00,0.3588
3455.00,0.3595
3454.00,0.3602
3453.00,0.3610
3452.00,0.3618
3451.00,0.3626
3450.00,0.3633
3449.00,0.3641
3448.00,0.3649
3447.00,0.3657
3446.00,0.3665
3445.00,0.3672
3444.00,0.3679
3443.00,0.3687
3442.00,0.3694
3441.00,0.3701
3440.00,0.3709
3439.00,0.3717
3438.00,0.3725
3437.00,0.3733
3436.00,0.3741
3435.00,0.3749
3434.00,0.3758
3433.00,0.3767
3432.00,0.3776
3431.00,0.3784
3430.00,0.3793
3429.00,0.3801
3428.00,0.3810
3427.00,0.3819
3426.00,0.3828
3425.00,0.3837
3424.00,0.3846
3423.00,0.3855
3422.00,0.3864
3421.00,0.3874
3420.00,0.3885
3419.00,0.3894
3418.00,0.3904
3417.00,0.3913
3416.00,0.3923
3415.00,0.3932
3414.00,0.3941
3413.00,0.3950
3412.00,0.3958
3411.00,0.3966
3410.00,0.3974
3409.00,0.3983
3408.00,0.3992
3407.00,0.4001
3406.00,0.4010
3405.00,0.4019
3404.00,0.4028
3403.00,0.4038
3402.00,0.4047
3401.00,0.4057
3400.00,0.4067
3399.00,0.4076
3398.00,0.4085
3397.00,0.4093
3396.00,0.4102
3395.00,0.4110
3394.00,0.4119
3393.00,0.4128
3392.00,0.4136
3391.00,0.4144
3390.00,0.4152
3389.00,0.4160
3388.00,0.4169
3387.00,0.4177
3386.00,0.4184
3385.00,0.4192
3384.00,0.4200
3383.00,0.4207
3382.00,0.4215
3381.00,0.4223
3380.00,0.4230
3379.00,0.4236
3378.00,0.4243
3377.00,0.4250
3376.00,0.4258
3375.00,0.4266
3374.00,0.4273
3373.00,0.4280
3372.00,0.4288
3371.00,0.4296
3370.00,0.4304
3369.00,0.4312
3368.00,0.4321
3367.00,0.4329
3366.00,0.4337
3365.00,0.4346
3364.00,0.4354
3363.00,0.4363
3362.00,0.4372
3361.00,0.4381
3360.00,0.4391
3359.00,0.4400
3358.00,0.4409
3357.00,0.4419
3356.00,0.4428
3355.00,0.4437
3354.00,0.4447
3353.00,0.4456
3352.00,0.4466
3351.00,0.4475
3350.00,0.4485
3349.00,0.4495
3348.00,0.4504
3347.00,0.4512
3346.00,0.4521
3345.00,0.4529
3344.00,0.4537
3343.00,0.4544
3342.00,0.4551
3341.00,0.4557
3340.00,0.4564
3339.00,0.4569
3338.00,0.4574
3337.00,0.4578
3336.00,0.4582
3335.00,0.4586
3334.00,0.4590
3333.00,0.4593
3332.00,0.4595
3331.00,0.4597
3330.00,0.4598
3329.00,0.4599
3328.00,0.4600
3327.00,0.4600
3326.00,0.4599
3325.00,0.4599
3324.00,0.4598
3323.00,0.4597
3322.00,0.4595
3321.00,0.4592
3320.00,0.4590
3319.00,0.4587
3318.00,0.4584
3317.00,0.4582
3316.00,0.4579
3315.00,0.4575
3314.00,0.4572
3313.00,0.4568
3312.00,0.4564
3311.00,0.4559
3310.00,0.4555
3309.00,0.4551
3308.00,0.4548
3307.00,0.4544
3306.00,0.4540
3305.00,0.4536
3304.00,0.4531
3303.00,0.4526
3302.00,0.4522
3301.00,0.4517
3300.00,0.4513
3299.00,0.4510
3298.00,0.4506
3297.00,0.4503
3296.00,0.4500
3295.00,0.4497
3294.00,0.4495
3293.00,0.4493
3292.00,0.4492
3291.00,0.4491
3290.00,0.4490
3289.00,0.4489
3288.00,0.4489
3287.00,0.4489
3286.00,0.4489
3285.00,0.4489
3284.00,0.4489
3283.00,0.4490
3282.00,0.4490
3281.00,0.4492
3280.00,0.4494
3279.00,0.4496
3278.00,0.4498
3277.00,0.4501
3276.00,0.4503
3275.00,0.4506
3274.00,0.4508
3273.00,0.4510
3272.00,0.4512
3271.00,0.4514
3270.00,0.4516
3269.00,0.4520
3268.00,0.4523
3267.00,0.4527
3266.00,0.4530
3265.00,0.4532
3264.00,0.4534
3263.00,0.4535
3262.00,0.4537
3261.00,0.4540
3260.00,0.4544
3259.00,0.4547
3258.00,0.4550
3257.00,0.4552
3256.00,0.4555
3255.00,0.4557
3254.00,0.4559
3253.00,0.4560
3252.00,0.4562
3251.00,0.4564
3250.00,0.4566
3249.00,0.4569
3248.00,0.4571
3247.00,0.4574
3246.00,0.4576
3245.00,0.4577
3244.00,0.4578
3243.00,0.4579
3242.00,0.4580
3241.00,0.4581
3240.00,0.4582
3239.00,0.4582
3238.00,0.4583
3237.00,0.4584
3236.00,0.4584
3235.00,0.4584
3234.00,0.4583
3233.00,0.4582
3232.00,0.4582
3231.00,0.4582
3230.00,0.4581
3229.00,0.4580
3228.00,0.4579
3227.00,0.4578
3226.00,0.4577
3225.00,0.4575
3224.00,0.4573
3223.00,0.4571
3222.00,0.4569
3221.00,0.4568
3220.00,0.4567
3219.00,0.4567
3218.00,0.4567
3217.00,0.4566
3216.00,0.4565
3215.00,0.4564
3214.00,0.4563
3213.00,0.4562
3212.00,0.4563
3211.00,0.4563
3210.00,0.4563
3209.00,0.4563
3208.00,0.4563
3207.00,0.4562
3206.00,0.4562
3205.00,0.4561
3204.00,0.4560
3203.00,0.4560
3202.00,0.4559
3201.00,0.4559
3200.00,0.4559
3199.00,0.4558
3198.00,0.4556
3197.00,0.4555
3196.00,0.4553
3195.00,0.4551
3194.00,0.4549
3193.00,0.4547
3192.00,0.4545
3191.00,0.4543
3190.00,0.4541
3189.00,0.4539
3188.00,0.4536
3187.00,0.4533
3186.00,0.4530
3185.00,0.4526
3184.00,0.4523
3183.00,0.4519
3182.00,0.4516
3181.00,0.4512
3180.00,0.4508
3179.00,0.4504
3178.00,0.4498
3177.00,0.4493
3176.00,0.4489
3175.00,0.4485
3174.00,0.4481
3173.00,0.4477
3172.00,0.4474
3171.00,0.4469
3170.00,0.4464
3169.00,0.4458
3168.00,0.4453
3167.00,0.4447
3166.00,0.4440
3165.00,0.4434
3164.00,0.4427
3163.00,0.4421
3162.00,0.4415
3161.00,0.4408
3160.00,0.4402
3159.00,0.4395
3158.00,0.4388
3157.00,0.4382
3156.00,0.4376
3155.00,0.4370
3154.00,0.4365
3153.00,0.4359
3152.00,0.4352
3151.00,0.4346
3150.00,0.4339
3149.00,0.4333
3148.00,0.4328
3147.00,0.4324
3146.00,0.4319
3145.00,0.4315
3144.00,0.4311
3143.00,0.4307
3142.00,0.4303
3141.00,0.4300
3140.00,0.4296
3139.00,0.4293
3138.00,0.4290
3137.00,0.4287
3136.00,0.4284
3135.00,0.4282
3134.00,0.4280
3133.00,0.4279
3132.00,0.4278
3131.00,0.4277
3130.00,0.4276
3129.00,0.4275
3128.00,0.4275
3127.00,0.4275
3126.00,0.4276
3125.00,0.4277
3124.00,0.4278
3123.00,0.4280
3122.00,0.4282
3121.00,0.4285
3120.00,0.4288
3119.00,0.4291
3118.00,0.4294
3117.00,0.4299
3116.00,0.4303
3115.00,0.4307
3114.00,0.4312
3113.00,0.4317
3112.00,0.4324
3111.00,0.4332
3110.00,0.4341
3109.00,0.4350
3108.00,0.4359
3107.00,0.4369
3106.00,0.4378
3105.00,0.4387
3104.00,0.4396
3103.00,0.4405
3102.00,0.4413
3101.00,0.4421
3100.00,0.4430
3099.00,0.4440
3098.00,0.4451
3097.00,0.4463
3096.00,0.4476
3095.00,0.4489
3094.00,0.4504
3093.00,0.4520
3092.00,0.4538
3091.00,0.4559
3090.00,0.4581
3089.00,0.4606
3088.00,0.4632
3087.00,0.4658
3086.00,0.4685
3085.00,0.4713
3084.00,0.4741
3083.00,0.4771
3082.00,0.4802
3081.00,0.4836
3080.00,0.4873
3079.00,0.4911
3078.00,0.4951
3077.00,0.4993
3076.00,0.5035
3075.00,0.5077
3074.00,0.5120
3073.00,0.5163
3072.00,0.5207
3071.00,0.5252
3070.00,0.5296
3069.00,0.5341
3068.00,0.5385
3067.00,0.5429
3066.00,0.5471
3065.00,0.5512
3064.00,0.5551
3063.00,0.5588
3062.00,0.5621
3061.00,0.5651
3060.00,0.5679
3059.00,0.5707
3058.00,0.5734
3057.00,0.5762
3056.00,0.5790
3055.00,0.5820
3054.00,0.5851
3053.00,0.5885
3052.00,0.5922
3051.00,0.5961
3050.00,0.6002
3049.00,0.6045
3048.00,0.6089
3047.00,0.6135
3046.00,0.6182
3045.00,0.6229
3044.00,0.6277
3043.00,0.6323
3042.00,0.6370
3041.00,0.6415
3040.00,0.6461
3039.00,0.6507
3038.00,0.6554
3037.00,0.6604
3036.00,0.6657
3035.00,0.6714
3034.00,0.6776
3033.00,0.6842
3032.00,0.6913
3031.00,0.6989
3030.00,0.7070
3029.00,0.7155
3028.00,0.7244
3027.00,0.7337
3026.00,0.7433
3025.00,0.7531
3024.00,0.7633
3023.00,0.7738
3022.00,0.7847
3021.00,0.7959
3020.00,0.8073
3019.00,0.8188
3018.00,0.8303
3017.00,0.8420
3016.00,0.8538
3015.00,0.8657
3014.00,0.8778
3013.00,0.8902
3012.00,0.9028
3011.00,0.9158
3010.00,0.9294
3009.00,0.9437
3008.00,0.9588
3007.00,0.9746
3006.00,0.9910
3005.00,1.0079
3004.00,1.0254
3003.00,1.0436
3002.00,1.0623
3001.00,1.0816
3000.00,1.1014
2999.00,1.1223
2998.00,1.1448
2997.00,1.1693
2996.00,1.1962
2995.00,1.2260
2994.00,1.2591
2993.00,1.2958
2992.00,1.3365
2991.00,1.3820
2990.00,1.4330
2989.00,1.4898
2988.00,1.5528
2987.00,1.6226
2986.00,1.7002
2985.00,1.7869
2984.00,1.8838
2983.00,1.9923
2982.00,2.1126
2981.00,2.2434
2980.00,2.3825
2979.00,2.5296
2978.00,2.6870
2977.00,2.8558
2976.00,3.0355
2975.00,3.2247
2974.00,3.4189
2973.00,3.5919
2972.00,3.6969
2971.00,3.7565
2970.00,3.8446
2969.00,3.9756
2968.00,4.0784
2967.00,4.0341
2966.00,3.9934
2965.00,4.0090
2964.00,4.2091
2963.00,4.6378
2962.00,4.4173
2961.00,4.2207
2960.00,4.1392
2959.00,4.3087
2958.00,4.6584
2957.00,4.4981
2956.00,4.1613
2955.00,3.9284
2954.00,3.8846
2953.00,3.9343
2952.00,4.0536
2951.00,4.3640
2950.00,4.4783
2949.00,4.2229
2948.00,4.0094
2947.00,4.0988
2946.00,4.5022
2945.00,4.8494
2944.00,5.1370
2943.00,4.5691
2942.00,4.4057
2941.00,4.2471
2940.00,4.0969
2939.00,3.9552
2938.00,3.9395
2937.00,4.2058
2936.00,4.2851
2935.00,3.9935
2934.00,3.7942
2933.00,3.7886
2932.00,3.8079
2931.00,3.7526
2930.00,3.7664
2929.00,3.8828
2928.00,4.1833
2927.00,4.3740
2926.00,4.1036
2925.00,3.9445
2924.00,4.0905
2923.00,4.4768
2922.00,4.2510
2921.00,3.9886
2920.00,3.8941
2919.00,3.9491
2918.00,3.9971
2917.00,3.9860
2916.00,3.9798
2915.00,3.9972
2914.00,4.1330
2913.00,4.3363
2912.00,4.2867
2911.00,4.0250
2910.00,3.8452
2909.00,3.7873
2908.00,3.8084
2907.00,3.8438
2906.00,3.8519
2905.00,3.8330
2904.00,3.8472
2903.00,3.9014
2902.00,3.9084
2901.00,3.8342
2900.00,3.7435
2899.00,3.7035
2898.00,3.7293
2897.00,3.8099
2896.00,3.9292
2895.00,4.0247
2894.00,4.1801
2893.00,4.5516
2892.00,4.8159
2891.00,4.5517
2890.00,4.2211
2889.00,4.0913
2888.00,3.9930
2887.00,3.8840
2886.00,3.8160
2885.00,3.8148
2884.00,3.9135
2883.00,3.9611
2882.00,3.8751
2881.00,3.8083
2880.00,3.8996
2879.00,4.2038
2878.00,4.4306
2877.00,4.2705
2876.00,4.0911
2875.00,4.0714
2874.00,4.2486
2873.00,4.3982
2872.00,4.1863
2871.00,3.9854
2870.00,3.9388
2869.00,3.9676
2868.00,3.9011
2867.00,3.8329
2866.00,3.8230
2865.00,3.8295
2864.00,3.8386
2863.00,3.8384
2862.00,3.8047
2861.00,3.7191
2860.00,3.6303
2859.00,3.5788
2858.00,3.5578
2857.00,3.5448
2856.00,3.5506
2855.00,3.6239
2854.00,3.8156
2853.00,4.2064
2852.00,4.8697
2851.00,4.8983
2850.00,4.6996
2849.00,4.7544
2848.00,4.7715
2847.00,4.3986
2846.00,4.1560
2845.00,4.0600
2844.00,4.0224
2843.00,4.0005
2842.00,3.9674
2841.00,3.9106
2840.00,3.8040
2839.00,3.6434
2838.00,3.4280
2837.00,3.1831
2836.00,2.9510
2835.00,2.7466
2834.00,2.5628
2833.00,2.3929
2832.00,2.2375
2831.00,2.0996
2830.00,1.9787
2829.00,1.8722
2828.00,1.7774
2827.00,1.6924
2826.00,1.6158
2825.00,1.5462
2824.00,1.4826
2823.00,1.4244
2822.00,1.3714
2821.00,1.3230
2820.00,1.2786
2819.00,1.2377
2818.00,1.1999
2817.00,1.1646
2816.00,1.1316
2815.00,1.1009
2814.00,1.0722
2813.00,1.0453
2812.00,1.0199
2811.00,0.9957
2810.00,0.9727
2809.00,0.9510
2808.00,0.9304
2807.00,0.9110
2806.00,0.8925
2805.00,0.8749
2804.00,0.8582
2803.00,0.8423
2802.00,0.8273
2801.00,0.8130
2800.00,0.7993
2799.00,0.7862
2798.00,0.7735
2797.00,0.7615
2796.00,0.7499
2795.00,0.7388
2794.00,0.7281
2793.00,0.7176
2792.00,0.7074
2791.00,0.6973
2790.00,0.6875
2789.00,0.6780
2788.00,0.6688
2787.00,0.6598
2786.00,0.6509
2785.00,0.6423
2784.00,0.6339
2783.00,0.6257
2782.00,0.6178
2781.00,0.6103
2780.00,0.6031
2779.00,0.5963
2778.00,0.5897
2777.00,0.5834
2776.00,0.5774
2775.00,0.5717
2774.00,0.5665
2773.00,0.5615
2772.00,0.5569
2771.00,0.5525
2770.00,0.5486
2769.00,0.5449
2768.00,0.5415
2767.00,0.5386
2766.00,0.5360
2765.00,0.5337
2764.00,0.5318
2763.00,0.5302
2762.00,0.5287
2761.00,0.5274
2760.00,0.5262
2759.00,0.5249
2758.00,0.5237
2757.00,0.5226
2756.00,0.5215
2755.00,0.5205
2754.00,0.5197
2753.00,0.5190
2752.00,0.5185
2751.00,0.5181
2750.00,0.5179
2749.00,0.5179
2748.00,0.5182
2747.00,0.5186
2746.00,0.5194
2745.00,0.5204
2744.00,0.5217
2743.00,0.5234
2742.00,0.5253
2741.00,0.5277
2740.00,0.5304
2739.00,0.5337
2738.00,0.5375
2737.00,0.5418
2736.00,0.5466
2735.00,0.5516
2734.00,0.5568
2733.00,0.5620
2732.00,0.5668
2731.00,0.5710
2730.00,0.5741
2729.00,0.5762
2728.00,0.5773
2727.00,0.5773
2726.00,0.5766
2725.00,0.5751
2724.00,0.5732
2723.00,0.5709
2722.00,0.5682
2721.00,0.5652
2720.00,0.5619
2719.00,0.5582
2718.00,0.5543
2717.00,0.5502
2716.00,0.5460
2715.00,0.5415
2714.00,0.5369
2713.00,0.5324
2712.00,0.5281
2711.00,0.5242
2710.00,0.5207
2709.00,0.5177
2708.00,0.5151
2707.00,0.5129
2706.00,0.5111
2705.00,0.5097
2704.00,0.5086
2703.00,0.5077
2702.00,0.5071
2701.00,0.5067
2700.00,0.5066
2699.00,0.5066
2698.00,0.5068
2697.00,0.5073
2696.00,0.5079
2695.00,0.5086
2694.00,0.5094
2693.00,0.5103
2692.00,0.5112
2691.00,0.5121
2690.00,0.5130
2689.00,0.5138
2688.00,0.5146
2687.00,0.5152
2686.00,0.5157
2685.00,0.5161
2684.00,0.5165
2683.00,0.5168
2682.00,0.5171
2681.00,0.5175
2680.00,0.5178
2679.00,0.5181
2678.00,0.5184
2677.00,0.5187
2676.00,0.5191
2675.00,0.5194
2674.00,0.5198
2673.00,0.5201
2672.00,0.5204
2671.00,0.5205
2670.00,0.5204
2669.00,0.5200
2668.00,0.5192
2667.00,0.5181
2666.00,0.5168
2665.00,0.5153
2664.00,0.5138
2663.00,0.5121
2662.00,0.5103
2661.00,0.5085
2660.00,0.5066
2659.00,0.5045
2658.00,0.5025
2657.00,0.5004
2656.00,0.4984
2655.00,0.4965
2654.00,0.4947
2653.00,0.4930
2652.00,0.4913
2651.00,0.4897
2650.00,0.4881
2649.00,0.4866
2648.00,0.4852
2647.00,0.4838
2646.00,0.4825
2645.00,0.4813
2644.00,0.4802
2643.00,0.4792
2642.00,0.4781
2641.00,0.4771
2640.00,0.4760
2639.00,0.4750
2638.00,0.4740
2637.00,0.4732
2636.00,0.4724
2635.00,0.4717
2634.00,0.4709
2633.00,0.4703
2632.00,0.4696
2631.00,0.4689
2630.00,0.4682
2629.00,0.4675
2628.00,0.4667
2627.00,0.4659
2626.00,0.4651
2625.00,0.4642
2624.00,0.4634
2623.00,0.4625
2622.00,0.4617
2621.00,0.4608
2620.00,0.4599
2619.00,0.4589
2618.00,0.4580
2617.00,0.4570
2616.00,0.4561
2615.00,0.4551
2614.00,0.4541
2613.00,0.4531
2612.00,0.4521
2611.00,0.4511
2610.00,0.4501
2609.00,0.4491
2608.00,0.4481
2607.00,0.4471
2606.00,0.4462
2605.00,0.4452
2604.00,0.4442
2603.00,0.4432
2602.00,0.4422
2601.00,0.4412
2600.00,0.4401
2599.00,0.4391
2598.00,0.4379
2597.00,0.4367
2596.00,0.4354
2595.00,0.4340
2594.00,0.4326
2593.00,0.4312
2592.00,0.4298
2591.00,0.4283
2590.00,0.4267
2589.00,0.4252
2588.00,0.4237
2587.00,0.4222
2586.00,0.4206
2585.00,0.4190
2584.00,0.4174
2583.00,0.4156
2582.00,0.4138
2581.00,0.4120
2580.00,0.4101
2579.00,0.4083
2578.00,0.4065
2577.00,0.4047
2576.00,0.4031
2575.00,0.4015
2574.00,0.3999
2573.00,0.3983
2572.00,0.3967
2571.00,0.3952
2570.00,0.3937
2569.00,0.3922
2568.00,0.3909
2567.00,0.3895
2566.00,0.3881
2565.00,0.3868
2564.00,0.3854
2563.00,0.3841
2562.00,0.3829
2561.00,0.3817
2560.00,0.3805
2559.00,0.3794
2558.00,0.3783
2557.00,0.3772
2556.00,0.3761
2555.00,0.3750
2554.00,0.3739
2553.00,0.3729
2552.00,0.3719
2551.00,0.3708
2550.00,0.3697
2549.00,0.3687
2548.00,0.3676
2547.00,0.3666
2546.00,0.3656
2545.00,0.3646
2544.00,0.3636
2543.00,0.3628
2542.00,0.3619
2541.00,0.3611
2540.00,0.3603
2539.00,0.3595
2538.00,0.3588
2537.00,0.3580
2536.00,0.3574
2535.00,0.3567
2534.00,0.3560
2533.00,0.3554
2532.00,0.3546
2531.00,0.3539
2530.00,0.3531
2529.00,0.3524
2528.00,0.3516
2527.00,0.3508
2526.00,0.3500
2525.00,0.3491
2524.00,0.3483
2523.00,0.3475
2522.00,0.3467
2521.00,0.3459
2520.00,0.3451
2519.00,0.3442
2518.00,0.3433
2517.00,0.3425
2516.00,0.3417
2515.00,0.3409
2514.00,0.3400
2513.00,0.3392
2512.00,0.3384
2511.00,0.3376
2510.00,0.3368
2509.00,0.3361
2508.00,0.3353
2507.00,0.3346
2506.00,0.3340
2505.00,0.3333
2504.00,0.3327
2503.00,0.3321
2502.00,0.3315
2501.00,0.3310
2500.00,0.3305
2499.00,0.3301
2498.00,0.3297
2497.00,0.3293
2496.00,0.3289
2495.00,0.3285
2494.00,0.3281
2493.00,0.3278
2492.00,0.3275
2491.00,0.3271
2490.00,0.3268
2489.00,0.3265
2488.00,0.3263
2487.00,0.3259
2486.00,0.3256
2485.00,0.3252
2484.00,0.3249
2483.00,0.3245
2482.00,0.3242
2481.00,0.3240
2480.00,0.3237
2479.00,0.3234
2478.00,0.3231
2477.00,0.3227
2476.00,0.3223
2475.00,0.3219
2474.00,0.3215
2473.00,0.3211
2472.00,0.3207
2471.00,0.3203
2470.00,0.3199
2469.00,0.3196
2468.00,0.3193
2467.00,0.3189
2466.00,0.3186
2465.00,0.3183
2464.00,0.3180
2463.00,0.3178
2462.00,0.3175
2461.00,0.3173
2460.00,0.3171
2459.00,0.3169
2458.00,0.3167
2457.00,0.3166
2456.00,0.3165
2455.00,0.3164
2454.00,0.3163
2453.00,0.3163
2452.00,0.3163
2451.00,0.3163
2450.00,0.3162
2449.00,0.3162
2448.00,0.3162
2447.00,0.3162
2446.00,0.3162
2445.00,0.3162
2444.00,0.3162
2443.00,0.3161
2442.00,0.3161
2441.00,0.3160
2440.00,0.3160
2439.00,0.3161
2438.00,0.3161
2437.00,0.3161
2436.00,0.3161
2435.00,0.3160
2434.00,0.3160
2433.00,0.3160
2432.00,0.3160
2431.00,0.3160
2430.00,0.3160
2429.00,0.3159
2428.00,0.3159
2427.00,0.3159
2426.00,0.3159
2425.00,0.3159
2424.00,0.3160
2423.00,0.3160
2422.00,0.3161
2421.00,0.3162
2420.00,0.3164
2419.00,0.3165
2418.00,0.3166
2417.00,0.3167
2416.00,0.3168
2415.00,0.3169
2414.00,0.3169
2413.00,0.3170
2412.00,0.3171
2411.00,0.3172
2410.00,0.3173
2409.00,0.3173
2408.00,0.3173
2407.00,0.3173
2406.00,0.3173
2405.00,0.3172
2404.00,0.3170
2403.00,0.3169
2402.00,0.3168
2401.00,0.3167
2400.00,0.3165
2399.00,0.3163
2398.00,0.3160
2397.00,0.3158
2396.00,0.3156
2395.00,0.3154
2394.00,0.3152
2393.00,0.3150
2392.00,0.3148
2391.00,0.3147
2390.00,0.3145
2389.00,0.3145
2388.00,0.3144
2387.00,0.3143
2386.00,0.3143
2385.00,0.3143
2384.00,0.3145
2383.00,0.3146
2382.00,0.3148
2381.00,0.3150
2380.00,0.3151
2379.00,0.3153
2378.00,0.3154
2377.00,0.3154
2376.00,0.3154
2375.00,0.3153
2374.00,0.3152
2373.00,0.3149
2372.00,0.3147
2371.00,0.3144
2370.00,0.3142
2369.00,0.3141
2368.00,0.3140
2367.00,0.3140
2366.00,0.3140
2365.00,0.3139
2364.00,0.3139
2363.00,0.3139
2362.00,0.3139
2361.00,0.3139
2360.00,0.3138
2359.00,0.3137
2358.00,0.3135
2357.00,0.3135
2356.00,0.3134
2355.00,0.3133
2354.00,0.3133
2353.00,0.3133
2352.00,0.3132
2351.00,0.3131
2350.00,0.3128
2349.00,0.3127
2348.00,0.3127
2347.00,0.3128
2346.00,0.3128
2345.00,0.3127
2344.00,0.3124
2343.00,0.3121
2342.00,0.3118
2341.00,0.3117
2340.00,0.3116
2339.00,0.3115
2338.00,0.3114
2337.00,0.3114
2336.00,0.3113
2335.00,0.3112
2334.00,0.3111
2333.00,0.3111
2332.00,0.3111
2331.00,0.3110
2330.00,0.3109
2329.00,0.3107
2328.00,0.3105
2327.00,0.3103
2326.00,0.3101
2325.00,0.3101
2324.00,0.3100
2323.00,0.3100
2322.00,0.3098
2321.00,0.3097
2320.00,0.3095
2319.00,0.3092
2318.00,0.3089
2317.00,0.3086
2316.00,0.3084
2315.00,0.3081
2314.00,0.3079
2313.00,0.3076
2312.00,0.3074
2311.00,0.3070
2310.00,0.3067
2309.00,0.3063
2308.00,0.3059
2307.00,0.3055
2306.00,0.3051
2305.00,0.3047
2304.00,0.3043
2303.00,0.3039
2302.00,0.3035
2301.00,0.3032
2300.00,0.3029
2299.00,0.3026
2298.00,0.3023
2297.00,0.3020
2296.00,0.3018
2295.00,0.3015
2294.00,0.3012
2293.00,0.3009
2292.00,0.3007
2291.00,0.3004
2290.00,0.3001
2289.00,0.2999
2288.00,0.2997
2287.00,0.2994
2286.00,0.2992
2285.00,0.2990
2284.00,0.2987
2283.00,0.2985
2282.00,0.2982
2281.00,0.2979
2280.00,0.2976
2279.00,0.2972
2278.00,0.2968
2277.00,0.2965
2276.00,0.2961
2275.00,0.2958
2274.00,0.2954
2273.00,0.2952
2272.00,0.2950
2271.00,0.2947
2270.00,0.2945
2269.00,0.2943
2268.00,0.2941
2267.00,0.2938
2266.00,0.2935
2265.00,0.2932
2264.00,0.2930
2263.00,0.2928
2262.00,0.2926
2261.00,0.2924
2260.00,0.2922
2259.00,0.2920
2258.00,0.2919
2257.00,0.2917
2256.00,0.2915
2255.00,0.2913
2254.00,0.2910
2253.00,0.2908
2252.00,0.2907
2251.00,0.2905
2250.00,0.2903
2249.00,0.2902
2248.00,0.2901
2247.00,0.2899
2246.00,0.2898
2245.00,0.2896
2244.00,0.2895
2243.00,0.2893
2242.00,0.2891
2241.00,0.2889
2240.00,0.2887
2239.00,0.2885
2238.00,0.2883
2237.00,0.2881
2236.00,0.2880
2235.00,0.2878
2234.00,0.2876
2233.00,0.2875
2232.00,0.2873
2231.00,0.2871
2230.00,0.2869
2229.00,0.2868
2228.00,0.2867
2227.00,0.2865
2226.00,0.2863
2225.00,0.2862
2224.00,0.2860
2223.00,0.2859
2222.00,0.2858
2221.00,0.2858
2220.00,0.2857
2219.00,0.2856
2218.00,0.2855
2217.00,0.2854
2216.00,0.2855
2215.00,0.2855
2214.00,0.2856
2213.00,0.2856
2212.00,0.2857
2211.00,0.2857
2210.00,0.2857
2209.00,0.2857
2208.00,0.2857
2207.00,0.2857
2206.00,0.2857
2205.00,0.2857
2204.00,0.2857
2203.00,0.2857
2202.00,0.2857
2201.00,0.2857
2200.00,0.2857
2199.00,0.2856
2198.00,0.2855
2197.00,0.2854
2196.00,0.2854
2195.00,0.2853
2194.00,0.2852
2193.00,0.2851
2192.00,0.2851
2191.00,0.2850
2190.00,0.2849
2189.00,0.2848
2188.00,0.2847
2187.00,0.2846
2186.00,0.2846
2185.00,0.2846
2184.00,0.2846
2183.00,0.2845
2182.00,0.2845
2181.00,0.2844
2180.00,0.2844
2179.00,0.2844
2178.00,0.2843
2177.00,0.2843
2176.00,0.2842
2175.00,0.2841
2174.00,0.2841
2173.00,0.2841
2172.00,0.2841
2171.00,0.2841
2170.00,0.2841
2169.00,0.2841
2168.00,0.2840
2167.00,0.2840
2166.00,0.2839
2165.00,0.2837
2164.00,0.2835
2163.00,0.2833
2162.00,0.2831
2161.00,0.2829
2160.00,0.2828
2159.00,0.2826
2158.00,0.2824
2157.00,0.2822
2156.00,0.2820
2155.00,0.2817
2154.00,0.2815
2153.00,0.2812
2152.00,0.2810
2151.00,0.2807
2150.00,0.2804
2149.00,0.2801
2148.00,0.2798
2147.00,0.2794
2146.00,0.2791
2145.00,0.2788
2144.00,0.2785
2143.00,0.2781
2142.00,0.2777
2141.00,0.2774
2140.00,0.2771
2139.00,0.2768
2138.00,0.2765
2137.00,0.2763
2136.00,0.2762
2135.00,0.2760
2134.00,0.2759
2133.00,0.2757
2132.00,0.2757
2131.00,0.2756
2130.00,0.2754
2129.00,0.2753
2128.00,0.2752
2127.00,0.2751
2126.00,0.2750
2125.00,0.2749
2124.00,0.2747
2123.00,0.2745
2122.00,0.2743
2121.00,0.2741
2120.00,0.2739
2119.00,0.2737
2118.00,0.2735
2117.00,0.2733
2116.00,0.2731
2115.00,0.2729
2114.00,0.2728
2113.00,0.2727
2112.00,0.2726
2111.00,0.2725
2110.00,0.2723
2109.00,0.2721
2108.00,0.2720
2107.00,0.2719
2106.00,0.2719
2105.00,0.2718
2104.00,0.2718
2103.00,0.2718
2102.00,0.2717
2101.00,0.2717
2100.00,0.2718
2099.00,0.2718
2098.00,0.2717
2097.00,0.2717
2096.00,0.2718
2095.00,0.2718
2094.00,0.2718
2093.00,0.2718
2092.00,0.2719
2091.00,0.2719
2090.00,0.2719
2089.00,0.2719
2088.00,0.2719
2087.00,0.2719
2086.00,0.2719
2085.00,0.2719
2084.00,0.2719
2083.00,0.2718
2082.00,0.2718
2081.00,0.2717
2080.00,0.2717
2079.00,0.2716
2078.00,0.2715
2077.00,0.2714
2076.00,0.2715
2075.00,0.2715
2074.00,0.2715
2073.00,0.2715
2072.00,0.2715
2071.00,0.2715
2070.00,0.2715
2069.00,0.2715
2068.00,0.2715
2067.00,0.2715
2066.00,0.2716
2065.00,0.2718
2064.00,0.2720
2063.00,0.2722
2062.00,0.2724
2061.00,0.2725
2060.00,0.2726
2059.00,0.2728
2058.00,0.2729
2057.00,0.2731
2056.00,0.2733
2055.00,0.2734
2054.00,0.2736
2053.00,0.2738
2052.00,0.2740
2051.00,0.2742
2050.00,0.2743
2049.00,0.2745
2048.00,0.2747
2047.00,0.2749
2046.00,0.2750
2045.00,0.2752
2044.00,0.2753
2043.00,0.2754
2042.00,0.2755
2041.00,0.2756
2040.00,0.2757
2039.00,0.2758
2038.00,0.2758
2037.00,0.2758
2036.00,0.2758
2035.00,0.2758
2034.00,0.2758
2033.00,0.2758
2032.00,0.2757
2031.00,0.2757
2030.00,0.2756
2029.00,0.2755
2028.00,0.2754
2027.00,0.2754
2026.00,0.2753
2025.00,0.2752
2024.00,0.2751
2023.00,0.2748
2022.00,0.2746
2021.00,0.2743
2020.00,0.2740
2019.00,0.2736
2018.00,0.2732
2017.00,0.2727
2016.00,0.2723
2015.00,0.2718
2014.00,0.2714
2013.00,0.2709
2012.00,0.2705
2011.00,0.2701
2010.00,0.2696
2009.00,0.2693
2008.00,0.2690
2007.00,0.2687
2006.00,0.2684
2005.00,0.2681
2004.00,0.2679
2003.00,0.2677
2002.00,0.2675
2001.00,0.2673
2000.00,0.2671
1999.00,0.2669
1998.00,0.2667
1997.00,0.2665
1996.00,0.2663
1995.00,0.2661
1994.00,0.2658
1993.00,0.2656
1992.00,0.2655
1991.00,0.2654
1990.00,0.2653
1989.00,0.2653
1988.00,0.2653
1987.00,0.2653
1986.00,0.2653
1985.00,0.2652
1984.00,0.2652
1983.00,0.2651
1982.00,0.2651
1981.00,0.2651
1980.00,0.2651
1979.00,0.2651
1978.00,0.2651
1977.00,0.2652
1976.00,0.2653
1975.00,0.2653
1974.00,0.2654
1973.00,0.2655
1972.00,0.2655
1971.00,0.2655
1970.00,0.2655
1969.00,0.2654
1968.00,0.2655
1967.00,0.2655
1966.00,0.2657
1965.00,0.2658
1964.00,0.2659
1963.00,0.2659
1962.00,0.2660
1961.00,0.2660
1960.00,0.2662
1959.00,0.2663
1958.00,0.2663
1957.00,0.2664
1956.00,0.2665
1955.00,0.2666
1954.00,0.2666
1953.00,0.2667
1952.00,0.2668
1951.00,0.2668
1950.00,0.2668
1949.00,0.2668
1948.00,0.2668
1947.00,0.2668
1946.00,0.2669
1945.00,0.2670
1944.00,0.2673
1943.00,0.2677
1942.00,0.2683
1941.00,0.2691
1940.00,0.2698
1939.00,0.2703
1938.00,0.2706
1937.00,0.2707
1936.00,0.2707
1935.00,0.2706
1934.00,0.2706
1933.00,0.2706
1932.00,0.2707
1931.00,0.2708
1930.00,0.2709
1929.00,0.2710
1928.00,0.2711
1927.00,0.2712
1926.00,0.2711
1925.00,0.2711
1924.00,0.2712
1923.00,0.2714
1922.00,0.2718
1921.00,0.2724
1920.00,0.2731
1919.00,0.2735
1918.00,0.2737
1917.00,0.2739
1916.00,0.2741
1915.00,0.2742
1914.00,0.2743
1913.00,0.2742
1912.00,0.2741
1911.00,0.2740
1910.00,0.2739
1909.00,0.2740
1908.00,0.2741
1907.00,0.2743
1906.00,0.2744
1905.00,0.2745
1904.00,0.2746
1903.00,0.2746
1902.00,0.2747
1901.00,0.2747
1900.00,0.2749
1899.00,0.2750
1898.00,0.2751
1897.00,0.2753
1896.00,0.2756
1895.00,0.2758
1894.00,0.2761
1893.00,0.2764
1892.00,0.2766
1891.00,0.2767
1890.00,0.2768
1889.00,0.2769
1888.00,0.2772
1887.00,0.2774
1886.00,0.2775
1885.00,0.2776
1884.00,0.2777
1883.00,0.2777
1882.00,0.2776
1881.00,0.2776
1880.00,0.2775
1879.00,0.2773
1878.00,0.2771
1877.00,0.2769
1876.00,0.2767
1875.00,0.2764
1874.00,0.2760
1873.00,0.2756
1872.00,0.2752
1871.00,0.2747
1870.00,0.2741
1869.00,0.2737
1868.00,0.2736
1867.00,0.2738
1866.00,0.2740
1865.00,0.2741
1864.00,0.2740
1863.00,0.2737
1862.00,0.2734
1861.00,0.2733
1860.00,0.2732
1859.00,0.2731
1858.00,0.2730
1857.00,0.2730
1856.00,0.2730
1855.00,0.2729
1854.00,0.2728
1853.00,0.2727
1852.00,0.2726
1851.00,0.2725
1850.00,0.2722
1849.00,0.2720
1848.00,0.2718
1847.00,0.2719
1846.00,0.2719
1845.00,0.2718
1844.00,0.2716
1843.00,0.2714
1842.00,0.2714
1841.00,0.2715
1840.00,0.2714
1839.00,0.2710
1838.00,0.2707
1837.00,0.2705
1836.00,0.2704
1835.00,0.2703
1834.00,0.2701
1833.00,0.2700
1832.00,0.2698
1831.00,0.2695
1830.00,0.2691
1829.00,0.2690
1828.00,0.2692
1827.00,0.2694
1826.00,0.2694
1825.00,0.2693
1824.00,0.2694
1823.00,0.2696
1822.00,0.2698
1821.00,0.2700
1820.00,0.2702
1819.00,0.2703
1818.00,0.2704
1817.00,0.2706
1816.00,0.2709
1815.00,0.2710
1814.00,0.2711
1813.00,0.2711
1812.00,0.2712
1811.00,0.2714
1810.00,0.2717
1809.00,0.2721
1808.00,0.2726
1807.00,0.2730
1806.00,0.2734
1805.00,0.2736
1804.00,0.2738
1803.00,0.2740
1802.00,0.2743
1801.00,0.2749
1800.00,0.2755
1799.00,0.2760
1798.00,0.2764
1797.00,0.2767
1796.00,0.2771
1795.00,0.2776
1794.00,0.2779
1793.00,0.2782
1792.00,0.2785
1791.00,0.2790
1790.00,0.2796
1789.00,0.2803
1788.00,0.2809
1787.00,0.2813
1786.00,0.2815
1785.00,0.2818
1784.00,0.2822
1783.00,0.2826
1782.00,0.2830
1781.00,0.2835
1780.00,0.2842
1779.00,0.2848
1778.00,0.2854
1777.00,0.2859
1776.00,0.2865
1775.00,0.2872
1774.00,0.2879
1773.00,0.2886
1772.00,0.2894
1771.00,0.2904
1770.00,0.2914
1769.00,0.2924
1768.00,0.2935
1767.00,0.2945
1766.00,0.2955
1765.00,0.2967
1764.00,0.2980
1763.00,0.2992
1762.00,0.3006
1761.00,0.3023
1760.00,0.3043
1759.00,0.3065
1758.00,0.3090
1757.00,0.3118
1756.00,0.3149
1755.00,0.3181
1754.00,0.3213
1753.00,0.3246
1752.00,0.3280
1751.00,0.3316
1750.00,0.3354
1749.00,0.3394
1748.00,0.3434
1747.00,0.3470
1746.00,0.3501
1745.00,0.3529
1744.00,0.3556
1743.00,0.3580
1742.00,0.3603
1741.00,0.3622
1740.00,0.3635
1739.00,0.3642
1738.00,0.3646
1737.00,0.3651
1736.00,0.3653
1735.00,0.3644
1734.00,0.3629
1733.00,0.3618
1732.00,0.3613
1731.00,0.3609
1730.00,0.3605
1729.00,0.3603
1728.00,0.3604
1727.00,0.3607
1726.00,0.3613
1725.00,0.3623
1724.00,0.3638
1723.00,0.3658
1722.00,0.3683
1721.00,0.3714
1720.00,0.3751
1719.00,0.3796
1718.00,0.3859
1717.00,0.3946
1716.00,0.4048
1715.00,0.4158
1714.00,0.4275
1713.00,0.4393
1712.00,0.4507
1711.00,0.4613
1710.00,0.4707
1709.00,0.4776
1708.00,0.4812
1707.00,0.4812
1706.00,0.4776
1705.00,0.4711
1704.00,0.4635
1703.00,0.4562
1702.00,0.4477
1701.00,0.4348
1700.00,0.4189
1699.00,0.4058
1698.00,0.3972
1697.00,0.3903
1696.00,0.3825
1695.00,0.3747
1694.00,0.3687
1693.00,0.3646
1692.00,0.3610
1691.00,0.3573
1690.00,0.3536
1689.00,0.3504
1688.00,0.3482
1687.00,0.3466
1686.00,0.3449
1685.00,0.3425
1684.00,0.3401
1683.00,0.3383
1682.00,0.3373
1681.00,0.3366
1680.00,0.3359
1679.00,0.3353
1678.00,0.3350
1677.00,0.3347
1676.00,0.3340
1675.00,0.3329
1674.00,0.3320
1673.00,0.3317
1672.00,0.3316
1671.00,0.3315
1670.00,0.3312
1669.00,0.3312
1668.00,0.3312
1667.00,0.3314
1666.00,0.3316
1665.00,0.3320
1664.00,0.3322
1663.00,0.3323
1662.00,0.3325
1661.00,0.3330
1660.00,0.3336
1659.00,0.3340
1658.00,0.3342
1657.00,0.3346
1656.00,0.3354
1655.00,0.3362
1654.00,0.3367
1653.00,0.3376
1652.00,0.3384
1651.00,0.3389
1650.00,0.3395
1649.00,0.3403
1648.00,0.3413
1647.00,0.3426
1646.00,0.3442
1645.00,0.3460
1644.00,0.3476
1643.00,0.3490
1642.00,0.3503
1641.00,0.3517
1640.00,0.3532
1639.00,0.3546
1638.00,0.3562
1637.00,0.3583
1636.00,0.3607
1635.00,0.3631
1634.00,0.3651
1633.00,0.3670
1632.00,0.3689
1631.00,0.3707
1630.00,0.3724
1629.00,0.3744
1628.00,0.3767
1627.00,0.3791
1626.00,0.3816
1625.00,0.3846
1624.00,0.3880
1623.00,0.3919
1622.00,0.3962
1621.00,0.4010
1620.00,0.4065
1619.00,0.4126
1618.00,0.4201
1617.00,0.4296
1616.00,0.4404
1615.00,0.4505
1614.00,0.4596
1613.00,0.4686
1612.00,0.4779
1611.00,0.4871
1610.00,0.4962
1609.00,0.5053
1608.00,0.5142
1607.00,0.5220
1606.00,0.5284
1605.00,0.5341
1604.00,0.5395
1603.00,0.5442
1602.00,0.5486
1601.00,0.5532
1600.00,0.5585
1599.00,0.5641
1598.00,0.5703
1597.00,0.5783
1596.00,0.5892
1595.00,0.6030
1594.00,0.6204
1593.00,0.6429
1592.00,0.6722
1591.00,0.7091
1590.00,0.7555
1589.00,0.8150
1588.00,0.8922
1587.00,0.9905
1586.00,1.1139
1585.00,1.2695
1584.00,1.4672
1583.00,1.7091
1582.00,1.9764
1581.00,2.2301
1580.00,2.4030
1579.00,2.3399
1578.00,2.0486
1577.00,1.7321
1576.00,1.4721
1575.00,1.2802
1574.00,1.1460
1573.00,1.0505
1572.00,0.9773
1571.00,0.9168
1570.00,0.8688
1569.00,0.8387
1568.00,0.8289
1567.00,0.8372
1566.00,0.8628
1565.00,0.9078
1564.00,0.9707
1563.00,1.0429
1562.00,1.1134
1561.00,1.1730
1560.00,1.1962
1559.00,1.1412
1558.00,1.0381
1557.00,0.9465
1556.00,0.8710
1555.00,0.7996
1554.00,0.7336
1553.00,0.6801
1552.00,0.6402
1551.00,0.6090
1550.00,0.5827
1549.00,0.5616
1548.00,0.5459
1547.00,0.5337
1546.00,0.5230
1545.00,0.5136
1544.00,0.5060
1543.00,0.5002
1542.00,0.4952
1541.00,0.4906
1540.00,0.4866
1539.00,0.4827
1538.00,0.4790
1537.00,0.4763
1536.00,0.4744
1535.00,0.4721
1534.00,0.4694
1533.00,0.4676
1532.00,0.4674
1531.00,0.4681
1530.00,0.4692
1529.00,0.4706
1528.00,0.4720
1527.00,0.4728
1526.00,0.4727
1525.00,0.4725
1524.00,0.4726
1523.00,0.4730
1522.00,0.4738
1521.00,0.4758
1520.00,0.4787
1519.00,0.4819
1518.00,0.4854
1517.00,0.4896
1516.00,0.4938
1515.00,0.4969
1514.00,0.4987
1513.00,0.4998
1512.00,0.5006
1511.00,0.5015
1510.00,0.5029
1509.00,0.5060
1508.00,0.5121
1507.00,0.5225
1506.00,0.5357
1505.00,0.5479
1504.00,0.5579
1503.00,0.5662
1502.00,0.5737
1501.00,0.5812
1500.00,0.5883
1499.00,0.5947
1498.00,0.6014
1497.00,0.6100
1496.00,0.6202
1495.00,0.6304
1494.00,0.6402
1493.00,0.6507
1492.00,0.6623
1491.00,0.6751
1490.00,0.6901
1489.00,0.7077
1488.00,0.7268
1487.00,0.7468
1486.00,0.7687
1485.00,0.7942
1484.00,0.8236
1483.00,0.8577
1482.00,0.8985
1481.00,0.9474
1480.00,1.0027
1479.00,1.0627
1478.00,1.1306
1477.00,1.2120
1476.00,1.3080
1475.00,1.4179
1474.00,1.5508
1473.00,1.7273
1472.00,1.9592
1471.00,2.2318
1470.00,2.5264
1469.00,2.8540
1468.00,3.2009
1467.00,3.4101
1466.00,3.4984
1465.00,3.6457
1464.00,3.7944
1463.00,3.8444
1462.00,3.9356
1461.00,4.1917
1460.00,4.0459
1459.00,3.7886
1458.00,3.6726
1457.00,3.9053
1456.00,4.1749
1455.00,3.8119
1454.00,3.7203
1453.00,3.8788
1452.00,3.8339
1451.00,3.5802
1450.00,3.4629
1449.00,3.4493
1448.00,3.3108
1447.00,3.0702
1446.00,2.8823
1445.00,2.7330
1444.00,2.5742
1443.00,2.4155
1442.00,2.2812
1441.00,2.1665
1440.00,2.0557
1439.00,1.9428
1438.00,1.8270
1437.00,1.7071
1436.00,1.5905
1435.00,1.4882
1434.00,1.3998
1433.00,1.3168
1432.00,1.2341
1431.00,1.1544
1430.00,1.0823
1429.00,1.0207
1428.00,0.9707
1427.00,0.9315
1426.00,0.9002
1425.00,0.8740
1424.00,0.8525
1423.00,0.8367
1422.00,0.8258
1421.00,0.8169
1420.00,0.8083
1419.00,0.8004
1418.00,0.7942
1417.00,0.7898
1416.00,0.7867
1415.00,0.7849
1414.00,0.7840
1413.00,0.7837
1412.00,0.7841
1411.00,0.7852
1410.00,0.7858
1409.00,0.7847
1408.00,0.7811
1407.00,0.7746
1406.00,0.7649
1405.00,0.7522
1404.00,0.7382
1403.00,0.7250
1402.00,0.7132
1401.00,0.7023
1400.00,0.6925
1399.00,0.6847
1398.00,0.6796
1397.00,0.6771
1396.00,0.6775
1395.00,0.6817
1394.00,0.6901
1393.00,0.7031
1392.00,0.7219
1391.00,0.7488
1390.00,0.7859
1389.00,0.8366
1388.00,0.9050
1387.00,0.9926
1386.00,1.0933
1385.00,1.1989
1384.00,1.3074
1383.00,1.4224
1382.00,1.5481
1381.00,1.6884
1380.00,1.8464
1379.00,2.0130
1378.00,2.1490
1377.00,2.2001
1376.00,2.1479
1375.00,2.0168
1374.00,1.8504
1373.00,1.6920
1372.00,1.5616
1371.00,1.4608
1370.00,1.3866
1369.00,1.3369
1368.00,1.3071
1367.00,1.2861
1366.00,1.2588
1365.00,1.2138
1364.00,1.1503
1363.00,1.0784
1362.00,1.0111
1361.00,0.9564
1360.00,0.9151
1359.00,0.8847
1358.00,0.8625
1357.00,0.8467
1356.00,0.8361
1355.00,0.8294
1354.00,0.8255
1353.00,0.8230
1352.00,0.8208
1351.00,0.8181
1350.00,0.8147
1349.00,0.8106
1348.00,0.8063
1347.00,0.8022
1346.00,0.7988
1345.00,0.7961
1344.00,0.7938
1343.00,0.7914
1342.00,0.7882
1341.00,0.7834
1340.00,0.7767
1339.00,0.7679
1338.00,0.7572
1337.00,0.7449
1336.00,0.7315
1335.00,0.7178
1334.00,0.7045
1333.00,0.6924
1332.00,0.6819
1331.00,0.6731
1330.00,0.6662
1329.00,0.6609
1328.00,0.6569
1327.00,0.6541
1326.00,0.6524
1325.00,0.6515
1324.00,0.6512
1323.00,0.6514
1322.00,0.6519
1321.00,0.6524
1320.00,0.6532
1319.00,0.6544
1318.00,0.6561
1317.00,0.6584
1316.00,0.6610
1315.00,0.6640
1314.00,0.6675
1313.00,0.6714
1312.00,0.6754
1311.00,0.6793
1310.00,0.6829
1309.00,0.6858
1308.00,0.6882
1307.00,0.6898
1306.00,0.6907
1305.00,0.6905
1304.00,0.6892
1303.00,0.6866
1302.00,0.6829
1301.00,0.6784
1300.00,0.6737
1299.00,0.6688
1298.00,0.6638
1297.00,0.6587
1296.00,0.6535
1295.00,0.6487
1294.00,0.6444
1293.00,0.6404
1292.00,0.6367
1291.00,0.6334
1290.00,0.6301
1289.00,0.6269
1288.00,0.6237
1287.00,0.6204
1286.00,0.6169
1285.00,0.6132
1284.00,0.6092
1283.00,0.6054
1282.00,0.6020
1281.00,0.5992
1280.00,0.5970
1279.00,0.5950
1278.00,0.5931
1277.00,0.5911
1276.00,0.5890
1275.00,0.5870
1274.00,0.5852
1273.00,0.5836
1272.00,0.5824
1271.00,0.5816
1270.00,0.5810
1269.00,0.5802
1268.00,0.5785
1267.00,0.5758
1266.00,0.5722
1265.00,0.5682
1264.00,0.5643
1263.00,0.5611
1262.00,0.5588
1261.00,0.5571
1260.00,0.5557
1259.00,0.5545
1258.00,0.5531
1257.00,0.5516
1256.00,0.5500
1255.00,0.5485
1254.00,0.5471
1253.00,0.5459
1252.00,0.5448
1251.00,0.5438
1250.00,0.5428
1249.00,0.5417
1248.00,0.5401
1247.00,0.5382
1246.00,0.5361
1245.00,0.5336
1244.00,0.5310
1243.00,0.5283
1242.00,0.5254
1241.00,0.5224
1240.00,0.5193
1239.00,0.5164
1238.00,0.5139
1237.00,0.5117
1236.00,0.5100
1235.00,0.5088
1234.00,0.5082
1233.00,0.5079
1232.00,0.5081
1231.00,0.5085
1230.00,0.5089
1229.00,0.5087
1228.00,0.5077
1227.00,0.5059
1226.00,0.5037
1225.00,0.5011
1224.00,0.4984
1223.00,0.4959
1222.00,0.4937
1221.00,0.4919
1220.00,0.4905
1219.00,0.4899
1218.00,0.4898
1217.00,0.4901
1216.00,0.4907
1215.00,0.4914
1214.00,0.4921
1213.00,0.4922
1212.00,0.4917
1211.00,0.4907
1210.00,0.4895
1209.00,0.4880
1208.00,0.4865
1207.00,0.4849
1206.00,0.4833
1205.00,0.4815
1204.00,0.4798
1203.00,0.4783
1202.00,0.4771
1201.00,0.4762
1200.00,0.4756
1199.00,0.4752
1198.00,0.4750
1197.00,0.4746
1196.00,0.4741
1195.00,0.4735
1194.00,0.4730
1193.00,0.4727
1192.00,0.4724
1191.00,0.4723
1190.00,0.4721
1189.00,0.4718
1188.00,0.4713
1187.00,0.4709
1186.00,0.4705
1185.00,0.4702
1184.00,0.4701
1183.00,0.4702
1182.00,0.4706
1181.00,0.4711
1180.00,0.4717
1179.00,0.4725
1178.00,0.4736
1177.00,0.4751
1176.00,0.4773
1175.00,0.4804
1174.00,0.4845
1173.00,0.4893
1172.00,0.4943
1171.00,0.4989
1170.00,0.5022
1169.00,0.5038
1168.00,0.5037
1167.00,0.5026
1166.00,0.5009
1165.00,0.4993
1164.00,0.4981
1163.00,0.4977
1162.00,0.4981
1161.00,0.4990
1160.00,0.5004
1159.00,0.5021
1158.00,0.5036
1157.00,0.5048
1156.00,0.5053
1155.00,0.5053
1154.00,0.5046
1153.00,0.5033
1152.00,0.5014
1151.00,0.4991
1150.00,0.4966
1149.00,0.4940
1148.00,0.4915
1147.00,0.4893
1146.00,0.4876
1145.00,0.4863
1144.00,0.4856
1143.00,0.4857
1142.00,0.4866
1141.00,0.4886
1140.00,0.4915
1139.00,0.4956
1138.00,0.5006
1137.00,0.5064
1136.00,0.5126
1135.00,0.5187
1134.00,0.5233
1133.00,0.5252
1132.00,0.5235
1131.00,0.5186
1130.00,0.5119
1129.00,0.5048
1128.00,0.4985
1127.00,0.4936
1126.00,0.4900
1125.00,0.4876
1124.00,0.4861
1123.00,0.4852
1122.00,0.4845
1121.00,0.4838
1120.00,0.4835
1119.00,0.4841
1118.00,0.4859
1117.00,0.4889
1116.00,0.4927
1115.00,0.4964
1114.00,0.4985
1113.00,0.4976
1112.00,0.4934
1111.00,0.4871
1110.00,0.4802
1109.00,0.4742
1108.00,0.4696
1107.00,0.4666
1106.00,0.4648
1105.00,0.4637
1104.00,0.4629
1103.00,0.4621
1102.00,0.4612
1101.00,0.4601
1100.00,0.4588
1099.00,0.4575
1098.00,0.4563
1097.00,0.4551
1096.00,0.4541
1095.00,0.4534
1094.00,0.4533
1093.00,0.4536
1092.00,0.4541
1091.00,0.4549
1090.00,0.4560
1089.00,0.4576
1088.00,0.4598
1087.00,0.4631
1086.00,0.4674
1085.00,0.4725
1084.00,0.4782
1083.00,0.4844
1082.00,0.4910
1081.00,0.4977
1080.00,0.5040
1079.00,0.5096
1078.00,0.5138
1077.00,0.5158
1076.00,0.5154
1075.00,0.5127
1074.00,0.5085
1073.00,0.5033
1072.00,0.4981
1071.00,0.4934
1070.00,0.4896
1069.00,0.4866
1068.00,0.4843
1067.00,0.4828
1066.00,0.4818
1065.00,0.4812
1064.00,0.4809
1063.00,0.4809
1062.00,0.4811
1061.00,0.4813
1060.00,0.4813
1059.00,0.4812
1058.00,0.4811
1057.00,0.4808
1056.00,0.4802
1055.00,0.4796
1054.00,0.4790
1053.00,0.4786
1052.00,0.4787
1051.00,0.4795
1050.00,0.4809
1049.00,0.4826
1048.00,0.4842
1047.00,0.4856
1046.00,0.4869
1045.00,0.4876
1044.00,0.4878
1043.00,0.4877
1042.00,0.4877
1041.00,0.4876
1040.00,0.4874
1039.00,0.4872
1038.00,0.4872
1037.00,0.4873
1036.00,0.4876
1035.00,0.4883
1034.00,0.4896
1033.00,0.4916
1032.00,0.4940
1031.00,0.4964
1030.00,0.4982
1029.00,0.4992
1028.00,0.4989
1027.00,0.4974
1026.00,0.4945
1025.00,0.4903
1024.00,0.4855
1023.00,0.4804
1022.00,0.4756
1021.00,0.4712
1020.00,0.4674
1019.00,0.4641
1018.00,0.4613
1017.00,0.4586
1016.00,0.4562
1015.00,0.4542
1014.00,0.4525
1013.00,0.4510
1012.00,0.4497
1011.00,0.4486
1010.00,0.4480
1009.00,0.4476
1008.00,0.4477
1007.00,0.4480
1006.00,0.4487
1005.00,0.4496
1004.00,0.4508
1003.00,0.4523
1002.00,0.4540
1001.00,0.4557
1000.00,0.4569
999.00,0.4576
998.00,0.4577
997.00,0.4569
996.00,0.4554
995.00,0.4533
994.00,0.4508
993.00,0.4480
992.00,0.4449
991.00,0.4418
990.00,0.4387
989.00,0.4359
988.00,0.4335
987.00,0.4318
986.00,0.4309
985.00,0.4309
984.00,0.4317
983.00,0.4331
982.00,0.4348
981.00,0.4366
980.00,0.4385
979.00,0.4405
978.00,0.4426
977.00,0.4446
976.00,0.4462
975.00,0.4474
974.00,0.4481
973.00,0.4484
972.00,0.4483
971.00,0.4479
970.00,0.4475
969.00,0.4471
968.00,0.4467
967.00,0.4463
966.00,0.4458
965.00,0.4451
964.00,0.4442
963.00,0.4431
962.00,0.4420
961.00,0.4407
960.00,0.4395
959.00,0.4385
958.00,0.4377
957.00,0.4371
956.00,0.4366
955.00,0.4361
954.00,0.4355
953.00,0.4347
952.00,0.4337
951.00,0.4327
950.00,0.4320
949.00,0.4317
948.00,0.4317
947.00,0.4322
946.00,0.4329
945.00,0.4337
944.00,0.4347
943.00,0.4360
942.00,0.4373
941.00,0.4386
940.00,0.4396
939.00,0.4404
938.00,0.4406
937.00,0.4403
936.00,0.4392
935.00,0.4374
934.00,0.4353
933.00,0.4329
932.00,0.4304
931.00,0.4280
930.00,0.4258
929.00,0.4241
928.00,0.4229
927.00,0.4226
926.00,0.4235
925.00,0.4256
924.00,0.4289
923.00,0.4332
922.00,0.4377
921.00,0.4412
920.00,0.4423
919.00,0.4404
918.00,0.4356
917.00,0.4289
916.00,0.4214
915.00,0.4141
914.00,0.4076
913.00,0.4020
912.00,0.3976
911.00,0.3942
910.00,0.3916
909.00,0.3896
908.00,0.3881
907.00,0.3869
906.00,0.3863
905.00,0.3859
904.00,0.3859
903.00,0.3864
902.00,0.3875
901.00,0.3891
900.00,0.3913
899.00,0.3941
898.00,0.3972
897.00,0.4006
896.00,0.4040
895.00,0.4077
894.00,0.4117
893.00,0.4157
892.00,0.4196
891.00,0.4233
890.00,0.4263
889.00,0.4284
888.00,0.4290
887.00,0.4282
886.00,0.4262
885.00,0.4237
884.00,0.4212
883.00,0.4195
882.00,0.4188
881.00,0.4189
880.00,0.4195
879.00,0.4204
878.00,0.4212
877.00,0.4217
876.00,0.4219
875.00,0.4222
874.00,0.4228
873.00,0.4235
872.00,0.4244
871.00,0.4254
870.00,0.4268
869.00,0.4285
868.00,0.4305
867.00,0.4329
866.00,0.4358
865.00,0.4392
864.00,0.4425
863.00,0.4452
862.00,0.4464
861.00,0.4454
860.00,0.4421
859.00,0.4369
858.00,0.4307
857.00,0.4247
856.00,0.4195
855.00,0.4152
854.00,0.4120
853.00,0.4094
852.00,0.4074
851.00,0.4058
850.00,0.4042
849.00,0.4022
848.00,0.3997
847.00,0.3967
846.00,0.3937
845.00,0.3908
844.00,0.3883
843.00,0.3865
842.00,0.3859
841.00,0.3869
840.00,0.3898
839.00,0.3947
838.00,0.4011
837.00,0.4074
836.00,0.4118
835.00,0.4132
834.00,0.4114
833.00,0.4076
832.00,0.4036
831.00,0.4009
830.00,0.4005
829.00,0.4021
828.00,0.4052
827.00,0.4094
826.00,0.4145
825.00,0.4200
824.00,0.4261
823.00,0.4325
822.00,0.4394
821.00,0.4463
820.00,0.4531
819.00,0.4595
818.00,0.4649
817.00,0.4688
816.00,0.4707
815.00,0.4704
814.00,0.4681
813.00,0.4640
812.00,0.4585
811.00,0.4524
810.00,0.4461
809.00,0.4401
808.00,0.4347
807.00,0.4298
806.00,0.4251
805.00,0.4203
804.00,0.4150
803.00,0.4093
802.00,0.4034
801.00,0.3978
800.00,0.3929
799.00,0.3891
798.00,0.3865
797.00,0.3846
796.00,0.3833
795.00,0.3825
794.00,0.3823
793.00,0.3827
792.00,0.3837
791.00,0.3855
790.00,0.3879
789.00,0.3908
788.00,0.3937
787.00,0.3969
786.00,0.4005
785.00,0.4045
784.00,0.4087
783.00,0.4128
782.00,0.4164
781.00,0.4192
780.00,0.4213
779.00,0.4232
778.00,0.4250
777.00,0.4269
776.00,0.4286
775.00,0.4303
774.00,0.4322
773.00,0.4343
772.00,0.4367
771.00,0.4395
770.00,0.4425
769.00,0.4456
768.00,0.4486
767.00,0.4513
766.00,0.4534
765.00,0.4548
764.00,0.4560
763.00,0.4577
762.00,0.4601
761.00,0.4633
760.00,0.4667
759.00,0.4700
758.00,0.4731
757.00,0.4759
756.00,0.4786
755.00,0.4815
754.00,0.4850
753.00,0.4890
752.00,0.4936
751.00,0.4985
750.00,0.5035
749.00,0.5080
748.00,0.5116
747.00,0.5148
746.00,0.5180
745.00,0.5214
744.00,0.5254
743.00,0.5302
742.00,0.5358
741.00,0.5415
740.00,0.5468
739.00,0.5513
738.00,0.5553
737.00,0.5592
736.00,0.5633
735.00,0.5678
734.00,0.5729
733.00,0.5787
732.00,0.5859
731.00,0.5952
730.00,0.6076
729.00,0.6235
728.00,0.6427
727.00,0.6656
726.00,0.6919
725.00,0.7202
724.00,0.7469
723.00,0.7662
722.00,0.7713
721.00,0.7574
720.00,0.7259
719.00,0.6843
718.00,0.6408
717.00,0.6007
716.00,0.5666
715.00,0.5390
714.00,0.5172
713.00,0.4997
712.00,0.4853
711.00,0.4735
710.00,0.4639
709.00,0.4564
708.00,0.4503
707.00,0.4451
706.00,0.4406
705.00,0.4363
704.00,0.4322
703.00,0.4289
702.00,0.4269
701.00,0.4257
700.00,0.4238
699.00,0.4187
698.00,0.4088
697.00,0.3946
696.00,0.3786
695.00,0.3638
694.00,0.3519
693.00,0.3430
692.00,0.3363
691.00,0.3311
690.00,0.3269
689.00,0.3235
688.00,0.3208
687.00,0.3189
686.00,0.3176
685.00,0.3166
684.00,0.3156
683.00,0.3147
682.00,0.3140
681.00,0.3135
680.00,0.3133
679.00,0.3132
678.00,0.3133
677.00,0.3133
676.00,0.3135
675.00,0.3139
674.00,0.3144
673.00,0.3147
672.00,0.3148
671.00,0.3150
670.00,0.3153
669.00,0.3157
668.00,0.3157
667.00,0.3156
666.00,0.3162
665.00,0.3176
664.00,0.3192
663.00,0.3209
662.00,0.3226
661.00,0.3238
660.00,0.3247
659.00,0.3253
658.00,0.3261
657.00,0.3270
656.00,0.3280
655.00,0.3292
654.00,0.3304
653.00,0.3314
652.00,0.3320
651.00,0.3327
650.00,0.3335
649.00,0.3345
648.00,0.3356
647.00,0.3365
646.00,0.3373
645.00,0.3381
644.00,0.3394
643.00,0.3410
642.00,0.3428
641.00,0.3444
640.00,0.3457
639.00,0.3471
638.00,0.3486
637.00,0.3502
636.00,0.3514
635.00,0.3521
634.00,0.3523
633.00,0.3522
632.00,0.3523
631.00,0.3530
630.00,0.3544
629.00,0.3562
628.00,0.3583
627.00,0.3604
626.00,0.3626
625.00,0.3647
624.00,0.3669
623.00,0.3690
622.00,0.3710
621.00,0.3726
620.00,0.3740
619.00,0.3751
618.00,0.3759
617.00,0.3762
616.00,0.3763
615.00,0.3763
614.00,0.3760
613.00,0.3751
612.00,0.3736
611.00,0.3721
610.00,0.3708
609.00,0.3695
608.00,0.3681
607.00,0.3668
606.00,0.3656
605.00,0.3647
604.00,0.3637
603.00,0.3629
602.00,0.3626
601.00,0.3630
600.00,0.3639
599.00,0.3652
598.00,0.3666
597.00,0.3680
596.00,0.3692
595.00,0.3703
594.00,0.3715
593.00,0.3729
592.00,0.3747
591.00,0.3768
590.00,0.3790
589.00,0.3813
588.00,0.3836
587.00,0.3859
586.00,0.3882
585.00,0.3905
584.00,0.3930
583.00,0.3959
582.00,0.3990
581.00,0.4021
580.00,0.4050
579.00,0.4078
578.00,0.4104
577.00,0.4127
576.00,0.4148
575.00,0.4169
574.00,0.4188
573.00,0.4205
572.00,0.4222
571.00,0.4241
570.00,0.4261
569.00,0.4280
568.00,0.4296
567.00,0.4309
566.00,0.4317
565.00,0.4320
564.00,0.4319
563.00,0.4320
562.00,0.4325
561.00,0.4334
560.00,0.4344
559.00,0.4354
558.00,0.4364
557.00,0.4374
556.00,0.4384
555.00,0.4394
554.00,0.4403
553.00,0.4410
552.00,0.4419
551.00,0.4432
550.00,0.4448
