Created as New Dataset,
cm-1,A
4000.00,0.3895
3999.00,0.3893
3998.00,0.3890
3997.00,0.3887
3996.00,0.3884
3995.00,0.3881
3994.00,0.3878
3993.00,0.3874
3992.00,0.3871
3991.00,0.3867
3990.00,0.3864
3989.00,0.3860
3988.00,0.3855
3987.00,0.3851
3986.00,0.3847
3985.00,0.3843
3984.00,0.3840
3983.00,0.3837
3982.00,0.3834
3981.00,0.3830
3980.00,0.3827
3979.00,0.3824
3978.00,0.3821
3977.00,0.3818
3976.00,0.3815
3975.00,0.3812
3974.00,0.3810
3973.00,0.3807
3972.00,0.3805
3971.00,0.3803
3970.00,0.3801
3969.00,0.3799
3968.00,0.3797
3967.00,0.3795
3966.00,0.3793
3965.00,0.3790
3964.00,0.3788
3963.00,0.3787
3962.00,0.3786
3961.00,0.3785
3960.00,0.3784
3959.00,0.3782
3958.00,0.3781
3957.00,0.3779
3956.00,0.3777
3955.00,0.3776
3954.00,0.3775
3953.00,0.3773
3952.00,0.3771
3951.00,0.3770
3950.00,0.3768
3949.00,0.3767
3948.00,0.3766
3947.00,0.3766
3946.00,0.3765
3945.00,0.3762
3944.00,0.3760
3943.00,0.3758
3942.00,0.3755
3941.00,0.3753
3940.00,0.3752
3939.00,0.3751
3938.00,0.3751
3937.00,0.3751
3936.00,0.3751
3935.00,0.3750
3934.00,0.3749
3933.00,0.3748
3932.00,0.3748
3931.00,0.3749
3930.00,0.3749
3929.00,0.3749
3928.00,0.3749
3927.00,0.3749
3926.00,0.3749
3925.00,0.3749
3924.00,0.3749
3923.00,0.3749
3922.00,0.3750
3921.00,0.3750
3920.00,0.3750
3919.00,0.3750
3918.00,0.3749
3917.00,0.3748
3916.00,0.3748
3915.00,0.3746
3914.00,0.3745
3913.00,0.3743
3912.00,0.3742
3911.00,0.3741
3910.00,0.3741
3909.00,0.3741
3908.00,0.3740
3907.00,0.3739
3906.00,0.3739
3905.00,0.3738
3904.00,0.3738
3903.00,0.3738
3902.00,0.3738
3901.00,0.3737
3900.00,0.3736
3899.00,0.3736
3898.00,0.3735
3897.00,0.3734
3896.00,0.3733
3895.00,0.3731
3894.00,0.3730
3893.00,0.3729
3892.00,0.3728
3891.00,0.3728
3890.00,0.3728
3889.00,0.3728
3888.00,0.3726
3887.00,0.3726
3886.00,0.3727
3885.00,0.3729
3884.00,0.3730
3883.00,0.3729
3882.00,0.3728
3881.00,0.3727
3880.00,0.3727
3879.00,0.3728
3878.00,0.3726
3877.00,0.3723
3876.00,0.3721
3875.00,0.3720
3874.00,0.3721
3873.00,0.3721
3872.00,0.3718
3871.00,0.3716
3870.00,0.3715
3869.00,0.3715
3868.00,0.3714
3867.00,0.3711
3866.00,0.3708
3865.00,0.3706
3864.00,0.3706
3863.00,0.3704
3862.00,0.3701
3861.00,0.3698
3860.00,0.3697
3859.00,0.3697
3858.00,0.3698
3857.00,0.3699
3856.00,0.3698
3855.00,0.3697
3854.00,0.3697
3853.00,0.3700
3852.00,0.3702
3851.00,0.3702
3850.00,0.3700
3849.00,0.3698
3848.00,0.3697
3847.00,0.3696
3846.00,0.3694
3845.00,0.3693
3844.00,0.3692
3843.00,0.3692
3842.00,0.3693
3841.00,0.3693
3840.00,0.3694
3839.00,0.3695
3838.00,0.3695
3837.00,0.3694
3836.00,0.3693
3835.00,0.3691
3834.00,0.3689
3833.00,0.3687
3832.00,0.3685
3831.00,0.3683
3830.00,0.3680
3829.00,0.3677
3828.00,0.3675
3827.00,0.3673
3826.00,0.3673
3825.00,0.3673
3824.00,0.3673
3823.00,0.3671
3822.00,0.3671
3821.00,0.3672
3820.00,0.3672
3819.00,0.3671
3818.00,0.3668
3817.00,0.3665
3816.00,0.3665
3815.00,0.3665
3814.00,0.3664
3813.00,0.3660
3812.00,0.3657
3811.00,0.3655
3810.00,0.3654
3809.00,0.3653
3808.00,0.3651
3807.00,0.3650
3806.00,0.3650
3805.00,0.3649
3804.00,0.3647
3803.00,0.3646
3802.00,0.3645
3801.00,0.3646
3800.00,0.3644
3799.00,0.3640
3798.00,0.3636
3797.00,0.3633
3796.00,0.3631
3795.00,0.3629
3794.00,0.3626
3793.00,0.3623
3792.00,0.3620
3791.00,0.3618
3790.00,0.3616
3789.00,0.3614
3788.00,0.3612
3787.00,0.3610
3786.00,0.3609
3785.00,0.3608
3784.00,0.3607
3783.00,0.3607
3782.00,0.3605
3781.00,0.3604
3780.00,0.3602
3779.00,0.3601
3778.00,0.3599
3777.00,0.3597
3776.00,0.3596
3775.00,0.3595
3774.00,0.3595
3773.00,0.3595
3772.00,0.3593
3771.00,0.3590
3770.00,0.3589
3769.00,0.3588
3768.00,0.3587
3767.00,0.3586
3766.00,0.3584
3765.00,0.3584
3764.00,0.3583
3763.00,0.3582
3762.00,0.3580
3761.00,0.3578
3760.00,0.3577
3759.00,0.3575
3758.00,0.3572
3757.00,0.3570
3756.00,0.3569
3755.00,0.3568
3754.00,0.3567
3753.00,0.3565
3752.00,0.3564
3751.00,0.3563
3750.00,0.3563
3749.00,0.3564
3748.00,0.3564
3747.00,0.3563
3746.00,0.3561
3745.00,0.3560
3744.00,0.3560
3743.00,0.3559
3742.00,0.3555
3741.00,0.3551
3740.00,0.3549
3739.00,0.3548
3738.00,0.3547
3737.00,0.3546
3736.00,0.3547
3735.00,0.3548
3734.00,0.3547
3733.00,0.3546
3732.00,0.3543
3731.00,0.3542
3730.00,0.3540
3729.00,0.3537
3728.00,0.3535
3727.00,0.3533
3726.00,0.3531
3725.00,0.3529
3724.00,0.3525
3723.00,0.3522
3722.00,0.3519
3721.00,0.3516
3720.00,0.3513
3719.00,0.3511
3718.00,0.3511
3717.00,0.3511
3716.00,0.3511
3715.00,0.3511
3714.00,0.3511
3713.00,0.3510
3712.00,0.3509
3711.00,0.3509
3710.00,0.3509
3709.00,0.3508
3708.00,0.3507
3707.00,0.3506
3706.00,0.3506
3705.00,0.3506
3704.00,0.3506
3703.00,0.3505
3702.00,0.3504
3701.00,0.3504
3700.00,0.3504
3699.00,0.3503
3698.00,0.3503
3697.00,0.3504
3696.00,0.3505
3695.00,0.3505
3694.00,0.3505
3693.00,0.3505
3692.00,0.3506
3691.00,0.3506
3690.00,0.3506
3689.00,0.3506
3688.00,0.3506
3687.00,0.3506
3686.00,0.3505
3685.00,0.3504
3684.00,0.3503
3683.00,0.3502
3682.00,0.3502
3681.00,0.3501
3680.00,0.3500
3679.00,0.3499
3678.00,0.3499
3677.00,0.3498
3676.00,0.3499
3675.00,0.3502
3674.00,0.3504
3673.00,0.3503
3672.00,0.3502
3671.00,0.3501
3670.00,0.3502
3669.00,0.3502
3668.00,0.3500
3667.00,0.3498
3666.00,0.3496
3665.00,0.3495
3664.00,0.3495
3663.00,0.3495
3662.00,0.3496
3661.00,0.3496
3660.00,0.3497
3659.00,0.3498
3658.00,0.3499
3657.00,0.3502
3656.00,0.3505
3655.00,0.3508
3654.00,0.3510
3653.00,0.3511
3652.00,0.3512
3651.00,0.3514
3650.00,0.3515
3649.00,0.3516
3648.00,0.3516
3647.00,0.3516
3646.00,0.3517
3645.00,0.3519
3644.00,0.3520
3643.00,0.3521
3642.00,0.3522
3641.00,0.3522
3640.00,0.3522
3639.00,0.3523
3638.00,0.3524
3637.00,0.3526
3636.00,0.3528
3635.00,0.3530
3634.00,0.3532
3633.00,0.3535
3632.00,0.3539
3631.00,0.3542
3630.00,0.3545
3629.00,0.3551
3628.00,0.3557
3627.00,0.3561
3626.00,0.3564
3625.00,0.3568
3624.00,0.3571
3623.00,0.3574
3622.00,0.3574
3621.00,0.3573
3620.00,0.3570
3619.00,0.3568
3618.00,0.3566
3617.00,0.3564
3616.00,0.3562
3615.00,0.3560
3614.00,0.3560
3613.00,0.3560
3612.00,0.3560
3611.00,0.3559
3610.00,0.3559
3609.00,0.3559
3608.00,0.3559
3607.00,0.3559
3606.00,0.3558
3605.00,0.3556
3604.00,0.3555
3603.00,0.3553
3602.00,0.3550
3601.00,0.3547
3600.00,0.3543
3599.00,0.3538
3598.00,0.3534
3597.00,0.3529
3596.00,0.3524
3595.00,0.3519
3594.00,0.3515
3593.00,0.3512
3592.00,0.3508
3591.00,0.3505
3590.00,0.3503
3589.00,0.3501
3588.00,0.3501
3587.00,0.3500
3586.00,0.3498
3585.00,0.3497
3584.00,0.3495
3583.00,0.3494
3582.00,0.3493
3581.00,0.3493
3580.00,0.3493
3579.00,0.3492
3578.00,0.3491
3577.00,0.3491
3576.00,0.3492
3575.00,0.3493
3574.00,0.3494
3573.00,0.3496
3572.00,0.3498
3571.00,0.3500
3570.00,0.3501
3569.00,0.3503
3568.00,0.3505
3567.00,0.3508
3566.00,0.3512
3565.00,0.3515
3564.00,0.3518
3563.00,0.3520
3562.00,0.3522
3561.00,0.3524
3560.00,0.3526
3559.00,0.3528
3558.00,0.3531
3557.00,0.3534
3556.00,0.3537
3555.00,0.3541
3554.00,0.3545
3553.00,0.3549
3552.00,0.3553
3551.00,0.3557
3550.00,0.3561
3549.00,0.3564
3548.00,0.3567
3547.00,0.3570
3546.00,0.3573
3545.00,0.3577
3544.00,0.3582
3543.00,0.3586
3542.00,0.3591
3541.00,0.3594
3540.00,0.3598
3539.00,0.3602
3538.00,0.3605
3537.00,0.3609
3536.00,0.3613
3535.00,0.3616
3534.00,0.3619
3533.00,0.3623
3532.00,0.3626
3531.00,0.3630
3530.00,0.3634
3529.00,0.3638
3528.00,0.3641
3527.00,0.3644
3526.00,0.3648
3525.00,0.3652
3524.00,0.3656
3523.00,0.3660
3522.00,0.3663
3521.00,0.3667
3520.00,0.3671
3519.00,0.3675
3518.00,0.3679
3517.00,0.3683
3516.00,0.3687
3515.00,0.3691
3514.00,0.3694
3513.00,0.3698
3512.00,0.3702
3511.00,0.3708
3510.00,0.3713
3509.00,0.3719
3508.00,0.3725
3507.00,0.3729
3506.00,0.3733
3505.00,0.3738
3504.00,0.3744
3503.00,0.3751
3502.00,0.3757
3501.00,0.3762
3500.00,0.3767
3499.00,0.3773
3498.00,0.3779
3497.00,0.3785
3496.00,0.3791
3495.00,0.3798
3494.00,0.3805
3493.00,0.3813
3492.00,0.3820
3491.00,0.3828
3490.00,0.3835
3489.00,0.3843
3488.00,0.3851
3487.00,0.3858
3486.00,0.3866
3485.00,0.3874
3484.00,0.3881
3483.00,0.3887
3482.00,0.3892
3481.00,0.3898
3480.00,0.3903
3479.00,0.3908
3478.00,0.3912
3477.00,0.3916
3476.00,0.3920
3475.00,0.3924
3474.00,0.3929
3473.00,0.3934
3472.00,0.3940
3471.00,0.3945
3470.00,0.3950
3469.00,0.3956
3468.00,0.3961
3467.00,0.3967
3466.00,0.3972
3465.00,0.3978
3464.00,0.3984
3463.00,0.3990
3462.00,0.3997
3461.00,0.4004
3460.00,0.4011
3459.00,0.4017
3458.00,0.4024
3457.00,0.4031
3456.00,0.4038
3455.00,0.4045
3454.00,0.4052
3453.00,0.4059
3452.00,0.4065
3451.00,0.4072
3450.00,0.4079
3449.00,0.4087
3448.00,0.4094
3447.00,0.4101
3446.00,0.4108
3445.00,0.4115
3444.00,0.4122
3443.00,0.4129
3442.00,0.4136
3441.00,0.4144
3440.00,0.4151
3439.00,0.4159
3438.00,0.4166
3437.00,0.4174
3436.00,0.4180
3435.00,0.4186
3434.00,0.4193
3433.00,0.4201
3432.00,0.4209
3431.00,0.4216
3430.00,0.4224
3429.00,0.4232
3428.00,0.4240
3427.00,0.4248
3426.00,0.4256
3425.00,0.4264
3424.00,0.4273
3423.00,0.4281
3422.00,0.4290
3421.00,0.4299
3420.00,0.4308
3419.00,0.4316
3418.00,0.4325
3417.00,0.4334
3416.00,0.4343
3415.00,0.4353
3414.00,0.4362
3413.00,0.4371
3412.00,0.4380
3411.00,0.4388
3410.00,0.4398
3409.00,0.4407
3408.00,0.4416
3407.00,0.4425
3406.00,0.4433
3405.00,0.4442
3404.00,0.4452
3403.00,0.4462
3402.00,0.4473
3401.00,0.4483
3400.00,0.4494
3399.00,0.4503
3398.00,0.4512
3397.00,0.4522
3396.00,0.4531
3395.00,0.4542
3394.00,0.4552
3393.00,0.4563
3392.00,0.4573
3391.00,0.4583
3390.00,0.4594
3389.00,0.4605
3388.00,0.4615
3387.00,0.4626
3386.00,0.4636
3385.00,0.4646
3384.00,0.4655
3383.00,0.4665
3382.00,0.4676
3381.00,0.4686
3380.00,0.4698
3379.00,0.4709
3378.00,0.4721
3377.00,0.4733
3376.00,0.4744
3375.00,0.4756
3374.00,0.4767
3373.00,0.4778
3372.00,0.4790
3371.00,0.4803
3370.00,0.4817
3369.00,0.4830
3368.00,0.4844
3367.00,0.4856
3366.00,0.4869
3365.00,0.4882
3364.00,0.4896
3363.00,0.4909
3362.00,0.4923
3361.00,0.4938
3360.00,0.4953
3359.00,0.4968
3358.00,0.4982
3357.00,0.4996
3356.00,0.5011
3355.00,0.5025
3354.00,0.5040
3353.00,0.5056
3352.00,0.5072
3351.00,0.5089
3350.00,0.5104
3349.00,0.5120
3348.00,0.5134
3347.00,0.5148
3346.00,0.5163
3345.00,0.5177
3344.00,0.5191
3343.00,0.5204
3342.00,0.5216
3341.00,0.5227
3340.00,0.5237
3339.00,0.5247
3338.00,0.5257
3337.00,0.5268
3336.00,0.5279
3335.00,0.5289
3334.00,0.5297
3333.00,0.5304
3332.00,0.5310
3331.00,0.5314
3330.00,0.5318
3329.00,0.5322
3328.00,0.5325
3327.00,0.5328
3326.00,0.5330
3325.00,0.5330
3324.00,0.5330
3323.00,0.5329
3322.00,0.5327
3321.00,0.5324
3320.00,0.5320
3319.00,0.5316
3318.00,0.5311
3317.00,0.5307
3316.00,0.5302
3315.00,0.5297
3314.00,0.5291
3313.00,0.5283
3312.00,0.5276
3311.00,0.5270
3310.00,0.5263
3309.00,0.5257
3308.00,0.5249
3307.00,0.5241
3306.00,0.5232
3305.00,0.5223
3304.00,0.5215
3303.00,0.5206
3302.00,0.5198
3301.00,0.5189
3300.00,0.5182
3299.00,0.5174
3298.00,0.5167
3297.00,0.5160
3296.00,0.5153
3295.00,0.5146
3294.00,0.5140
3293.00,0.5135
3292.00,0.5131
3291.00,0.5128
3290.00,0.5125
3289.00,0.5123
3288.00,0.5121
3287.00,0.5118
3286.00,0.5116
3285.00,0.5114
3284.00,0.5112
3283.00,0.5112
3282.00,0.5113
3281.00,0.5114
3280.00,0.5115
3279.00,0.5116
3278.00,0.5117
3277.00,0.5118
3276.00,0.5119
3275.00,0.5121
3274.00,0.5124
3273.00,0.5127
3272.00,0.5130
3271.00,0.5133
3270.00,0.5136
3269.00,0.5138
3268.00,0.5142
3267.00,0.5146
3266.00,0.5150
3265.00,0.5155
3264.00,0.5160
3263.00,0.5164
3262.00,0.5169
3261.00,0.5174
3260.00,0.5178
3259.00,0.5183
3258.00,0.5187
3257.00,0.5190
3256.00,0.5194
3255.00,0.5198
3254.00,0.5203
3253.00,0.5208
3252.00,0.5213
3251.00,0.5217
3250.00,0.5222
3249.00,0.5226
3248.00,0.5230
3247.00,0.5234
3246.00,0.5239
3245.00,0.5243
3244.00,0.5247
3243.00,0.5250
3242.00,0.5253
3241.00,0.5255
3240.00,0.5257
3239.00,0.5259
3238.00,0.5261
3237.00,0.5263
3236.00,0.5264
3235.00,0.5265
3234.00,0.5266
3233.00,0.5267
3232.00,0.5268
3231.00,0.5267
3230.00,0.5266
3229.00,0.5264
3228.00,0.5263
3227.00,0.5262
3226.00,0.5260
3225.00,0.5259
3224.00,0.5257
3223.00,0.5255
3222.00,0.5253
3221.00,0.5251
3220.00,0.5248
3219.00,0.5245
3218.00,0.5243
3217.00,0.5240
3216.00,0.5238
3215.00,0.5235
3214.00,0.5232
3213.00,0.5230
3212.00,0.5228
3211.00,0.5226
3210.00,0.5224
3209.00,0.5222
3208.00,0.5219
3207.00,0.5216
3206.00,0.5213
3205.00,0.5211
3204.00,0.5208
3203.00,0.5205
3202.00,0.5202
3201.00,0.5199
3200.00,0.5195
3199.00,0.5191
3198.00,0.5187
3197.00,0.5182
3196.00,0.5177
3195.00,0.5173
3194.00,0.5168
3193.00,0.5164
3192.00,0.5158
3191.00,0.5153
3190.00,0.5147
3189.00,0.5142
3188.00,0.5136
3187.00,0.5131
3186.00,0.5126
3185.00,0.5120
3184.00,0.5114
3183.00,0.5107
3182.00,0.5100
3181.00,0.5094
3180.00,0.5088
3179.00,0.5082
3178.00,0.5076
3177.00,0.5070
3176.00,0.5063
3175.00,0.5056
3174.00,0.5049
3173.00,0.5041
3172.00,0.5033
3171.00,0.5026
3170.00,0.5019
3169.00,0.5012
3168.00,0.5005
3167.00,0.4998
3166.00,0.4990
3165.00,0.4982
3164.00,0.4974
3163.00,0.4966
3162.00,0.4956
3161.00,0.4947
3160.00,0.4938
3159.00,0.4930
3158.00,0.4922
3157.00,0.4915
3156.00,0.4907
3155.00,0.4899
3154.00,0.4890
3153.00,0.4882
3152.00,0.4874
3151.00,0.4865
3150.00,0.4857
3149.00,0.4849
3148.00,0.4843
3147.00,0.4836
3146.00,0.4830
3145.00,0.4824
3144.00,0.4819
3143.00,0.4813
3142.00,0.4808
3141.00,0.4803
3140.00,0.4798
3139.00,0.4793
3138.00,0.4788
3137.00,0.4783
3136.00,0.4780
3135.00,0.4777
3134.00,0.4775
3133.00,0.4772
3132.00,0.4769
3131.00,0.4765
3130.00,0.4762
3129.00,0.4760
3128.00,0.4759
3127.00,0.4758
3126.00,0.4758
3125.00,0.4757
3124.00,0.4757
3123.00,0.4757
3122.00,0.4757
3121.00,0.4758
3120.00,0.4759
3119.00,0.4761
3118.00,0.4763
3117.00,0.4765
3116.00,0.4768
3115.00,0.4772
3114.00,0.4775
3113.00,0.4779
3112.00,0.4784
3111.00,0.4790
3110.00,0.4797
3109.00,0.4805
3108.00,0.4812
3107.00,0.4820
3106.00,0.4828
3105.00,0.4836
3104.00,0.4844
3103.00,0.4852
3102.00,0.4861
3101.00,0.4869
3100.00,0.4878
3099.00,0.4887
3098.00,0.4896
3097.00,0.4907
3096.00,0.4919
3095.00,0.4932
3094.00,0.4946
3093.00,0.4962
3092.00,0.4980
3091.00,0.4999
3090.00,0.5020
3089.00,0.5042
3088.00,0.5066
3087.00,0.5091
3086.00,0.5116
3085.00,0.5143
3084.00,0.5170
3083.00,0.5198
3082.00,0.5229
3081.00,0.5261
3080.00,0.5297
3079.00,0.5333
3078.00,0.5372
3077.00,0.5411
3076.00,0.5451
3075.00,0.5493
3074.00,0.5535
3073.00,0.5577
3072.00,0.5619
3071.00,0.5662
3070.00,0.5704
3069.00,0.5747
3068.00,0.5791
3067.00,0.5833
3066.00,0.5874
3065.00,0.5913
3064.00,0.5950
3063.00,0.5985
3062.00,0.6017
3061.00,0.6046
3060.00,0.6074
3059.00,0.6100
3058.00,0.6125
3057.00,0.6150
3056.00,0.6177
3055.00,0.6206
3054.00,0.6237
3053.00,0.6271
3052.00,0.6307
3051.00,0.6344
3050.00,0.6382
3049.00,0.6423
3048.00,0.6466
3047.00,0.6511
3046.00,0.6558
3045.00,0.6605
3044.00,0.6651
3043.00,0.6697
3042.00,0.6742
3041.00,0.6787
3040.00,0.6832
3039.00,0.6879
3038.00,0.6927
3037.00,0.6977
3036.00,0.7030
3035.00,0.7086
3034.00,0.7147
3033.00,0.7213
3032.00,0.7283
3031.00,0.7358
3030.00,0.7438
3029.00,0.7522
3028.00,0.7610
3027.00,0.7701
3026.00,0.7795
3025.00,0.7893
3024.00,0.7993
3023.00,0.8095
3022.00,0.8201
3021.00,0.8310
3020.00,0.8425
3019.00,0.8543
3018.00,0.8662
3017.00,0.8782
3016.00,0.8901
3015.00,0.9021
3014.00,0.9142
3013.00,0.9265
3012.00,0.9392
3011.00,0.9523
3010.00,0.9659
3009.00,0.9801
3008.00,0.9948
3007.00,1.0103
3006.00,1.0267
3005.00,1.0437
3004.00,1.0613
3003.00,1.0791
3002.00,1.0973
3001.00,1.1160
3000.00,1.1356
2999.00,1.1565
2998.00,1.1790
2997.00,1.2035
2996.00,1.2307
2995.00,1.2609
2994.00,1.2945
2993.00,1.3316
2992.00,1.3727
2991.00,1.4183
2990.00,1.4693
2989.00,1.5264
2988.00,1.5900
2987.00,1.6608
2986.00,1.7391
2985.00,1.8256
2984.00,1.9214
2983.00,2.0283
2982.00,2.1472
2981.00,2.2779
2980.00,2.4190
2979.00,2.5696
2978.00,2.7292
2977.00,2.8971
2976.00,3.0784
2975.00,3.2916
2974.00,3.5660
2973.00,3.9151
2972.00,4.2477
2971.00,4.3092
2970.00,4.1669
2969.00,4.0532
2968.00,4.0097
2967.00,4.0154
2966.00,4.0369
2965.00,4.0470
2964.00,4.0427
2963.00,4.0205
2962.00,3.9964
2961.00,4.0041
2960.00,4.0578
2959.00,4.1379
2958.00,4.1843
2957.00,4.1809
2956.00,4.1405
2955.00,4.0862
2954.00,4.0599
2953.00,4.1931
2952.00,4.4799
2951.00,4.3863
2950.00,4.1461
2949.00,3.9918
2948.00,3.9744
2947.00,3.9848
2946.00,4.0062
2945.00,4.0533
2944.00,4.0779
2943.00,4.2193
2942.00,4.3909
2941.00,4.1183
2940.00,3.8753
2939.00,3.7868
2938.00,3.8922
2937.00,4.0976
2936.00,4.2547
2935.00,4.3791
2934.00,4.3520
2933.00,4.2705
2932.00,4.1477
2931.00,4.0356
2930.00,3.9608
2929.00,3.9172
2928.00,3.9279
2927.00,3.9842
2926.00,4.0633
2925.00,4.1428
2924.00,4.2043
2923.00,4.2118
2922.00,4.1448
2921.00,4.1173
2920.00,4.1638
2919.00,4.2243
2918.00,4.2297
2917.00,4.3080
2916.00,4.5164
2915.00,4.5031
2914.00,4.3011
2913.00,4.0532
2912.00,3.8988
2911.00,3.8486
2910.00,3.9661
2909.00,4.1571
2908.00,4.0838
2907.00,3.9459
2906.00,3.9565
2905.00,4.2414
2904.00,4.3946
2903.00,4.0579
2902.00,3.8259
2901.00,3.7517
2900.00,3.8089
2899.00,4.0212
2898.00,4.3285
2897.00,4.1721
2896.00,3.9387
2895.00,3.8857
2894.00,3.9765
2893.00,3.9867
2892.00,3.8956
2891.00,3.7776
2890.00,3.7025
2889.00,3.7337
2888.00,3.8731
2887.00,4.1079
2886.00,4.2961
2885.00,4.2117
2884.00,4.0926
2883.00,4.0447
2882.00,4.1841
2881.00,4.4878
2880.00,4.2290
2879.00,3.9760
2878.00,3.8852
2877.00,3.9979
2876.00,4.1349
2875.00,4.1618
2874.00,4.0996
2873.00,3.9227
2872.00,3.7871
2871.00,3.7397
2870.00,3.7778
2869.00,3.8746
2868.00,3.9653
2867.00,3.9549
2866.00,3.8810
2865.00,3.8148
2864.00,3.8223
2863.00,3.8595
2862.00,3.9277
2861.00,3.9657
2860.00,4.1140
2859.00,4.4015
2858.00,3.9324
2857.00,3.6193
2856.00,3.4833
2855.00,3.5626
2854.00,3.7590
2853.00,3.9778
2852.00,4.2114
2851.00,4.0849
2850.00,3.8756
2849.00,3.6985
2848.00,3.6390
2847.00,3.6669
2846.00,3.7507
2845.00,3.8567
2844.00,3.9319
2843.00,3.9853
2842.00,4.0785
2841.00,4.2041
2840.00,3.9795
2839.00,3.6347
2838.00,3.3582
2837.00,3.1401
2836.00,2.9371
2835.00,2.7435
2834.00,2.5668
2833.00,2.4059
2832.00,2.2609
2831.00,2.1316
2830.00,2.0155
2829.00,1.9104
2828.00,1.8149
2827.00,1.7284
2826.00,1.6503
2825.00,1.5798
2824.00,1.5164
2823.00,1.4591
2822.00,1.4068
2821.00,1.3586
2820.00,1.3139
2819.00,1.2726
2818.00,1.2344
2817.00,1.1991
2816.00,1.1662
2815.00,1.1354
2814.00,1.1066
2813.00,1.0797
2812.00,1.0544
2811.00,1.0305
2810.00,1.0076
2809.00,0.9859
2808.00,0.9652
2807.00,0.9457
2806.00,0.9272
2805.00,0.9097
2804.00,0.8930
2803.00,0.8772
2802.00,0.8623
2801.00,0.8480
2800.00,0.8344
2799.00,0.8213
2798.00,0.8089
2797.00,0.7970
2796.00,0.7855
2795.00,0.7744
2794.00,0.7635
2793.00,0.7530
2792.00,0.7427
2791.00,0.7329
2790.00,0.7233
2789.00,0.7139
2788.00,0.7047
2787.00,0.6956
2786.00,0.6866
2785.00,0.6780
2784.00,0.6697
2783.00,0.6616
2782.00,0.6538
2781.00,0.6463
2780.00,0.6390
2779.00,0.6321
2778.00,0.6255
2777.00,0.6193
2776.00,0.6133
2775.00,0.6077
2774.00,0.6023
2773.00,0.5973
2772.00,0.5927
2771.00,0.5885
2770.00,0.5847
2769.00,0.5811
2768.00,0.5779
2767.00,0.5749
2766.00,0.5723
2765.00,0.5699
2764.00,0.5679
2763.00,0.5662
2762.00,0.5646
2761.00,0.5633
2760.00,0.5621
2759.00,0.5609
2758.00,0.5598
2757.00,0.5586
2756.00,0.5576
2755.00,0.5567
2754.00,0.5559
2753.00,0.5553
2752.00,0.5548
2751.00,0.5545
2750.00,0.5543
2749.00,0.5543
2748.00,0.5546
2747.00,0.5550
2746.00,0.5557
2745.00,0.5567
2744.00,0.5579
2743.00,0.5594
2742.00,0.5613
2741.00,0.5636
2740.00,0.5664
2739.00,0.5695
2738.00,0.5732
2737.00,0.5773
2736.00,0.5818
2735.00,0.5867
2734.00,0.5918
2733.00,0.5969
2732.00,0.6017
2731.00,0.6057
2730.00,0.6088
2729.00,0.6108
2728.00,0.6118
2727.00,0.6118
2726.00,0.6110
2725.00,0.6096
2724.00,0.6078
2723.00,0.6056
2722.00,0.6030
2721.00,0.6001
2720.00,0.5968
2719.00,0.5932
2718.00,0.5894
2717.00,0.5853
2716.00,0.5810
2715.00,0.5766
2714.00,0.5721
2713.00,0.5677
2712.00,0.5636
2711.00,0.5597
2710.00,0.5562
2709.00,0.5531
2708.00,0.5505
2707.00,0.5483
2706.00,0.5465
2705.00,0.5450
2704.00,0.5439
2703.00,0.5430
2702.00,0.5424
2701.00,0.5420
2700.00,0.5419
2699.00,0.5420
2698.00,0.5422
2697.00,0.5426
2696.00,0.5432
2695.00,0.5439
2694.00,0.5447
2693.00,0.5456
2692.00,0.5465
2691.00,0.5475
2690.00,0.5484
2689.00,0.5492
2688.00,0.5499
2687.00,0.5506
2686.00,0.5513
2685.00,0.5519
2684.00,0.5523
2683.00,0.5526
2682.00,0.5529
2681.00,0.5532
2680.00,0.5535
2679.00,0.5538
2678.00,0.5542
2677.00,0.5546
2676.00,0.5550
2675.00,0.5555
2674.00,0.5559
2673.00,0.5562
2672.00,0.5563
2671.00,0.5563
2670.00,0.5561
2669.00,0.5557
2668.00,0.5550
2667.00,0.5541
2666.00,0.5528
2665.00,0.5513
2664.00,0.5496
2663.00,0.5478
2662.00,0.5459
2661.00,0.5440
2660.00,0.5421
2659.00,0.5401
2658.00,0.5381
2657.00,0.5361
2656.00,0.5341
2655.00,0.5322
2654.00,0.5303
2653.00,0.5285
2652.00,0.5268
2651.00,0.5252
2650.00,0.5235
2649.00,0.5218
2648.00,0.5202
2647.00,0.5188
2646.00,0.5175
2645.00,0.5163
2644.00,0.5151
2643.00,0.5140
2642.00,0.5129
2641.00,0.5118
2640.00,0.5108
2639.00,0.5098
2638.00,0.5088
2637.00,0.5079
2636.00,0.5071
2635.00,0.5063
2634.00,0.5055
2633.00,0.5047
2632.00,0.5040
2631.00,0.5032
2630.00,0.5025
2629.00,0.5017
2628.00,0.5009
2627.00,0.5000
2626.00,0.4991
2625.00,0.4983
2624.00,0.4974
2623.00,0.4966
2622.00,0.4957
2621.00,0.4949
2620.00,0.4940
2619.00,0.4932
2618.00,0.4923
2617.00,0.4914
2616.00,0.4905
2615.00,0.4896
2614.00,0.4887
2613.00,0.4877
2612.00,0.4867
2611.00,0.4856
2610.00,0.4845
2609.00,0.4834
2608.00,0.4824
2607.00,0.4814
2606.00,0.4805
2605.00,0.4795
2604.00,0.4785
2603.00,0.4775
2602.00,0.4763
2601.00,0.4752
2600.00,0.4740
2599.00,0.4728
2598.00,0.4716
2597.00,0.4703
2596.00,0.4691
2595.00,0.4677
2594.00,0.4664
2593.00,0.4649
2592.00,0.4634
2591.00,0.4619
2590.00,0.4603
2589.00,0.4587
2588.00,0.4572
2587.00,0.4557
2586.00,0.4541
2585.00,0.4526
2584.00,0.4510
2583.00,0.4493
2582.00,0.4476
2581.00,0.4458
2580.00,0.4439
2579.00,0.4421
2578.00,0.4403
2577.00,0.4387
2576.00,0.4370
2575.00,0.4354
2574.00,0.4337
2573.00,0.4321
2572.00,0.4305
2571.00,0.4289
2570.00,0.4274
2569.00,0.4259
2568.00,0.4244
2567.00,0.4230
2566.00,0.4216
2565.00,0.4202
2564.00,0.4188
2563.00,0.4175
2562.00,0.4163
2561.00,0.4151
2560.00,0.4139
2559.00,0.4128
2558.00,0.4117
2557.00,0.4105
2556.00,0.4094
2555.00,0.4084
2554.00,0.4074
2553.00,0.4064
2552.00,0.4055
2551.00,0.4046
2550.00,0.4036
2549.00,0.4027
2548.00,0.4017
2547.00,0.4007
2546.00,0.3998
2545.00,0.3989
2544.00,0.3979
2543.00,0.3970
2542.00,0.3961
2541.00,0.3953
2540.00,0.3945
2539.00,0.3937
2538.00,0.3930
2537.00,0.3922
2536.00,0.3915
2535.00,0.3908
2534.00,0.3901
2533.00,0.3893
2532.00,0.3886
2531.00,0.3878
2530.00,0.3869
2529.00,0.3861
2528.00,0.3853
2527.00,0.3845
2526.00,0.3836
2525.00,0.3828
2524.00,0.3819
2523.00,0.3811
2522.00,0.3802
2521.00,0.3794
2520.00,0.3786
2519.00,0.3778
2518.00,0.3770
2517.00,0.3762
2516.00,0.3754
2515.00,0.3747
2514.00,0.3739
2513.00,0.3732
2512.00,0.3725
2511.00,0.3717
2510.00,0.3710
2509.00,0.3703
2508.00,0.3697
2507.00,0.3690
2506.00,0.3684
2505.00,0.3678
2504.00,0.3672
2503.00,0.3666
2502.00,0.3661
2501.00,0.3655
2500.00,0.3650
2499.00,0.3645
2498.00,0.3640
2497.00,0.3636
2496.00,0.3632
2495.00,0.3628
2494.00,0.3624
2493.00,0.3620
2492.00,0.3616
2491.00,0.3611
2490.00,0.3607
2489.00,0.3604
2488.00,0.3601
2487.00,0.3597
2486.00,0.3594
2485.00,0.3591
2484.00,0.3588
2483.00,0.3584
2482.00,0.3582
2481.00,0.3579
2480.00,0.3577
2479.00,0.3574
2478.00,0.3572
2477.00,0.3569
2476.00,0.3566
2475.00,0.3563
2474.00,0.3559
2473.00,0.3556
2472.00,0.3553
2471.00,0.3550
2470.00,0.3546
2469.00,0.3543
2468.00,0.3541
2467.00,0.3538
2466.00,0.3535
2465.00,0.3532
2464.00,0.3529
2463.00,0.3525
2462.00,0.3522
2461.00,0.3519
2460.00,0.3516
2459.00,0.3513
2458.00,0.3510
2457.00,0.3508
2456.00,0.3507
2455.00,0.3506
2454.00,0.3505
2453.00,0.3504
2452.00,0.3503
2451.00,0.3502
2450.00,0.3501
2449.00,0.3500
2448.00,0.3500
2447.00,0.3500
2446.00,0.3499
2445.00,0.3499
2444.00,0.3499
2443.00,0.3500
2442.00,0.3501
2441.00,0.3502
2440.00,0.3502
2439.00,0.3503
2438.00,0.3503
2437.00,0.3503
2436.00,0.3503
2435.00,0.3504
2434.00,0.3504
2433.00,0.3504
2432.00,0.3505
2431.00,0.3505
2430.00,0.3505
2429.00,0.3506
2428.00,0.3506
2427.00,0.3507
2426.00,0.3507
2425.00,0.3507
2424.00,0.3507
2423.00,0.3507
2422.00,0.3507
2421.00,0.3507
2420.00,0.3507
2419.00,0.3507
2418.00,0.3507
2417.00,0.3507
2416.00,0.3508
2415.00,0.3509
2414.00,0.3510
2413.00,0.3511
2412.00,0.3512
2411.00,0.3512
2410.00,0.3512
2409.00,0.3512
2408.00,0.3512
2407.00,0.3511
2406.00,0.3511
2405.00,0.3511
2404.00,0.3510
2403.00,0.3509
2402.00,0.3508
2401.00,0.3507
2400.00,0.3506
2399.00,0.3504
2398.00,0.3502
2397.00,0.3501
2396.00,0.3500
2395.00,0.3499
2394.00,0.3497
2393.00,0.3496
2392.00,0.3494
2391.00,0.3493
2390.00,0.3491
2389.00,0.3490
2388.00,0.3488
2387.00,0.3487
2386.00,0.3485
2385.00,0.3485
2384.00,0.3485
2383.00,0.3485
2382.00,0.3485
2381.00,0.3486
2380.00,0.3486
2379.00,0.3486
2378.00,0.3485
2377.00,0.3485
2376.00,0.3484
2375.00,0.3483
2374.00,0.3482
2373.00,0.3482
2372.00,0.3481
2371.00,0.3480
2370.00,0.3480
2369.00,0.3479
2368.00,0.3478
2367.00,0.3477
2366.00,0.3475
2365.00,0.3473
2364.00,0.3472
2363.00,0.3472
2362.00,0.3471
2361.00,0.3472
2360.00,0.3473
2359.00,0.3473
2358.00,0.3474
2357.00,0.3475
2356.00,0.3475
2355.00,0.3474
2354.00,0.3472
2353.00,0.3469
2352.00,0.3466
2351.00,0.3464
2350.00,0.3463
2349.00,0.3464
2348.00,0.3466
2347.00,0.3466
2346.00,0.3464
2345.00,0.3461
2344.00,0.3458
2343.00,0.3456
2342.00,0.3455
2341.00,0.3453
2340.00,0.3452
2339.00,0.3450
2338.00,0.3448
2337.00,0.3448
2336.00,0.3447
2335.00,0.3447
2334.00,0.3446
2333.00,0.3444
2332.00,0.3442
2331.00,0.3439
2330.00,0.3437
2329.00,0.3435
2328.00,0.3434
2327.00,0.3433
2326.00,0.3432
2325.00,0.3431
2324.00,0.3430
2323.00,0.3428
2322.00,0.3426
2321.00,0.3424
2320.00,0.3422
2319.00,0.3420
2318.00,0.3418
2317.00,0.3417
2316.00,0.3415
2315.00,0.3412
2314.00,0.3408
2313.00,0.3405
2312.00,0.3402
2311.00,0.3399
2310.00,0.3395
2309.00,0.3391
2308.00,0.3388
2307.00,0.3384
2306.00,0.3381
2305.00,0.3378
2304.00,0.3375
2303.00,0.3372
2302.00,0.3370
2301.00,0.3367
2300.00,0.3364
2299.00,0.3361
2298.00,0.3358
2297.00,0.3355
2296.00,0.3352
2295.00,0.3349
2294.00,0.3345
2293.00,0.3342
2292.00,0.3340
2291.00,0.3337
2290.00,0.3334
2289.00,0.3332
2288.00,0.3330
2287.00,0.3328
2286.00,0.3326
2285.00,0.3324
2284.00,0.3322
2283.00,0.3319
2282.00,0.3318
2281.00,0.3316
2280.00,0.3314
2279.00,0.3310
2278.00,0.3307
2277.00,0.3303
2276.00,0.3301
2275.00,0.3298
2274.00,0.3296
2273.00,0.3294
2272.00,0.3292
2271.00,0.3289
2270.00,0.3287
2269.00,0.3284
2268.00,0.3282
2267.00,0.3279
2266.00,0.3277
2265.00,0.3274
2264.00,0.3272
2263.00,0.3269
2262.00,0.3266
2261.00,0.3263
2260.00,0.3261
2259.00,0.3258
2258.00,0.3255
2257.00,0.3252
2256.00,0.3249
2255.00,0.3246
2254.00,0.3243
2253.00,0.3241
2252.00,0.3239
2251.00,0.3238
2250.00,0.3236
2249.00,0.3235
2248.00,0.3234
2247.00,0.3233
2246.00,0.3231
2245.00,0.3230
2244.00,0.3228
2243.00,0.3227
2242.00,0.3226
2241.00,0.3225
2240.00,0.3224
2239.00,0.3223
2238.00,0.3222
2237.00,0.3222
2236.00,0.3221
2235.00,0.3220
2234.00,0.3218
2233.00,0.3216
2232.00,0.3214
2231.00,0.3212
2230.00,0.3210
2229.00,0.3208
2228.00,0.3207
2227.00,0.3205
2226.00,0.3203
2225.00,0.3202
2224.00,0.3200
2223.00,0.3198
2222.00,0.3197
2221.00,0.3195
2220.00,0.3194
2219.00,0.3192
2218.00,0.3191
2217.00,0.3191
2216.00,0.3190
2215.00,0.3189
2214.00,0.3188
2213.00,0.3187
2212.00,0.3186
2211.00,0.3186
2210.00,0.3186
2209.00,0.3187
2208.00,0.3188
2207.00,0.3189
2206.00,0.3189
2205.00,0.3190
2204.00,0.3190
2203.00,0.3191
2202.00,0.3191
2201.00,0.3191
2200.00,0.3192
2199.00,0.3192
2198.00,0.3192
2197.00,0.3192
2196.00,0.3192
2195.00,0.3192
2194.00,0.3191
2193.00,0.3191
2192.00,0.3190
2191.00,0.3190
2190.00,0.3189
2189.00,0.3188
2188.00,0.3187
2187.00,0.3186
2186.00,0.3185
2185.00,0.3184
2184.00,0.3183
2183.00,0.3182
2182.00,0.3181
2181.00,0.3180
2180.00,0.3178
2179.00,0.3177
2178.00,0.3175
2177.00,0.3174
2176.00,0.3173
2175.00,0.3172
2174.00,0.3171
2173.00,0.3170
2172.00,0.3170
2171.00,0.3170
2170.00,0.3170
2169.00,0.3169
2168.00,0.3169
2167.00,0.3168
2166.00,0.3167
2165.00,0.3166
2164.00,0.3165
2163.00,0.3164
2162.00,0.3163
2161.00,0.3162
2160.00,0.3161
2159.00,0.3161
2158.00,0.3160
2157.00,0.3158
2156.00,0.3157
2155.00,0.3155
2154.00,0.3152
2153.00,0.3150
2152.00,0.3147
2151.00,0.3144
2150.00,0.3141
2149.00,0.3138
2148.00,0.3134
2147.00,0.3130
2146.00,0.3126
2145.00,0.3122
2144.00,0.3118
2143.00,0.3113
2142.00,0.3109
2141.00,0.3104
2140.00,0.3100
2139.00,0.3096
2138.00,0.3093
2137.00,0.3090
2136.00,0.3088
2135.00,0.3086
2134.00,0.3085
2133.00,0.3084
2132.00,0.3083
2131.00,0.3082
2130.00,0.3080
2129.00,0.3080
2128.00,0.3079
2127.00,0.3077
2126.00,0.3076
2125.00,0.3075
2124.00,0.3075
2123.00,0.3074
2122.00,0.3073
2121.00,0.3072
2120.00,0.3072
2119.00,0.3070
2118.00,0.3069
2117.00,0.3067
2116.00,0.3066
2115.00,0.3064
2114.00,0.3062
2113.00,0.3061
2112.00,0.3060
2111.00,0.3059
2110.00,0.3057
2109.00,0.3055
2108.00,0.3054
2107.00,0.3052
2106.00,0.3050
2105.00,0.3049
2104.00,0.3048
2103.00,0.3047
2102.00,0.3046
2101.00,0.3045
2100.00,0.3044
2099.00,0.3043
2098.00,0.3043
2097.00,0.3043
2096.00,0.3043
2095.00,0.3043
2094.00,0.3043
2093.00,0.3043
2092.00,0.3043
2091.00,0.3043
2090.00,0.3043
2089.00,0.3044
2088.00,0.3045
2087.00,0.3045
2086.00,0.3045
2085.00,0.3046
2084.00,0.3047
2083.00,0.3047
2082.00,0.3047
2081.00,0.3047
2080.00,0.3047
2079.00,0.3046
2078.00,0.3046
2077.00,0.3047
2076.00,0.3047
2075.00,0.3046
2074.00,0.3046
2073.00,0.3046
2072.00,0.3046
2071.00,0.3046
2070.00,0.3046
2069.00,0.3046
2068.00,0.3046
2067.00,0.3046
2066.00,0.3046
2065.00,0.3047
2064.00,0.3048
2063.00,0.3049
2062.00,0.3050
2061.00,0.3050
2060.00,0.3051
2059.00,0.3052
2058.00,0.3053
2057.00,0.3055
2056.00,0.3056
2055.00,0.3058
2054.00,0.3060
2053.00,0.3061
2052.00,0.3063
2051.00,0.3065
2050.00,0.3067
2049.00,0.3069
2048.00,0.3071
2047.00,0.3073
2046.00,0.3075
2045.00,0.3077
2044.00,0.3079
2043.00,0.3080
2042.00,0.3081
2041.00,0.3082
2040.00,0.3084
2039.00,0.3085
2038.00,0.3086
2037.00,0.3087
2036.00,0.3088
2035.00,0.3087
2034.00,0.3087
2033.00,0.3086
2032.00,0.3086
2031.00,0.3085
2030.00,0.3085
2029.00,0.3084
2028.00,0.3084
2027.00,0.3083
2026.00,0.3081
2025.00,0.3080
2024.00,0.3078
2023.00,0.3075
2022.00,0.3072
2021.00,0.3068
2020.00,0.3064
2019.00,0.3059
2018.00,0.3054
2017.00,0.3049
2016.00,0.3044
2015.00,0.3040
2014.00,0.3035
2013.00,0.3030
2012.00,0.3025
2011.00,0.3021
2010.00,0.3017
2009.00,0.3013
2008.00,0.3011
2007.00,0.3008
2006.00,0.3006
2005.00,0.3004
2004.00,0.3002
2003.00,0.3000
2002.00,0.2999
2001.00,0.2997
2000.00,0.2996
1999.00,0.2994
1998.00,0.2992
1997.00,0.2991
1996.00,0.2990
1995.00,0.2988
1994.00,0.2986
1993.00,0.2983
1992.00,0.2982
1991.00,0.2981
1990.00,0.2981
1989.00,0.2981
1988.00,0.2980
1987.00,0.2980
1986.00,0.2979
1985.00,0.2977
1984.00,0.2976
1983.00,0.2975
1982.00,0.2974
1981.00,0.2974
1980.00,0.2974
1979.00,0.2974
1978.00,0.2974
1977.00,0.2973
1976.00,0.2974
1975.00,0.2973
1974.00,0.2973
1973.00,0.2974
1972.00,0.2975
1971.00,0.2975
1970.00,0.2975
1969.00,0.2975
1968.00,0.2976
1967.00,0.2976
1966.00,0.2977
1965.00,0.2979
1964.00,0.2980
1963.00,0.2981
1962.00,0.2981
1961.00,0.2982
1960.00,0.2984
1959.00,0.2986
1958.00,0.2987
1957.00,0.2989
1956.00,0.2990
1955.00,0.2992
1954.00,0.2992
1953.00,0.2992
1952.00,0.2992
1951.00,0.2991
1950.00,0.2990
1949.00,0.2990
1948.00,0.2991
1947.00,0.2992
1946.00,0.2993
1945.00,0.2994
1944.00,0.2996
1943.00,0.2999
1942.00,0.3004
1941.00,0.3010
1940.00,0.3017
1939.00,0.3022
1938.00,0.3024
1937.00,0.3025
1936.00,0.3024
1935.00,0.3023
1934.00,0.3022
1933.00,0.3021
1932.00,0.3021
1931.00,0.3022
1930.00,0.3023
1929.00,0.3024
1928.00,0.3026
1927.00,0.3027
1926.00,0.3028
1925.00,0.3029
1924.00,0.3030
1923.00,0.3032
1922.00,0.3037
1921.00,0.3043
1920.00,0.3048
1919.00,0.3052
1918.00,0.3054
1917.00,0.3058
1916.00,0.3061
1915.00,0.3063
1914.00,0.3063
1913.00,0.3063
1912.00,0.3063
1911.00,0.3062
1910.00,0.3060
1909.00,0.3060
1908.00,0.3061
1907.00,0.3061
1906.00,0.3061
1905.00,0.3061
1904.00,0.3061
1903.00,0.3061
1902.00,0.3061
1901.00,0.3062
1900.00,0.3064
1899.00,0.3064
1898.00,0.3065
1897.00,0.3066
1896.00,0.3067
1895.00,0.3069
1894.00,0.3071
1893.00,0.3074
1892.00,0.3076
1891.00,0.3077
1890.00,0.3078
1889.00,0.3081
1888.00,0.3084
1887.00,0.3087
1886.00,0.3087
1885.00,0.3088
1884.00,0.3088
1883.00,0.3088
1882.00,0.3088
1881.00,0.3088
1880.00,0.3087
1879.00,0.3086
1878.00,0.3085
1877.00,0.3084
1876.00,0.3083
1875.00,0.3081
1874.00,0.3079
1873.00,0.3076
1872.00,0.3073
1871.00,0.3068
1870.00,0.3063
1869.00,0.3060
1868.00,0.3058
1867.00,0.3058
1866.00,0.3058
1865.00,0.3057
1864.00,0.3055
1863.00,0.3052
1862.00,0.3048
1861.00,0.3046
1860.00,0.3043
1859.00,0.3041
1858.00,0.3039
1857.00,0.3037
1856.00,0.3035
1855.00,0.3034
1854.00,0.3033
1853.00,0.3032
1852.00,0.3032
1851.00,0.3031
1850.00,0.3029
1849.00,0.3027
1848.00,0.3026
1847.00,0.3025
1846.00,0.3024
1845.00,0.3023
1844.00,0.3024
1843.00,0.3025
1842.00,0.3026
1841.00,0.3026
1840.00,0.3025
1839.00,0.3023
1838.00,0.3020
1837.00,0.3019
1836.00,0.3019
1835.00,0.3018
1834.00,0.3016
1833.00,0.3015
1832.00,0.3013
1831.00,0.3011
1830.00,0.3009
1829.00,0.3008
1828.00,0.3008
1827.00,0.3006
1826.00,0.3004
1825.00,0.3002
1824.00,0.3003
1823.00,0.3004
1822.00,0.3005
1821.00,0.3005
1820.00,0.3005
1819.00,0.3005
1818.00,0.3004
1817.00,0.3005
1816.00,0.3006
1815.00,0.3008
1814.00,0.3008
1813.00,0.3010
1812.00,0.3011
1811.00,0.3014
1810.00,0.3017
1809.00,0.3021
1808.00,0.3025
1807.00,0.3029
1806.00,0.3032
1805.00,0.3035
1804.00,0.3037
1803.00,0.3039
1802.00,0.3042
1801.00,0.3048
1800.00,0.3056
1799.00,0.3064
1798.00,0.3069
1797.00,0.3073
1796.00,0.3077
1795.00,0.3080
1794.00,0.3082
1793.00,0.3084
1792.00,0.3086
1791.00,0.3090
1790.00,0.3095
1789.00,0.3100
1788.00,0.3105
1787.00,0.3107
1786.00,0.3107
1785.00,0.3109
1784.00,0.3112
1783.00,0.3115
1782.00,0.3117
1781.00,0.3121
1780.00,0.3126
1779.00,0.3132
1778.00,0.3138
1777.00,0.3143
1776.00,0.3148
1775.00,0.3152
1774.00,0.3157
1773.00,0.3164
1772.00,0.3173
1771.00,0.3182
1770.00,0.3189
1769.00,0.3196
1768.00,0.3204
1767.00,0.3215
1766.00,0.3225
1765.00,0.3236
1764.00,0.3246
1763.00,0.3257
1762.00,0.3270
1761.00,0.3287
1760.00,0.3306
1759.00,0.3324
1758.00,0.3344
1757.00,0.3369
1756.00,0.3397
1755.00,0.3425
1754.00,0.3450
1753.00,0.3476
1752.00,0.3503
1751.00,0.3533
1750.00,0.3565
1749.00,0.3596
1748.00,0.3625
1747.00,0.3649
1746.00,0.3667
1745.00,0.3682
1744.00,0.3694
1743.00,0.3705
1742.00,0.3712
1741.00,0.3717
1740.00,0.3718
1739.00,0.3715
1738.00,0.3709
1737.00,0.3702
1736.00,0.3693
1735.00,0.3680
1734.00,0.3666
1733.00,0.3659
1732.00,0.3656
1731.00,0.3654
1730.00,0.3654
1729.00,0.3657
1728.00,0.3664
1727.00,0.3672
1726.00,0.3681
1725.00,0.3695
1724.00,0.3712
1723.00,0.3734
1722.00,0.3760
1721.00,0.3790
1720.00,0.3825
1719.00,0.3870
1718.00,0.3934
1717.00,0.4018
1716.00,0.4115
1715.00,0.4219
1714.00,0.4330
1713.00,0.4444
1712.00,0.4554
1711.00,0.4659
1710.00,0.4754
1709.00,0.4831
1708.00,0.4878
1707.00,0.4895
1706.00,0.4879
1705.00,0.4834
1704.00,0.4772
1703.00,0.4705
1702.00,0.4627
1701.00,0.4517
1700.00,0.4386
1699.00,0.4274
1698.00,0.4193
1697.00,0.4122
1696.00,0.4047
1695.00,0.3977
1694.00,0.3924
1693.00,0.3886
1692.00,0.3852
1691.00,0.3818
1690.00,0.3786
1689.00,0.3759
1688.00,0.3738
1687.00,0.3721
1686.00,0.3705
1685.00,0.3686
1684.00,0.3668
1683.00,0.3655
1682.00,0.3646
1681.00,0.3638
1680.00,0.3631
1679.00,0.3624
1678.00,0.3619
1677.00,0.3616
1676.00,0.3611
1675.00,0.3606
1674.00,0.3602
1673.00,0.3601
1672.00,0.3599
1671.00,0.3596
1670.00,0.3593
1669.00,0.3594
1668.00,0.3595
1667.00,0.3596
1666.00,0.3597
1665.00,0.3598
1664.00,0.3600
1663.00,0.3602
1662.00,0.3604
1661.00,0.3608
1660.00,0.3611
1659.00,0.3614
1658.00,0.3617
1657.00,0.3621
1656.00,0.3625
1655.00,0.3629
1654.00,0.3635
1653.00,0.3647
1652.00,0.3661
1651.00,0.3668
1650.00,0.3673
1649.00,0.3677
1648.00,0.3683
1647.00,0.3692
1646.00,0.3704
1645.00,0.3719
1644.00,0.3732
1643.00,0.3743
1642.00,0.3755
1641.00,0.3770
1640.00,0.3786
1639.00,0.3801
1638.00,0.3816
1637.00,0.3835
1636.00,0.3861
1635.00,0.3888
1634.00,0.3913
1633.00,0.3934
1632.00,0.3955
1631.00,0.3975
1630.00,0.3997
1629.00,0.4023
1628.00,0.4052
1627.00,0.4081
1626.00,0.4109
1625.00,0.4142
1624.00,0.4183
1623.00,0.4230
1622.00,0.4280
1621.00,0.4333
1620.00,0.4389
1619.00,0.4450
1618.00,0.4526
1617.00,0.4626
1616.00,0.4740
1615.00,0.4847
1614.00,0.4940
1613.00,0.5033
1612.00,0.5129
1611.00,0.5227
1610.00,0.5324
1609.00,0.5421
1608.00,0.5517
1607.00,0.5602
1606.00,0.5674
1605.00,0.5739
1604.00,0.5802
1603.00,0.5860
1602.00,0.5917
1601.00,0.5981
1600.00,0.6053
1599.00,0.6131
1598.00,0.6218
1597.00,0.6327
1596.00,0.6470
1595.00,0.6650
1594.00,0.6874
1593.00,0.7159
1592.00,0.7525
1591.00,0.7983
1590.00,0.8554
1589.00,0.9282
1588.00,1.0219
1587.00,1.1401
1586.00,1.2855
1585.00,1.4637
1584.00,1.6818
1583.00,1.9281
1582.00,2.1383
1581.00,2.2244
1580.00,2.1704
1579.00,2.0035
1578.00,1.7722
1577.00,1.5381
1576.00,1.3409
1575.00,1.1955
1574.00,1.0961
1573.00,1.0272
1572.00,0.9758
1571.00,0.9348
1570.00,0.9042
1569.00,0.8885
1568.00,0.8896
1567.00,0.9062
1566.00,0.9388
1565.00,0.9901
1564.00,1.0582
1563.00,1.1324
1562.00,1.1997
1561.00,1.2504
1560.00,1.2589
1559.00,1.1888
1558.00,1.0804
1557.00,0.9898
1556.00,0.9166
1555.00,0.8478
1554.00,0.7843
1553.00,0.7328
1552.00,0.6940
1551.00,0.6630
1550.00,0.6366
1549.00,0.6153
1548.00,0.5993
1547.00,0.5868
1546.00,0.5758
1545.00,0.5662
1544.00,0.5586
1543.00,0.5525
1542.00,0.5472
1541.00,0.5420
1540.00,0.5370
1539.00,0.5322
1538.00,0.5280
1537.00,0.5247
1536.00,0.5220
1535.00,0.5189
1534.00,0.5156
1533.00,0.5132
1532.00,0.5125
1531.00,0.5127
1530.00,0.5132
1529.00,0.5140
1528.00,0.5148
1527.00,0.5150
1526.00,0.5146
1525.00,0.5143
1524.00,0.5142
1523.00,0.5141
1522.00,0.5145
1521.00,0.5163
1520.00,0.5193
1519.00,0.5224
1518.00,0.5256
1517.00,0.5293
1516.00,0.5329
1515.00,0.5355
1514.00,0.5367
1513.00,0.5372
1512.00,0.5376
1511.00,0.5381
1510.00,0.5392
1509.00,0.5419
1508.00,0.5475
1507.00,0.5571
1506.00,0.5698
1505.00,0.5820
1504.00,0.5919
1503.00,0.6000
1502.00,0.6072
1501.00,0.6146
1500.00,0.6217
1499.00,0.6283
1498.00,0.6353
1497.00,0.6443
1496.00,0.6550
1495.00,0.6656
1494.00,0.6757
1493.00,0.6862
1492.00,0.6980
1491.00,0.7113
1490.00,0.7269
1489.00,0.7452
1488.00,0.7651
1487.00,0.7861
1486.00,0.8092
1485.00,0.8360
1484.00,0.8666
1483.00,0.9018
1482.00,0.9438
1481.00,0.9939
1480.00,1.0502
1479.00,1.1112
1478.00,1.1806
1477.00,1.2639
1476.00,1.3620
1475.00,1.4731
1474.00,1.6051
1473.00,1.7789
1472.00,2.0080
1471.00,2.2801
1470.00,2.5793
1469.00,2.9099
1468.00,3.2483
1467.00,3.4582
1466.00,3.6652
1465.00,4.0523
1464.00,4.2008
1463.00,4.3166
1462.00,3.9237
1461.00,3.8341
1460.00,3.7791
1459.00,3.5926
1458.00,3.5079
1457.00,3.6791
1456.00,4.0879
1455.00,3.7504
1454.00,3.5692
1453.00,3.6731
1452.00,3.7297
1451.00,3.5728
1450.00,3.4407
1449.00,3.3700
1448.00,3.2180
1447.00,3.0247
1446.00,2.8938
1445.00,2.7981
1444.00,2.6716
1443.00,2.5178
1442.00,2.3755
1441.00,2.2514
1440.00,2.1342
1439.00,2.0184
1438.00,1.9021
1437.00,1.7819
1436.00,1.6642
1435.00,1.5604
1434.00,1.4706
1433.00,1.3866
1432.00,1.3032
1431.00,1.2226
1430.00,1.1494
1429.00,1.0866
1428.00,1.0353
1427.00,0.9949
1426.00,0.9624
1425.00,0.9348
1424.00,0.9116
1423.00,0.8939
1422.00,0.8808
1421.00,0.8698
1420.00,0.8592
1419.00,0.8494
1418.00,0.8412
1417.00,0.8346
1416.00,0.8292
1415.00,0.8251
1414.00,0.8221
1413.00,0.8200
1412.00,0.8187
1411.00,0.8184
1410.00,0.8180
1409.00,0.8160
1408.00,0.8116
1407.00,0.8047
1406.00,0.7949
1405.00,0.7826
1404.00,0.7693
1403.00,0.7568
1402.00,0.7456
1401.00,0.7351
1400.00,0.7255
1399.00,0.7179
1398.00,0.7130
1397.00,0.7106
1396.00,0.7111
1395.00,0.7153
1394.00,0.7238
1393.00,0.7369
1392.00,0.7558
1391.00,0.7827
1390.00,0.8198
1389.00,0.8703
1388.00,0.9385
1387.00,1.0255
1386.00,1.1255
1385.00,1.2304
1384.00,1.3380
1383.00,1.4520
1382.00,1.5765
1381.00,1.7147
1380.00,1.8695
1379.00,2.0312
1378.00,2.1615
1377.00,2.2097
1376.00,2.1587
1375.00,2.0303
1374.00,1.8675
1373.00,1.7127
1372.00,1.5856
1371.00,1.4869
1370.00,1.4136
1369.00,1.3639
1368.00,1.3336
1367.00,1.3120
1366.00,1.2840
1365.00,1.2387
1364.00,1.1757
1363.00,1.1048
1362.00,1.0389
1361.00,0.9855
1360.00,0.9453
1359.00,0.9158
1358.00,0.8942
1357.00,0.8787
1356.00,0.8682
1355.00,0.8616
1354.00,0.8577
1353.00,0.8554
1352.00,0.8536
1351.00,0.8516
1350.00,0.8489
1349.00,0.8457
1348.00,0.8423
1347.00,0.8390
1346.00,0.8360
1345.00,0.8335
1344.00,0.8313
1343.00,0.8291
1342.00,0.8262
1341.00,0.8216
1340.00,0.8148
1339.00,0.8057
1338.00,0.7948
1337.00,0.7822
1336.00,0.7685
1335.00,0.7544
1334.00,0.7407
1333.00,0.7279
1332.00,0.7165
1331.00,0.7068
1330.00,0.6991
1329.00,0.6931
1328.00,0.6887
1327.00,0.6859
1326.00,0.6844
1325.00,0.6838
1324.00,0.6838
1323.00,0.6843
1322.00,0.6850
1321.00,0.6855
1320.00,0.6861
1319.00,0.6869
1318.00,0.6883
1317.00,0.6901
1316.00,0.6925
1315.00,0.6953
1314.00,0.6987
1313.00,0.7025
1312.00,0.7066
1311.00,0.7106
1310.00,0.7142
1309.00,0.7172
1308.00,0.7195
1307.00,0.7212
1306.00,0.7222
1305.00,0.7222
1304.00,0.7207
1303.00,0.7177
1302.00,0.7135
1301.00,0.7086
1300.00,0.7034
1299.00,0.6980
1298.00,0.6925
1297.00,0.6869
1296.00,0.6814
1295.00,0.6763
1294.00,0.6718
1293.00,0.6676
1292.00,0.6638
1291.00,0.6600
1290.00,0.6565
1289.00,0.6531
1288.00,0.6497
1287.00,0.6464
1286.00,0.6429
1285.00,0.6390
1284.00,0.6349
1283.00,0.6310
1282.00,0.6276
1281.00,0.6247
1280.00,0.6223
1279.00,0.6202
1278.00,0.6182
1277.00,0.6160
1276.00,0.6137
1275.00,0.6114
1274.00,0.6094
1273.00,0.6076
1272.00,0.6063
1271.00,0.6055
1270.00,0.6051
1269.00,0.6045
1268.00,0.6031
1267.00,0.6007
1266.00,0.5970
1265.00,0.5928
1264.00,0.5886
1263.00,0.5851
1262.00,0.5825
1261.00,0.5805
1260.00,0.5789
1259.00,0.5775
1258.00,0.5761
1257.00,0.5744
1256.00,0.5725
1255.00,0.5706
1254.00,0.5689
1253.00,0.5675
1252.00,0.5661
1251.00,0.5649
1250.00,0.5637
1249.00,0.5622
1248.00,0.5605
1247.00,0.5586
1246.00,0.5563
1245.00,0.5535
1244.00,0.5503
1243.00,0.5469
1242.00,0.5436
1241.00,0.5404
1240.00,0.5373
1239.00,0.5346
1238.00,0.5322
1237.00,0.5302
1236.00,0.5285
1235.00,0.5274
1234.00,0.5270
1233.00,0.5270
1232.00,0.5274
1231.00,0.5281
1230.00,0.5289
1229.00,0.5291
1228.00,0.5282
1227.00,0.5264
1226.00,0.5238
1225.00,0.5206
1224.00,0.5175
1223.00,0.5146
1222.00,0.5124
1221.00,0.5107
1220.00,0.5096
1219.00,0.5089
1218.00,0.5088
1217.00,0.5089
1216.00,0.5095
1215.00,0.5104
1214.00,0.5115
1213.00,0.5122
1212.00,0.5122
1211.00,0.5115
1210.00,0.5105
1209.00,0.5091
1208.00,0.5075
1207.00,0.5058
1206.00,0.5041
1205.00,0.5022
1204.00,0.5005
1203.00,0.4990
1202.00,0.4979
1201.00,0.4970
1200.00,0.4964
1199.00,0.4959
1198.00,0.4954
1197.00,0.4948
1196.00,0.4941
1195.00,0.4933
1194.00,0.4928
1193.00,0.4924
1192.00,0.4920
1191.00,0.4917
1190.00,0.4912
1189.00,0.4906
1188.00,0.4900
1187.00,0.4895
1186.00,0.4892
1185.00,0.4889
1184.00,0.4886
1183.00,0.4884
1182.00,0.4884
1181.00,0.4885
1180.00,0.4890
1179.00,0.4898
1178.00,0.4909
1177.00,0.4922
1176.00,0.4940
1175.00,0.4968
1174.00,0.5006
1173.00,0.5050
1172.00,0.5097
1171.00,0.5139
1170.00,0.5171
1169.00,0.5187
1168.00,0.5186
1167.00,0.5175
1166.00,0.5160
1165.00,0.5145
1164.00,0.5135
1163.00,0.5132
1162.00,0.5137
1161.00,0.5147
1160.00,0.5162
1159.00,0.5179
1158.00,0.5195
1157.00,0.5209
1156.00,0.5216
1155.00,0.5217
1154.00,0.5211
1153.00,0.5198
1152.00,0.5180
1151.00,0.5158
1150.00,0.5134
1149.00,0.5109
1148.00,0.5085
1147.00,0.5063
1146.00,0.5045
1145.00,0.5031
1144.00,0.5022
1143.00,0.5022
1142.00,0.5032
1141.00,0.5052
1140.00,0.5083
1139.00,0.5126
1138.00,0.5180
1137.00,0.5245
1136.00,0.5319
1135.00,0.5398
1134.00,0.5466
1133.00,0.5506
1132.00,0.5504
1131.00,0.5461
1130.00,0.5389
1129.00,0.5307
1128.00,0.5233
1127.00,0.5175
1126.00,0.5135
1125.00,0.5110
1124.00,0.5093
1123.00,0.5081
1122.00,0.5069
1121.00,0.5057
1120.00,0.5047
1119.00,0.5045
1118.00,0.5058
1117.00,0.5084
1116.00,0.5121
1115.00,0.5159
1114.00,0.5182
1113.00,0.5176
1112.00,0.5138
1111.00,0.5079
1110.00,0.5013
1109.00,0.4953
1108.00,0.4905
1107.00,0.4871
1106.00,0.4850
1105.00,0.4836
1104.00,0.4828
1103.00,0.4824
1102.00,0.4820
1101.00,0.4814
1100.00,0.4804
1099.00,0.4792
1098.00,0.4780
1097.00,0.4770
1096.00,0.4763
1095.00,0.4760
1094.00,0.4759
1093.00,0.4761
1092.00,0.4764
1091.00,0.4770
1090.00,0.4781
1089.00,0.4797
1088.00,0.4820
1087.00,0.4850
1086.00,0.4889
1085.00,0.4935
1084.00,0.4990
1083.00,0.5054
1082.00,0.5124
1081.00,0.5199
1080.00,0.5272
1079.00,0.5340
1078.00,0.5395
1077.00,0.5425
1076.00,0.5424
1075.00,0.5393
1074.00,0.5340
1073.00,0.5279
1072.00,0.5219
1071.00,0.5169
1070.00,0.5131
1069.00,0.5101
1068.00,0.5078
1067.00,0.5060
1066.00,0.5046
1065.00,0.5035
1064.00,0.5029
1063.00,0.5027
1062.00,0.5029
1061.00,0.5034
1060.00,0.5040
1059.00,0.5046
1058.00,0.5049
1057.00,0.5048
1056.00,0.5041
1055.00,0.5033
1054.00,0.5025
1053.00,0.5019
1052.00,0.5019
1051.00,0.5027
1050.00,0.5042
1049.00,0.5060
1048.00,0.5077
1047.00,0.5092
1046.00,0.5105
1045.00,0.5113
1044.00,0.5117
1043.00,0.5118
1042.00,0.5116
1041.00,0.5113
1040.00,0.5108
1039.00,0.5102
1038.00,0.5095
1037.00,0.5087
1036.00,0.5080
1035.00,0.5081
1034.00,0.5090
1033.00,0.5106
1032.00,0.5125
1031.00,0.5142
1030.00,0.5156
1029.00,0.5162
1028.00,0.5157
1027.00,0.5140
1026.00,0.5108
1025.00,0.5062
1024.00,0.5008
1023.00,0.4951
1022.00,0.4896
1021.00,0.4845
1020.00,0.4798
1019.00,0.4757
1018.00,0.4722
1017.00,0.4691
1016.00,0.4664
1015.00,0.4640
1014.00,0.4620
1013.00,0.4602
1012.00,0.4586
1011.00,0.4574
1010.00,0.4565
1009.00,0.4562
1008.00,0.4562
1007.00,0.4567
1006.00,0.4577
1005.00,0.4593
1004.00,0.4613
1003.00,0.4636
1002.00,0.4658
1001.00,0.4676
1000.00,0.4692
999.00,0.4703
998.00,0.4710
997.00,0.4709
996.00,0.4698
995.00,0.4680
994.00,0.4656
993.00,0.4628
992.00,0.4598
991.00,0.4569
990.00,0.4541
989.00,0.4515
988.00,0.4495
987.00,0.4483
986.00,0.4481
985.00,0.4486
984.00,0.4498
983.00,0.4515
982.00,0.4536
981.00,0.4560
980.00,0.4584
979.00,0.4608
978.00,0.4632
977.00,0.4652
976.00,0.4670
975.00,0.4684
974.00,0.4694
973.00,0.4699
972.00,0.4698
971.00,0.4695
970.00,0.4691
969.00,0.4686
968.00,0.4681
967.00,0.4678
966.00,0.4673
965.00,0.4667
964.00,0.4657
963.00,0.4645
962.00,0.4632
961.00,0.4617
960.00,0.4604
959.00,0.4593
958.00,0.4587
957.00,0.4583
956.00,0.4579
955.00,0.4574
954.00,0.4566
953.00,0.4556
952.00,0.4546
951.00,0.4538
950.00,0.4533
949.00,0.4531
948.00,0.4531
947.00,0.4536
946.00,0.4546
945.00,0.4560
944.00,0.4575
943.00,0.4592
942.00,0.4609
941.00,0.4625
940.00,0.4639
939.00,0.4649
938.00,0.4655
937.00,0.4655
936.00,0.4647
935.00,0.4633
934.00,0.4613
933.00,0.4590
932.00,0.4567
931.00,0.4545
930.00,0.4525
929.00,0.4508
928.00,0.4498
927.00,0.4498
926.00,0.4510
925.00,0.4535
924.00,0.4573
923.00,0.4621
922.00,0.4668
921.00,0.4699
920.00,0.4700
919.00,0.4667
918.00,0.4606
917.00,0.4529
916.00,0.4449
915.00,0.4374
914.00,0.4311
913.00,0.4259
912.00,0.4219
911.00,0.4188
910.00,0.4165
909.00,0.4147
908.00,0.4131
907.00,0.4120
906.00,0.4113
905.00,0.4111
904.00,0.4111
903.00,0.4117
902.00,0.4130
901.00,0.4149
900.00,0.4173
899.00,0.4201
898.00,0.4232
897.00,0.4264
896.00,0.4298
895.00,0.4334
894.00,0.4374
893.00,0.4414
892.00,0.4454
891.00,0.4489
890.00,0.4518
889.00,0.4535
888.00,0.4537
887.00,0.4524
886.00,0.4501
885.00,0.4473
884.00,0.4450
883.00,0.4439
882.00,0.4442
881.00,0.4455
880.00,0.4472
879.00,0.4487
878.00,0.4495
877.00,0.4494
876.00,0.4486
875.00,0.4478
874.00,0.4475
873.00,0.4478
872.00,0.4486
871.00,0.4498
870.00,0.4512
869.00,0.4529
868.00,0.4548
867.00,0.4573
866.00,0.4605
865.00,0.4645
864.00,0.4687
863.00,0.4720
862.00,0.4733
861.00,0.4716
860.00,0.4669
859.00,0.4604
858.00,0.4536
857.00,0.4474
856.00,0.4426
855.00,0.4392
854.00,0.4370
853.00,0.4354
852.00,0.4342
851.00,0.4331
850.00,0.4319
849.00,0.4301
848.00,0.4276
847.00,0.4248
846.00,0.4219
845.00,0.4191
844.00,0.4167
843.00,0.4149
842.00,0.4142
841.00,0.4148
840.00,0.4174
839.00,0.4222
838.00,0.4285
837.00,0.4350
836.00,0.4395
835.00,0.4409
834.00,0.4389
833.00,0.4347
832.00,0.4305
831.00,0.4277
830.00,0.4270
829.00,0.4283
828.00,0.4312
827.00,0.4353
826.00,0.4402
825.00,0.4457
824.00,0.4516
823.00,0.4581
822.00,0.4651
821.00,0.4720
820.00,0.4784
819.00,0.4843
818.00,0.4895
817.00,0.4936
816.00,0.4962
815.00,0.4968
814.00,0.4953
813.00,0.4918
812.00,0.4868
811.00,0.4808
810.00,0.4746
809.00,0.4686
808.00,0.4631
807.00,0.4584
806.00,0.4541
805.00,0.4496
804.00,0.4445
803.00,0.4388
802.00,0.4327
801.00,0.4269
800.00,0.4217
799.00,0.4175
798.00,0.4146
797.00,0.4126
796.00,0.4113
795.00,0.4105
794.00,0.4102
793.00,0.4104
792.00,0.4114
791.00,0.4132
790.00,0.4159
789.00,0.4189
788.00,0.4219
787.00,0.4251
786.00,0.4286
785.00,0.4326
784.00,0.4368
783.00,0.4410
782.00,0.4448
781.00,0.4478
780.00,0.4500
779.00,0.4516
778.00,0.4529
777.00,0.4543
776.00,0.4559
775.00,0.4579
774.00,0.4602
773.00,0.4625
772.00,0.4648
771.00,0.4673
770.00,0.4701
769.00,0.4732
768.00,0.4763
767.00,0.4793
766.00,0.4818
765.00,0.4838
764.00,0.4857
763.00,0.4879
762.00,0.4908
761.00,0.4944
760.00,0.4982
759.00,0.5021
758.00,0.5055
757.00,0.5082
756.00,0.5105
755.00,0.5128
754.00,0.5156
753.00,0.5192
752.00,0.5234
751.00,0.5282
750.00,0.5335
749.00,0.5387
748.00,0.5435
747.00,0.5478
746.00,0.5516
745.00,0.5554
744.00,0.5592
743.00,0.5635
742.00,0.5686
741.00,0.5741
740.00,0.5793
739.00,0.5839
738.00,0.5878
737.00,0.5913
736.00,0.5949
735.00,0.5990
734.00,0.6039
733.00,0.6098
732.00,0.6171
731.00,0.6267
730.00,0.6391
729.00,0.6546
728.00,0.6733
727.00,0.6958
726.00,0.7221
725.00,0.7513
724.00,0.7807
723.00,0.8046
722.00,0.8153
721.00,0.8059
720.00,0.7764
719.00,0.7344
718.00,0.6892
717.00,0.6471
716.00,0.6112
715.00,0.5820
714.00,0.5589
713.00,0.5406
712.00,0.5257
711.00,0.5133
710.00,0.5031
709.00,0.4946
708.00,0.4877
707.00,0.4821
706.00,0.4774
705.00,0.4730
704.00,0.4691
703.00,0.4660
702.00,0.4645
701.00,0.4638
700.00,0.4624
699.00,0.4578
698.00,0.4484
697.00,0.4347
696.00,0.4192
695.00,0.4047
694.00,0.3929
693.00,0.3839
692.00,0.3772
691.00,0.3721
690.00,0.3683
689.00,0.3655
688.00,0.3633
687.00,0.3617
686.00,0.3604
685.00,0.3593
684.00,0.3582
683.00,0.3572
682.00,0.3564
681.00,0.3558
680.00,0.3555
679.00,0.3556
678.00,0.3559
677.00,0.3561
676.00,0.3561
675.00,0.3562
674.00,0.3562
673.00,0.3563
672.00,0.3563
671.00,0.3568
670.00,0.3578
669.00,0.3589
668.00,0.3594
667.00,0.3593
666.00,0.3595
665.00,0.3601
664.00,0.3610
663.00,0.3622
662.00,0.3634
661.00,0.3644
660.00,0.3652
659.00,0.3661
658.00,0.3672
657.00,0.3683
656.00,0.3692
655.00,0.3702
654.00,0.3711
653.00,0.3720
652.00,0.3729
651.00,0.3739
650.00,0.3749
649.00,0.3758
648.00,0.3765
647.00,0.3775
646.00,0.3788
645.00,0.3802
644.00,0.3816
643.00,0.3832
642.00,0.3847
641.00,0.3861
640.00,0.3872
639.00,0.3881
638.00,0.3889
637.00,0.3896
636.00,0.3902
635.00,0.3907
634.00,0.3915
633.00,0.3923
632.00,0.3931
631.00,0.3938
630.00,0.3946
629.00,0.3957
628.00,0.3973
627.00,0.3995
626.00,0.4020
625.00,0.4046
624.00,0.4070
623.00,0.4093
622.00,0.4117
621.00,0.4139
620.00,0.4155
619.00,0.4166
618.00,0.4175
617.00,0.4182
616.00,0.4188
615.00,0.4191
614.00,0.4189
613.00,0.4180
612.00,0.4166
611.00,0.4150
610.00,0.4134
609.00,0.4119
608.00,0.4104
607.00,0.4093
606.00,0.4087
605.00,0.4082
604.00,0.4075
603.00,0.4068
602.00,0.4062
601.00,0.4060
600.00,0.4062
599.00,0.4068
598.00,0.4079
597.00,0.4091
596.00,0.4101
595.00,0.4111
594.00,0.4124
593.00,0.4141
592.00,0.4162
591.00,0.4186
590.00,0.4212
589.00,0.4235
588.00,0.4257
587.00,0.4280
586.00,0.4306
585.00,0.4333
584.00,0.4358
583.00,0.4384
582.00,0.4411
581.00,0.4440
580.00,0.4467
579.00,0.4493
578.00,0.4518
577.00,0.4540
576.00,0.4562
575.00,0.4586
574.00,0.4610
573.00,0.4631
572.00,0.4646
571.00,0.4658
570.00,0.4670
569.00,0.4684
568.00,0.4698
567.00,0.4711
566.00,0.4723
565.00,0.4729
564.00,0.4729
563.00,0.4728
562.00,0.4730
561.00,0.4739
560.00,0.4752
559.00,0.4767
558.00,0.4779
557.00,0.4789
556.00,0.4796
555.00,0.4804
554.00,0.4813
553.00,0.4824
552.00,0.4839
551.00,0.4856
550.00,0.4874
