Created as New Dataset,
cm-1,A
4000.00,0.3194
3999.00,0.3191
3998.00,0.3188
3997.00,0.3185
3996.00,0.3182
3995.00,0.3178
3994.00,0.3175
3993.00,0.3172
3992.00,0.3168
3991.00,0.3165
3990.00,0.3162
3989.00,0.3158
3988.00,0.3154
3987.00,0.3151
3986.00,0.3148
3985.00,0.3145
3984.00,0.3142
3983.00,0.3138
3982.00,0.3134
3981.00,0.3130
3980.00,0.3126
3979.00,0.3122
3978.00,0.3118
3977.00,0.3114
3976.00,0.3112
3975.00,0.3109
3974.00,0.3107
3973.00,0.3105
3972.00,0.3102
3971.00,0.3101
3970.00,0.3099
3969.00,0.3097
3968.00,0.3095
3967.00,0.3092
3966.00,0.3089
3965.00,0.3087
3964.00,0.3086
3963.00,0.3086
3962.00,0.3085
3961.00,0.3084
3960.00,0.3082
3959.00,0.3081
3958.00,0.3079
3957.00,0.3077
3956.00,0.3076
3955.00,0.3074
3954.00,0.3073
3953.00,0.3072
3952.00,0.3071
3951.00,0.3070
3950.00,0.3069
3949.00,0.3068
3948.00,0.3066
3947.00,0.3065
3946.00,0.3064
3945.00,0.3063
3944.00,0.3062
3943.00,0.3060
3942.00,0.3058
3941.00,0.3056
3940.00,0.3054
3939.00,0.3053
3938.00,0.3052
3937.00,0.3051
3936.00,0.3050
3935.00,0.3050
3934.00,0.3051
3933.00,0.3051
3932.00,0.3051
3931.00,0.3051
3930.00,0.3052
3929.00,0.3052
3928.00,0.3052
3927.00,0.3052
3926.00,0.3051
3925.00,0.3051
3924.00,0.3050
3923.00,0.3051
3922.00,0.3052
3921.00,0.3053
3920.00,0.3053
3919.00,0.3053
3918.00,0.3053
3917.00,0.3053
3916.00,0.3052
3915.00,0.3052
3914.00,0.3050
3913.00,0.3048
3912.00,0.3046
3911.00,0.3043
3910.00,0.3041
3909.00,0.3041
3908.00,0.3041
3907.00,0.3042
3906.00,0.3044
3905.00,0.3047
3904.00,0.3049
3903.00,0.3052
3902.00,0.3055
3901.00,0.3057
3900.00,0.3058
3899.00,0.3057
3898.00,0.3053
3897.00,0.3049
3896.00,0.3045
3895.00,0.3042
3894.00,0.3040
3893.00,0.3039
3892.00,0.3038
3891.00,0.3038
3890.00,0.3037
3889.00,0.3037
3888.00,0.3039
3887.00,0.3040
3886.00,0.3040
3885.00,0.3039
3884.00,0.3039
3883.00,0.3040
3882.00,0.3042
3881.00,0.3042
3880.00,0.3039
3879.00,0.3035
3878.00,0.3033
3877.00,0.3031
3876.00,0.3031
3875.00,0.3031
3874.00,0.3030
3873.00,0.3030
3872.00,0.3030
3871.00,0.3031
3870.00,0.3031
3869.00,0.3030
3868.00,0.3029
3867.00,0.3029
3866.00,0.3029
3865.00,0.3027
3864.00,0.3024
3863.00,0.3021
3862.00,0.3017
3861.00,0.3015
3860.00,0.3013
3859.00,0.3012
3858.00,0.3012
3857.00,0.3015
3856.00,0.3018
3855.00,0.3021
3854.00,0.3023
3853.00,0.3025
3852.00,0.3027
3851.00,0.3028
3850.00,0.3027
3849.00,0.3024
3848.00,0.3019
3847.00,0.3013
3846.00,0.3009
3845.00,0.3005
3844.00,0.3003
3843.00,0.3003
3842.00,0.3004
3841.00,0.3007
3840.00,0.3009
3839.00,0.3012
3838.00,0.3013
3837.00,0.3014
3836.00,0.3015
3835.00,0.3015
3834.00,0.3015
3833.00,0.3012
3832.00,0.3007
3831.00,0.3001
3830.00,0.2996
3829.00,0.2992
3828.00,0.2989
3827.00,0.2987
3826.00,0.2984
3825.00,0.2984
3824.00,0.2985
3823.00,0.2989
3822.00,0.2992
3821.00,0.2993
3820.00,0.2992
3819.00,0.2992
3818.00,0.2993
3817.00,0.2994
3816.00,0.2991
3815.00,0.2985
3814.00,0.2978
3813.00,0.2974
3812.00,0.2971
3811.00,0.2968
3810.00,0.2964
3809.00,0.2962
3808.00,0.2960
3807.00,0.2958
3806.00,0.2957
3805.00,0.2958
3804.00,0.2961
3803.00,0.2963
3802.00,0.2964
3801.00,0.2963
3800.00,0.2961
3799.00,0.2960
3798.00,0.2958
3797.00,0.2956
3796.00,0.2950
3795.00,0.2943
3794.00,0.2937
3793.00,0.2933
3792.00,0.2929
3791.00,0.2926
3790.00,0.2922
3789.00,0.2920
3788.00,0.2918
3787.00,0.2917
3786.00,0.2916
3785.00,0.2915
3784.00,0.2914
3783.00,0.2913
3782.00,0.2912
3781.00,0.2911
3780.00,0.2910
3779.00,0.2909
3778.00,0.2907
3777.00,0.2906
3776.00,0.2905
3775.00,0.2904
3774.00,0.2902
3773.00,0.2901
3772.00,0.2901
3771.00,0.2900
3770.00,0.2899
3769.00,0.2899
3768.00,0.2899
3767.00,0.2900
3766.00,0.2900
3765.00,0.2899
3764.00,0.2896
3763.00,0.2894
3762.00,0.2892
3761.00,0.2891
3760.00,0.2889
3759.00,0.2887
3758.00,0.2885
3757.00,0.2883
3756.00,0.2882
3755.00,0.2883
3754.00,0.2883
3753.00,0.2884
3752.00,0.2884
3751.00,0.2886
3750.00,0.2888
3749.00,0.2891
3748.00,0.2893
3747.00,0.2897
3746.00,0.2899
3745.00,0.2898
3744.00,0.2892
3743.00,0.2884
3742.00,0.2880
3741.00,0.2878
3740.00,0.2876
3739.00,0.2874
3738.00,0.2872
3737.00,0.2871
3736.00,0.2871
3735.00,0.2872
3734.00,0.2874
3733.00,0.2875
3732.00,0.2873
3731.00,0.2869
3730.00,0.2864
3729.00,0.2861
3728.00,0.2857
3727.00,0.2853
3726.00,0.2848
3725.00,0.2844
3724.00,0.2841
3723.00,0.2840
3722.00,0.2838
3721.00,0.2837
3720.00,0.2834
3719.00,0.2832
3718.00,0.2829
3717.00,0.2827
3716.00,0.2824
3715.00,0.2823
3714.00,0.2823
3713.00,0.2823
3712.00,0.2824
3711.00,0.2826
3710.00,0.2828
3709.00,0.2829
3708.00,0.2829
3707.00,0.2827
3706.00,0.2824
3705.00,0.2821
3704.00,0.2819
3703.00,0.2819
3702.00,0.2818
3701.00,0.2818
3700.00,0.2817
3699.00,0.2817
3698.00,0.2816
3697.00,0.2815
3696.00,0.2813
3695.00,0.2813
3694.00,0.2814
3693.00,0.2816
3692.00,0.2820
3691.00,0.2824
3690.00,0.2828
3689.00,0.2830
3688.00,0.2831
3687.00,0.2830
3686.00,0.2829
3685.00,0.2827
3684.00,0.2823
3683.00,0.2817
3682.00,0.2813
3681.00,0.2810
3680.00,0.2809
3679.00,0.2811
3678.00,0.2813
3677.00,0.2816
3676.00,0.2820
3675.00,0.2824
3674.00,0.2827
3673.00,0.2830
3672.00,0.2833
3671.00,0.2833
3670.00,0.2831
3669.00,0.2827
3668.00,0.2823
3667.00,0.2820
3666.00,0.2818
3665.00,0.2814
3664.00,0.2811
3663.00,0.2809
3662.00,0.2808
3661.00,0.2808
3660.00,0.2809
3659.00,0.2811
3658.00,0.2813
3657.00,0.2815
3656.00,0.2817
3655.00,0.2819
3654.00,0.2822
3653.00,0.2827
3652.00,0.2832
3651.00,0.2836
3650.00,0.2840
3649.00,0.2845
3648.00,0.2849
3647.00,0.2853
3646.00,0.2853
3645.00,0.2850
3644.00,0.2846
3643.00,0.2841
3642.00,0.2836
3641.00,0.2833
3640.00,0.2831
3639.00,0.2830
3638.00,0.2830
3637.00,0.2832
3636.00,0.2835
3635.00,0.2837
3634.00,0.2840
3633.00,0.2842
3632.00,0.2846
3631.00,0.2852
3630.00,0.2859
3629.00,0.2866
3628.00,0.2872
3627.00,0.2876
3626.00,0.2879
3625.00,0.2881
3624.00,0.2881
3623.00,0.2880
3622.00,0.2880
3621.00,0.2881
3620.00,0.2883
3619.00,0.2884
3618.00,0.2885
3617.00,0.2885
3616.00,0.2885
3615.00,0.2885
3614.00,0.2885
3613.00,0.2884
3612.00,0.2883
3611.00,0.2883
3610.00,0.2883
3609.00,0.2883
3608.00,0.2884
3607.00,0.2884
3606.00,0.2882
3605.00,0.2879
3604.00,0.2875
3603.00,0.2871
3602.00,0.2866
3601.00,0.2862
3600.00,0.2858
3599.00,0.2854
3598.00,0.2850
3597.00,0.2845
3596.00,0.2841
3595.00,0.2836
3594.00,0.2832
3593.00,0.2828
3592.00,0.2825
3591.00,0.2822
3590.00,0.2821
3589.00,0.2821
3588.00,0.2821
3587.00,0.2821
3586.00,0.2822
3585.00,0.2821
3584.00,0.2820
3583.00,0.2819
3582.00,0.2816
3581.00,0.2813
3580.00,0.2811
3579.00,0.2810
3578.00,0.2810
3577.00,0.2810
3576.00,0.2810
3575.00,0.2810
3574.00,0.2811
3573.00,0.2812
3572.00,0.2814
3571.00,0.2816
3570.00,0.2819
3569.00,0.2823
3568.00,0.2827
3567.00,0.2833
3566.00,0.2837
3565.00,0.2841
3564.00,0.2843
3563.00,0.2844
3562.00,0.2844
3561.00,0.2844
3560.00,0.2845
3559.00,0.2846
3558.00,0.2849
3557.00,0.2852
3556.00,0.2856
3555.00,0.2860
3554.00,0.2864
3553.00,0.2868
3552.00,0.2872
3551.00,0.2876
3550.00,0.2880
3549.00,0.2884
3548.00,0.2889
3547.00,0.2894
3546.00,0.2899
3545.00,0.2905
3544.00,0.2909
3543.00,0.2913
3542.00,0.2916
3541.00,0.2919
3540.00,0.2922
3539.00,0.2925
3538.00,0.2927
3537.00,0.2931
3536.00,0.2934
3535.00,0.2938
3534.00,0.2941
3533.00,0.2943
3532.00,0.2946
3531.00,0.2948
3530.00,0.2951
3529.00,0.2955
3528.00,0.2959
3527.00,0.2963
3526.00,0.2968
3525.00,0.2972
3524.00,0.2976
3523.00,0.2980
3522.00,0.2984
3521.00,0.2988
3520.00,0.2992
3519.00,0.2996
3518.00,0.3000
3517.00,0.3003
3516.00,0.3007
3515.00,0.3012
3514.00,0.3016
3513.00,0.3021
3512.00,0.3025
3511.00,0.3030
3510.00,0.3035
3509.00,0.3041
3508.00,0.3046
3507.00,0.3051
3506.00,0.3056
3505.00,0.3061
3504.00,0.3067
3503.00,0.3072
3502.00,0.3077
3501.00,0.3083
3500.00,0.3088
3499.00,0.3093
3498.00,0.3097
3497.00,0.3103
3496.00,0.3109
3495.00,0.3115
3494.00,0.3122
3493.00,0.3128
3492.00,0.3135
3491.00,0.3142
3490.00,0.3150
3489.00,0.3158
3488.00,0.3165
3487.00,0.3173
3486.00,0.3180
3485.00,0.3186
3484.00,0.3193
3483.00,0.3199
3482.00,0.3206
3481.00,0.3212
3480.00,0.3217
3479.00,0.3223
3478.00,0.3227
3477.00,0.3232
3476.00,0.3236
3475.00,0.3240
3474.00,0.3245
3473.00,0.3251
3472.00,0.3256
3471.00,0.3261
3470.00,0.3266
3469.00,0.3271
3468.00,0.3277
3467.00,0.3282
3466.00,0.3287
3465.00,0.3293
3464.00,0.3298
3463.00,0.3304
3462.00,0.3310
3461.00,0.3316
3460.00,0.3323
3459.00,0.3329
3458.00,0.3336
3457.00,0.3343
3456.00,0.3349
3455.00,0.3356
3454.00,0.3363
3453.00,0.3370
3452.00,0.3377
3451.00,0.3384
3450.00,0.3391
3449.00,0.3398
3448.00,0.3406
3447.00,0.3413
3446.00,0.3420
3445.00,0.3428
3444.00,0.3436
3443.00,0.3444
3442.00,0.3452
3441.00,0.3459
3440.00,0.3466
3439.00,0.3472
3438.00,0.3480
3437.00,0.3487
3436.00,0.3495
3435.00,0.3502
3434.00,0.3509
3433.00,0.3516
3432.00,0.3523
3431.00,0.3531
3430.00,0.3538
3429.00,0.3545
3428.00,0.3552
3427.00,0.3560
3426.00,0.3568
3425.00,0.3577
3424.00,0.3587
3423.00,0.3595
3422.00,0.3604
3421.00,0.3612
3420.00,0.3621
3419.00,0.3630
3418.00,0.3639
3417.00,0.3649
3416.00,0.3658
3415.00,0.3668
3414.00,0.3676
3413.00,0.3685
3412.00,0.3694
3411.00,0.3704
3410.00,0.3713
3409.00,0.3724
3408.00,0.3734
3407.00,0.3745
3406.00,0.3755
3405.00,0.3765
3404.00,0.3775
3403.00,0.3786
3402.00,0.3796
3401.00,0.3807
3400.00,0.3817
3399.00,0.3828
3398.00,0.3838
3397.00,0.3848
3396.00,0.3859
3395.00,0.3870
3394.00,0.3881
3393.00,0.3893
3392.00,0.3904
3391.00,0.3916
3390.00,0.3927
3389.00,0.3938
3388.00,0.3948
3387.00,0.3959
3386.00,0.3971
3385.00,0.3983
3384.00,0.3996
3383.00,0.4008
3382.00,0.4020
3381.00,0.4033
3380.00,0.4047
3379.00,0.4060
3378.00,0.4073
3377.00,0.4086
3376.00,0.4099
3375.00,0.4113
3374.00,0.4126
3373.00,0.4140
3372.00,0.4154
3371.00,0.4168
3370.00,0.4182
3369.00,0.4196
3368.00,0.4211
3367.00,0.4227
3366.00,0.4242
3365.00,0.4258
3364.00,0.4274
3363.00,0.4289
3362.00,0.4305
3361.00,0.4322
3360.00,0.4339
3359.00,0.4357
3358.00,0.4374
3357.00,0.4391
3356.00,0.4407
3355.00,0.4424
3354.00,0.4441
3353.00,0.4458
3352.00,0.4476
3351.00,0.4494
3350.00,0.4512
3349.00,0.4529
3348.00,0.4545
3347.00,0.4560
3346.00,0.4576
3345.00,0.4592
3344.00,0.4607
3343.00,0.4622
3342.00,0.4637
3341.00,0.4652
3340.00,0.4666
3339.00,0.4679
3338.00,0.4691
3337.00,0.4702
3336.00,0.4712
3335.00,0.4721
3334.00,0.4730
3333.00,0.4737
3332.00,0.4743
3331.00,0.4749
3330.00,0.4754
3329.00,0.4759
3328.00,0.4763
3327.00,0.4767
3326.00,0.4769
3325.00,0.4770
3324.00,0.4769
3323.00,0.4767
3322.00,0.4765
3321.00,0.4762
3320.00,0.4759
3319.00,0.4755
3318.00,0.4750
3317.00,0.4744
3316.00,0.4738
3315.00,0.4731
3314.00,0.4724
3313.00,0.4717
3312.00,0.4709
3311.00,0.4701
3310.00,0.4693
3309.00,0.4684
3308.00,0.4675
3307.00,0.4665
3306.00,0.4655
3305.00,0.4646
3304.00,0.4636
3303.00,0.4627
3302.00,0.4618
3301.00,0.4610
3300.00,0.4601
3299.00,0.4593
3298.00,0.4585
3297.00,0.4578
3296.00,0.4571
3295.00,0.4565
3294.00,0.4559
3293.00,0.4553
3292.00,0.4547
3291.00,0.4542
3290.00,0.4538
3289.00,0.4534
3288.00,0.4531
3287.00,0.4528
3286.00,0.4525
3285.00,0.4524
3284.00,0.4523
3283.00,0.4523
3282.00,0.4523
3281.00,0.4523
3280.00,0.4524
3279.00,0.4525
3278.00,0.4527
3277.00,0.4530
3276.00,0.4533
3275.00,0.4536
3274.00,0.4539
3273.00,0.4542
3272.00,0.4546
3271.00,0.4550
3270.00,0.4554
3269.00,0.4557
3268.00,0.4561
3267.00,0.4564
3266.00,0.4568
3265.00,0.4573
3264.00,0.4577
3263.00,0.4582
3262.00,0.4587
3261.00,0.4591
3260.00,0.4597
3259.00,0.4603
3258.00,0.4609
3257.00,0.4615
3256.00,0.4620
3255.00,0.4625
3254.00,0.4630
3253.00,0.4635
3252.00,0.4641
3251.00,0.4646
3250.00,0.4652
3249.00,0.4657
3248.00,0.4661
3247.00,0.4666
3246.00,0.4670
3245.00,0.4675
3244.00,0.4680
3243.00,0.4685
3242.00,0.4688
3241.00,0.4692
3240.00,0.4694
3239.00,0.4696
3238.00,0.4698
3237.00,0.4700
3236.00,0.4702
3235.00,0.4704
3234.00,0.4706
3233.00,0.4706
3232.00,0.4706
3231.00,0.4705
3230.00,0.4704
3229.00,0.4703
3228.00,0.4702
3227.00,0.4700
3226.00,0.4698
3225.00,0.4696
3224.00,0.4694
3223.00,0.4691
3222.00,0.4689
3221.00,0.4686
3220.00,0.4683
3219.00,0.4681
3218.00,0.4679
3217.00,0.4678
3216.00,0.4676
3215.00,0.4674
3214.00,0.4670
3213.00,0.4666
3212.00,0.4663
3211.00,0.4659
3210.00,0.4656
3209.00,0.4652
3208.00,0.4649
3207.00,0.4646
3206.00,0.4642
3205.00,0.4638
3204.00,0.4635
3203.00,0.4631
3202.00,0.4628
3201.00,0.4624
3200.00,0.4620
3199.00,0.4616
3198.00,0.4611
3197.00,0.4607
3196.00,0.4602
3195.00,0.4597
3194.00,0.4592
3193.00,0.4587
3192.00,0.4582
3191.00,0.4575
3190.00,0.4569
3189.00,0.4562
3188.00,0.4556
3187.00,0.4549
3186.00,0.4543
3185.00,0.4536
3184.00,0.4530
3183.00,0.4523
3182.00,0.4516
3181.00,0.4509
3180.00,0.4503
3179.00,0.4496
3178.00,0.4488
3177.00,0.4481
3176.00,0.4473
3175.00,0.4466
3174.00,0.4458
3173.00,0.4451
3172.00,0.4443
3171.00,0.4434
3170.00,0.4426
3169.00,0.4419
3168.00,0.4411
3167.00,0.4404
3166.00,0.4396
3165.00,0.4388
3164.00,0.4379
3163.00,0.4370
3162.00,0.4361
3161.00,0.4352
3160.00,0.4344
3159.00,0.4335
3158.00,0.4326
3157.00,0.4316
3156.00,0.4307
3155.00,0.4297
3154.00,0.4288
3153.00,0.4279
3152.00,0.4271
3151.00,0.4263
3150.00,0.4255
3149.00,0.4248
3148.00,0.4241
3147.00,0.4234
3146.00,0.4227
3145.00,0.4221
3144.00,0.4215
3143.00,0.4209
3142.00,0.4203
3141.00,0.4198
3140.00,0.4193
3139.00,0.4188
3138.00,0.4184
3137.00,0.4179
3136.00,0.4175
3135.00,0.4171
3134.00,0.4168
3133.00,0.4165
3132.00,0.4162
3131.00,0.4159
3130.00,0.4157
3129.00,0.4156
3128.00,0.4155
3127.00,0.4154
3126.00,0.4153
3125.00,0.4152
3124.00,0.4151
3123.00,0.4150
3122.00,0.4150
3121.00,0.4151
3120.00,0.4153
3119.00,0.4155
3118.00,0.4156
3117.00,0.4158
3116.00,0.4160
3115.00,0.4163
3114.00,0.4167
3113.00,0.4171
3112.00,0.4176
3111.00,0.4182
3110.00,0.4189
3109.00,0.4196
3108.00,0.4205
3107.00,0.4213
3106.00,0.4222
3105.00,0.4230
3104.00,0.4238
3103.00,0.4246
3102.00,0.4254
3101.00,0.4262
3100.00,0.4270
3099.00,0.4278
3098.00,0.4288
3097.00,0.4299
3096.00,0.4311
3095.00,0.4325
3094.00,0.4339
3093.00,0.4354
3092.00,0.4371
3091.00,0.4390
3090.00,0.4410
3089.00,0.4432
3088.00,0.4456
3087.00,0.4481
3086.00,0.4507
3085.00,0.4534
3084.00,0.4562
3083.00,0.4591
3082.00,0.4622
3081.00,0.4655
3080.00,0.4689
3079.00,0.4726
3078.00,0.4764
3077.00,0.4805
3076.00,0.4846
3075.00,0.4888
3074.00,0.4930
3073.00,0.4973
3072.00,0.5016
3071.00,0.5059
3070.00,0.5101
3069.00,0.5144
3068.00,0.5187
3067.00,0.5230
3066.00,0.5273
3065.00,0.5314
3064.00,0.5352
3063.00,0.5387
3062.00,0.5419
3061.00,0.5449
3060.00,0.5476
3059.00,0.5502
3058.00,0.5529
3057.00,0.5556
3056.00,0.5585
3055.00,0.5615
3054.00,0.5646
3053.00,0.5680
3052.00,0.5716
3051.00,0.5754
3050.00,0.5794
3049.00,0.5837
3048.00,0.5882
3047.00,0.5928
3046.00,0.5975
3045.00,0.6022
3044.00,0.6069
3043.00,0.6115
3042.00,0.6161
3041.00,0.6206
3040.00,0.6251
3039.00,0.6296
3038.00,0.6343
3037.00,0.6393
3036.00,0.6445
3035.00,0.6501
3034.00,0.6563
3033.00,0.6630
3032.00,0.6701
3031.00,0.6778
3030.00,0.6858
3029.00,0.6943
3028.00,0.7032
3027.00,0.7124
3026.00,0.7220
3025.00,0.7318
3024.00,0.7419
3023.00,0.7524
3022.00,0.7632
3021.00,0.7744
3020.00,0.7859
3019.00,0.7976
3018.00,0.8093
3017.00,0.8211
3016.00,0.8330
3015.00,0.8451
3014.00,0.8573
3013.00,0.8697
3012.00,0.8825
3011.00,0.8958
3010.00,0.9097
3009.00,0.9242
3008.00,0.9394
3007.00,0.9551
3006.00,0.9713
3005.00,0.9880
3004.00,1.0053
3003.00,1.0231
3002.00,1.0414
3001.00,1.0602
3000.00,1.0798
2999.00,1.1005
2998.00,1.1230
2997.00,1.1475
2996.00,1.1745
2995.00,1.2043
2994.00,1.2375
2993.00,1.2747
2992.00,1.3162
2991.00,1.3624
2990.00,1.4138
2989.00,1.4709
2988.00,1.5343
2987.00,1.6053
2986.00,1.6850
2985.00,1.7743
2984.00,1.8739
2983.00,1.9840
2982.00,2.1049
2981.00,2.2365
2980.00,2.3785
2979.00,2.5329
2978.00,2.7041
2977.00,2.8952
2976.00,3.1028
2975.00,3.3125
2974.00,3.4901
2973.00,3.5794
2972.00,3.5844
2971.00,3.5907
2970.00,3.6595
2969.00,3.7895
2968.00,3.9261
2967.00,4.0366
2966.00,4.0870
2965.00,4.0293
2964.00,3.9258
2963.00,3.8806
2962.00,3.9405
2961.00,4.1120
2960.00,4.3514
2959.00,4.3640
2958.00,4.1645
2957.00,3.9926
2956.00,3.9012
2955.00,3.8620
2954.00,3.8542
2953.00,3.8691
2952.00,3.8893
2951.00,3.9155
2950.00,3.9052
2949.00,3.8213
2948.00,3.7342
2947.00,3.7200
2946.00,3.7917
2945.00,3.9148
2944.00,4.0927
2943.00,4.4348
2942.00,4.7864
2941.00,4.4349
2940.00,4.1151
2939.00,4.0091
2938.00,4.0554
2937.00,4.0816
2936.00,3.9909
2935.00,3.9042
2934.00,3.9178
2933.00,4.1292
2932.00,4.5389
2931.00,4.4657
2930.00,4.1487
2929.00,3.9310
2928.00,3.8830
2927.00,3.9290
2926.00,4.0459
2925.00,4.1803
2924.00,4.1510
2923.00,4.0310
2922.00,3.9290
2921.00,3.8475
2920.00,3.8078
2919.00,3.8006
2918.00,3.9397
2917.00,4.2768
2916.00,4.1849
2915.00,3.9816
2914.00,3.8768
2913.00,3.9674
2912.00,4.0687
2911.00,4.1522
2910.00,4.2227
2909.00,3.9974
2908.00,3.7962
2907.00,3.7162
2906.00,3.7473
2905.00,3.8645
2904.00,4.0763
2903.00,4.2292
2902.00,4.1855
2901.00,4.1522
2900.00,4.3832
2899.00,4.8521
2898.00,4.4337
2897.00,4.0590
2896.00,3.8792
2895.00,3.8735
2894.00,3.9947
2893.00,4.2218
2892.00,4.4687
2891.00,4.6045
2890.00,4.7360
2889.00,4.4749
2888.00,4.0892
2887.00,3.8552
2886.00,3.7901
2885.00,3.8232
2884.00,3.8793
2883.00,3.9486
2882.00,4.0434
2881.00,4.1971
2880.00,4.2348
2879.00,4.1207
2878.00,3.9755
2877.00,3.8556
2876.00,3.7560
2875.00,3.6671
2874.00,3.6536
2873.00,3.7479
2872.00,3.9499
2871.00,4.2705
2870.00,4.6855
2869.00,4.6537
2868.00,4.3199
2867.00,4.0597
2866.00,4.1102
2865.00,4.3355
2864.00,4.2296
2863.00,4.1480
2862.00,4.1877
2861.00,4.5393
2860.00,4.7481
2859.00,4.7157
2858.00,4.7628
2857.00,4.4046
2856.00,4.1504
2855.00,4.1242
2854.00,4.3282
2853.00,4.2294
2852.00,4.0277
2851.00,3.8711
2850.00,3.9931
2849.00,4.3019
2848.00,4.0228
2847.00,3.7934
2846.00,3.6644
2845.00,3.7149
2844.00,3.8115
2843.00,3.9454
2842.00,4.1243
2841.00,4.0004
2840.00,3.7704
2839.00,3.5625
2838.00,3.3618
2837.00,3.1414
2836.00,2.9209
2835.00,2.7172
2834.00,2.5330
2833.00,2.3663
2832.00,2.2157
2831.00,2.0805
2830.00,1.9596
2829.00,1.8514
2828.00,1.7550
2827.00,1.6690
2826.00,1.5920
2825.00,1.5225
2824.00,1.4595
2823.00,1.4022
2822.00,1.3497
2821.00,1.3013
2820.00,1.2566
2819.00,1.2151
2818.00,1.1766
2817.00,1.1408
2816.00,1.1075
2815.00,1.0765
2814.00,1.0476
2813.00,1.0205
2812.00,0.9950
2811.00,0.9709
2810.00,0.9480
2809.00,0.9264
2808.00,0.9057
2807.00,0.8860
2806.00,0.8672
2805.00,0.8494
2804.00,0.8325
2803.00,0.8165
2802.00,0.8014
2801.00,0.7871
2800.00,0.7735
2799.00,0.7604
2798.00,0.7479
2797.00,0.7358
2796.00,0.7241
2795.00,0.7129
2794.00,0.7020
2793.00,0.6915
2792.00,0.6813
2791.00,0.6714
2790.00,0.6617
2789.00,0.6523
2788.00,0.6431
2787.00,0.6341
2786.00,0.6253
2785.00,0.6167
2784.00,0.6082
2783.00,0.6000
2782.00,0.5921
2781.00,0.5846
2780.00,0.5773
2779.00,0.5704
2778.00,0.5639
2777.00,0.5576
2776.00,0.5516
2775.00,0.5459
2774.00,0.5405
2773.00,0.5354
2772.00,0.5307
2771.00,0.5264
2770.00,0.5225
2769.00,0.5190
2768.00,0.5157
2767.00,0.5127
2766.00,0.5101
2765.00,0.5078
2764.00,0.5058
2763.00,0.5041
2762.00,0.5026
2761.00,0.5013
2760.00,0.5001
2759.00,0.4990
2758.00,0.4978
2757.00,0.4968
2756.00,0.4958
2755.00,0.4947
2754.00,0.4938
2753.00,0.4931
2752.00,0.4926
2751.00,0.4923
2750.00,0.4922
2749.00,0.4922
2748.00,0.4925
2747.00,0.4930
2746.00,0.4937
2745.00,0.4947
2744.00,0.4959
2743.00,0.4974
2742.00,0.4993
2741.00,0.5016
2740.00,0.5042
2739.00,0.5074
2738.00,0.5111
2737.00,0.5152
2736.00,0.5199
2735.00,0.5249
2734.00,0.5301
2733.00,0.5354
2732.00,0.5403
2731.00,0.5444
2730.00,0.5476
2729.00,0.5496
2728.00,0.5504
2727.00,0.5502
2726.00,0.5492
2725.00,0.5477
2724.00,0.5458
2723.00,0.5435
2722.00,0.5409
2721.00,0.5379
2720.00,0.5347
2719.00,0.5312
2718.00,0.5274
2717.00,0.5233
2716.00,0.5189
2715.00,0.5143
2714.00,0.5097
2713.00,0.5053
2712.00,0.5011
2711.00,0.4972
2710.00,0.4937
2709.00,0.4906
2708.00,0.4879
2707.00,0.4857
2706.00,0.4839
2705.00,0.4824
2704.00,0.4813
2703.00,0.4804
2702.00,0.4798
2701.00,0.4795
2700.00,0.4794
2699.00,0.4795
2698.00,0.4797
2697.00,0.4801
2696.00,0.4806
2695.00,0.4813
2694.00,0.4821
2693.00,0.4830
2692.00,0.4839
2691.00,0.4848
2690.00,0.4857
2689.00,0.4865
2688.00,0.4874
2687.00,0.4881
2686.00,0.4887
2685.00,0.4891
2684.00,0.4895
2683.00,0.4898
2682.00,0.4902
2681.00,0.4905
2680.00,0.4908
2679.00,0.4910
2678.00,0.4913
2677.00,0.4917
2676.00,0.4921
2675.00,0.4924
2674.00,0.4928
2673.00,0.4932
2672.00,0.4934
2671.00,0.4933
2670.00,0.4931
2669.00,0.4925
2668.00,0.4918
2667.00,0.4908
2666.00,0.4896
2665.00,0.4882
2664.00,0.4867
2663.00,0.4850
2662.00,0.4832
2661.00,0.4813
2660.00,0.4792
2659.00,0.4772
2658.00,0.4751
2657.00,0.4732
2656.00,0.4712
2655.00,0.4693
2654.00,0.4673
2653.00,0.4655
2652.00,0.4637
2651.00,0.4621
2650.00,0.4606
2649.00,0.4592
2648.00,0.4578
2647.00,0.4564
2646.00,0.4550
2645.00,0.4536
2644.00,0.4524
2643.00,0.4512
2642.00,0.4500
2641.00,0.4489
2640.00,0.4479
2639.00,0.4470
2638.00,0.4461
2637.00,0.4453
2636.00,0.4444
2635.00,0.4436
2634.00,0.4428
2633.00,0.4421
2632.00,0.4413
2631.00,0.4404
2630.00,0.4397
2629.00,0.4389
2628.00,0.4381
2627.00,0.4373
2626.00,0.4364
2625.00,0.4356
2624.00,0.4347
2623.00,0.4338
2622.00,0.4330
2621.00,0.4321
2620.00,0.4312
2619.00,0.4304
2618.00,0.4295
2617.00,0.4287
2616.00,0.4278
2615.00,0.4268
2614.00,0.4258
2613.00,0.4249
2612.00,0.4239
2611.00,0.4228
2610.00,0.4217
2609.00,0.4206
2608.00,0.4195
2607.00,0.4185
2606.00,0.4175
2605.00,0.4165
2604.00,0.4156
2603.00,0.4146
2602.00,0.4135
2601.00,0.4124
2600.00,0.4113
2599.00,0.4101
2598.00,0.4088
2597.00,0.4076
2596.00,0.4062
2595.00,0.4048
2594.00,0.4034
2593.00,0.4019
2592.00,0.4005
2591.00,0.3990
2590.00,0.3976
2589.00,0.3961
2588.00,0.3945
2587.00,0.3930
2586.00,0.3914
2585.00,0.3898
2584.00,0.3882
2583.00,0.3865
2582.00,0.3847
2581.00,0.3830
2580.00,0.3812
2579.00,0.3794
2578.00,0.3776
2577.00,0.3758
2576.00,0.3741
2575.00,0.3724
2574.00,0.3707
2573.00,0.3691
2572.00,0.3675
2571.00,0.3659
2570.00,0.3644
2569.00,0.3629
2568.00,0.3615
2567.00,0.3600
2566.00,0.3586
2565.00,0.3573
2564.00,0.3559
2563.00,0.3546
2562.00,0.3532
2561.00,0.3519
2560.00,0.3508
2559.00,0.3496
2558.00,0.3485
2557.00,0.3475
2556.00,0.3464
2555.00,0.3453
2554.00,0.3443
2553.00,0.3433
2552.00,0.3423
2551.00,0.3414
2550.00,0.3404
2549.00,0.3394
2548.00,0.3384
2547.00,0.3375
2546.00,0.3366
2545.00,0.3358
2544.00,0.3349
2543.00,0.3339
2542.00,0.3330
2541.00,0.3321
2540.00,0.3313
2539.00,0.3305
2538.00,0.3297
2537.00,0.3289
2536.00,0.3282
2535.00,0.3275
2534.00,0.3268
2533.00,0.3261
2532.00,0.3253
2531.00,0.3246
2530.00,0.3238
2529.00,0.3229
2528.00,0.3221
2527.00,0.3212
2526.00,0.3203
2525.00,0.3194
2524.00,0.3185
2523.00,0.3177
2522.00,0.3168
2521.00,0.3160
2520.00,0.3151
2519.00,0.3143
2518.00,0.3134
2517.00,0.3126
2516.00,0.3119
2515.00,0.3112
2514.00,0.3104
2513.00,0.3097
2512.00,0.3090
2511.00,0.3083
2510.00,0.3076
2509.00,0.3069
2508.00,0.3062
2507.00,0.3055
2506.00,0.3048
2505.00,0.3042
2504.00,0.3036
2503.00,0.3030
2502.00,0.3025
2501.00,0.3019
2500.00,0.3014
2499.00,0.3008
2498.00,0.3003
2497.00,0.2998
2496.00,0.2993
2495.00,0.2988
2494.00,0.2984
2493.00,0.2980
2492.00,0.2976
2491.00,0.2972
2490.00,0.2968
2489.00,0.2964
2488.00,0.2961
2487.00,0.2958
2486.00,0.2956
2485.00,0.2953
2484.00,0.2950
2483.00,0.2947
2482.00,0.2943
2481.00,0.2940
2480.00,0.2937
2479.00,0.2933
2478.00,0.2930
2477.00,0.2927
2476.00,0.2924
2475.00,0.2921
2474.00,0.2917
2473.00,0.2915
2472.00,0.2912
2471.00,0.2910
2470.00,0.2907
2469.00,0.2903
2468.00,0.2900
2467.00,0.2896
2466.00,0.2893
2465.00,0.2889
2464.00,0.2886
2463.00,0.2882
2462.00,0.2878
2461.00,0.2875
2460.00,0.2873
2459.00,0.2870
2458.00,0.2867
2457.00,0.2865
2456.00,0.2863
2455.00,0.2861
2454.00,0.2860
2453.00,0.2859
2452.00,0.2858
2451.00,0.2858
2450.00,0.2857
2449.00,0.2857
2448.00,0.2857
2447.00,0.2856
2446.00,0.2856
2445.00,0.2856
2444.00,0.2856
2443.00,0.2856
2442.00,0.2857
2441.00,0.2857
2440.00,0.2858
2439.00,0.2859
2438.00,0.2859
2437.00,0.2859
2436.00,0.2859
2435.00,0.2860
2434.00,0.2860
2433.00,0.2861
2432.00,0.2861
2431.00,0.2861
2430.00,0.2861
2429.00,0.2861
2428.00,0.2861
2427.00,0.2861
2426.00,0.2862
2425.00,0.2862
2424.00,0.2862
2423.00,0.2862
2422.00,0.2862
2421.00,0.2862
2420.00,0.2862
2419.00,0.2863
2418.00,0.2863
2417.00,0.2864
2416.00,0.2864
2415.00,0.2865
2414.00,0.2865
2413.00,0.2866
2412.00,0.2866
2411.00,0.2866
2410.00,0.2866
2409.00,0.2866
2408.00,0.2866
2407.00,0.2865
2406.00,0.2865
2405.00,0.2865
2404.00,0.2865
2403.00,0.2864
2402.00,0.2863
2401.00,0.2862
2400.00,0.2861
2399.00,0.2860
2398.00,0.2858
2397.00,0.2856
2396.00,0.2854
2395.00,0.2851
2394.00,0.2849
2393.00,0.2848
2392.00,0.2847
2391.00,0.2846
2390.00,0.2845
2389.00,0.2844
2388.00,0.2842
2387.00,0.2841
2386.00,0.2839
2385.00,0.2838
2384.00,0.2837
2383.00,0.2836
2382.00,0.2835
2381.00,0.2834
2380.00,0.2834
2379.00,0.2833
2378.00,0.2833
2377.00,0.2832
2376.00,0.2830
2375.00,0.2829
2374.00,0.2828
2373.00,0.2827
2372.00,0.2827
2371.00,0.2826
2370.00,0.2824
2369.00,0.2823
2368.00,0.2822
2367.00,0.2821
2366.00,0.2819
2365.00,0.2818
2364.00,0.2817
2363.00,0.2814
2362.00,0.2812
2361.00,0.2812
2360.00,0.2812
2359.00,0.2812
2358.00,0.2812
2357.00,0.2812
2356.00,0.2812
2355.00,0.2812
2354.00,0.2811
2353.00,0.2811
2352.00,0.2811
2351.00,0.2810
2350.00,0.2808
2349.00,0.2805
2348.00,0.2802
2347.00,0.2800
2346.00,0.2799
2345.00,0.2802
2344.00,0.2807
2343.00,0.2812
2342.00,0.2815
2341.00,0.2814
2340.00,0.2810
2339.00,0.2806
2338.00,0.2803
2337.00,0.2800
2336.00,0.2798
2335.00,0.2795
2334.00,0.2793
2333.00,0.2790
2332.00,0.2787
2331.00,0.2785
2330.00,0.2783
2329.00,0.2781
2328.00,0.2780
2327.00,0.2778
2326.00,0.2776
2325.00,0.2774
2324.00,0.2772
2323.00,0.2770
2322.00,0.2768
2321.00,0.2767
2320.00,0.2765
2319.00,0.2764
2318.00,0.2762
2317.00,0.2760
2316.00,0.2758
2315.00,0.2755
2314.00,0.2752
2313.00,0.2750
2312.00,0.2749
2311.00,0.2747
2310.00,0.2745
2309.00,0.2742
2308.00,0.2739
2307.00,0.2736
2306.00,0.2733
2305.00,0.2730
2304.00,0.2726
2303.00,0.2723
2302.00,0.2719
2301.00,0.2716
2300.00,0.2713
2299.00,0.2711
2298.00,0.2708
2297.00,0.2706
2296.00,0.2703
2295.00,0.2700
2294.00,0.2698
2293.00,0.2695
2292.00,0.2692
2291.00,0.2689
2290.00,0.2687
2289.00,0.2685
2288.00,0.2683
2287.00,0.2681
2286.00,0.2679
2285.00,0.2676
2284.00,0.2674
2283.00,0.2672
2282.00,0.2669
2281.00,0.2667
2280.00,0.2664
2279.00,0.2662
2278.00,0.2659
2277.00,0.2656
2276.00,0.2654
2275.00,0.2651
2274.00,0.2649
2273.00,0.2646
2272.00,0.2644
2271.00,0.2642
2270.00,0.2641
2269.00,0.2639
2268.00,0.2637
2267.00,0.2634
2266.00,0.2631
2265.00,0.2628
2264.00,0.2626
2263.00,0.2623
2262.00,0.2620
2261.00,0.2618
2260.00,0.2615
2259.00,0.2613
2258.00,0.2610
2257.00,0.2607
2256.00,0.2604
2255.00,0.2601
2254.00,0.2599
2253.00,0.2597
2252.00,0.2594
2251.00,0.2592
2250.00,0.2591
2249.00,0.2589
2248.00,0.2588
2247.00,0.2586
2246.00,0.2584
2245.00,0.2582
2244.00,0.2581
2243.00,0.2579
2242.00,0.2578
2241.00,0.2577
2240.00,0.2576
2239.00,0.2576
2238.00,0.2575
2237.00,0.2575
2236.00,0.2574
2235.00,0.2572
2234.00,0.2571
2233.00,0.2570
2232.00,0.2569
2231.00,0.2567
2230.00,0.2565
2229.00,0.2563
2228.00,0.2561
2227.00,0.2559
2226.00,0.2558
2225.00,0.2556
2224.00,0.2555
2223.00,0.2554
2222.00,0.2552
2221.00,0.2551
2220.00,0.2549
2219.00,0.2548
2218.00,0.2547
2217.00,0.2546
2216.00,0.2545
2215.00,0.2544
2214.00,0.2544
2213.00,0.2544
2212.00,0.2543
2211.00,0.2543
2210.00,0.2542
2209.00,0.2542
2208.00,0.2542
2207.00,0.2543
2206.00,0.2543
2205.00,0.2544
2204.00,0.2545
2203.00,0.2546
2202.00,0.2546
2201.00,0.2547
2200.00,0.2547
2199.00,0.2547
2198.00,0.2546
2197.00,0.2546
2196.00,0.2546
2195.00,0.2546
2194.00,0.2546
2193.00,0.2546
2192.00,0.2546
2191.00,0.2545
2190.00,0.2545
2189.00,0.2545
2188.00,0.2544
2187.00,0.2544
2186.00,0.2543
2185.00,0.2541
2184.00,0.2540
2183.00,0.2539
2182.00,0.2538
2181.00,0.2537
2180.00,0.2535
2179.00,0.2534
2178.00,0.2532
2177.00,0.2531
2176.00,0.2530
2175.00,0.2529
2174.00,0.2528
2173.00,0.2527
2172.00,0.2526
2171.00,0.2525
2170.00,0.2525
2169.00,0.2525
2168.00,0.2525
2167.00,0.2524
2166.00,0.2524
2165.00,0.2523
2164.00,0.2523
2163.00,0.2522
2162.00,0.2521
2161.00,0.2520
2160.00,0.2519
2159.00,0.2517
2158.00,0.2515
2157.00,0.2514
2156.00,0.2512
2155.00,0.2510
2154.00,0.2509
2153.00,0.2507
2152.00,0.2505
2151.00,0.2503
2150.00,0.2500
2149.00,0.2497
2148.00,0.2494
2147.00,0.2490
2146.00,0.2485
2145.00,0.2480
2144.00,0.2476
2143.00,0.2471
2142.00,0.2466
2141.00,0.2462
2140.00,0.2458
2139.00,0.2455
2138.00,0.2452
2137.00,0.2450
2136.00,0.2447
2135.00,0.2446
2134.00,0.2444
2133.00,0.2442
2132.00,0.2441
2131.00,0.2440
2130.00,0.2439
2129.00,0.2438
2128.00,0.2437
2127.00,0.2436
2126.00,0.2435
2125.00,0.2434
2124.00,0.2434
2123.00,0.2433
2122.00,0.2431
2121.00,0.2430
2120.00,0.2429
2119.00,0.2428
2118.00,0.2427
2117.00,0.2426
2116.00,0.2425
2115.00,0.2424
2114.00,0.2423
2113.00,0.2421
2112.00,0.2420
2111.00,0.2418
2110.00,0.2417
2109.00,0.2415
2108.00,0.2414
2107.00,0.2413
2106.00,0.2411
2105.00,0.2410
2104.00,0.2410
2103.00,0.2409
2102.00,0.2408
2101.00,0.2407
2100.00,0.2407
2099.00,0.2406
2098.00,0.2406
2097.00,0.2406
2096.00,0.2406
2095.00,0.2406
2094.00,0.2406
2093.00,0.2406
2092.00,0.2406
2091.00,0.2405
2090.00,0.2405
2089.00,0.2405
2088.00,0.2406
2087.00,0.2406
2086.00,0.2407
2085.00,0.2408
2084.00,0.2408
2083.00,0.2408
2082.00,0.2408
2081.00,0.2408
2080.00,0.2408
2079.00,0.2408
2078.00,0.2408
2077.00,0.2407
2076.00,0.2408
2075.00,0.2407
2074.00,0.2407
2073.00,0.2408
2072.00,0.2408
2071.00,0.2408
2070.00,0.2407
2069.00,0.2407
2068.00,0.2407
2067.00,0.2408
2066.00,0.2409
2065.00,0.2411
2064.00,0.2412
2063.00,0.2413
2062.00,0.2413
2061.00,0.2414
2060.00,0.2416
2059.00,0.2417
2058.00,0.2418
2057.00,0.2419
2056.00,0.2421
2055.00,0.2422
2054.00,0.2423
2053.00,0.2425
2052.00,0.2426
2051.00,0.2427
2050.00,0.2429
2049.00,0.2431
2048.00,0.2433
2047.00,0.2435
2046.00,0.2437
2045.00,0.2439
2044.00,0.2440
2043.00,0.2442
2042.00,0.2443
2041.00,0.2444
2040.00,0.2445
2039.00,0.2446
2038.00,0.2447
2037.00,0.2448
2036.00,0.2449
2035.00,0.2449
2034.00,0.2450
2033.00,0.2450
2032.00,0.2449
2031.00,0.2449
2030.00,0.2448
2029.00,0.2447
2028.00,0.2447
2027.00,0.2446
2026.00,0.2445
2025.00,0.2444
2024.00,0.2442
2023.00,0.2440
2022.00,0.2437
2021.00,0.2434
2020.00,0.2431
2019.00,0.2426
2018.00,0.2421
2017.00,0.2416
2016.00,0.2411
2015.00,0.2406
2014.00,0.2400
2013.00,0.2396
2012.00,0.2391
2011.00,0.2387
2010.00,0.2383
2009.00,0.2379
2008.00,0.2376
2007.00,0.2374
2006.00,0.2371
2005.00,0.2368
2004.00,0.2366
2003.00,0.2364
2002.00,0.2361
2001.00,0.2360
2000.00,0.2358
1999.00,0.2357
1998.00,0.2355
1997.00,0.2355
1996.00,0.2354
1995.00,0.2352
1994.00,0.2350
1993.00,0.2349
1992.00,0.2348
1991.00,0.2347
1990.00,0.2346
1989.00,0.2346
1988.00,0.2346
1987.00,0.2344
1986.00,0.2343
1985.00,0.2342
1984.00,0.2342
1983.00,0.2341
1982.00,0.2340
1981.00,0.2340
1980.00,0.2339
1979.00,0.2339
1978.00,0.2339
1977.00,0.2339
1976.00,0.2340
1975.00,0.2340
1974.00,0.2340
1973.00,0.2340
1972.00,0.2340
1971.00,0.2340
1970.00,0.2340
1969.00,0.2341
1968.00,0.2342
1967.00,0.2342
1966.00,0.2343
1965.00,0.2344
1964.00,0.2346
1963.00,0.2346
1962.00,0.2346
1961.00,0.2347
1960.00,0.2349
1959.00,0.2350
1958.00,0.2350
1957.00,0.2351
1956.00,0.2353
1955.00,0.2354
1954.00,0.2355
1953.00,0.2357
1952.00,0.2357
1951.00,0.2358
1950.00,0.2357
1949.00,0.2358
1948.00,0.2358
1947.00,0.2359
1946.00,0.2360
1945.00,0.2362
1944.00,0.2366
1943.00,0.2369
1942.00,0.2374
1941.00,0.2380
1940.00,0.2386
1939.00,0.2390
1938.00,0.2392
1937.00,0.2393
1936.00,0.2392
1935.00,0.2391
1934.00,0.2390
1933.00,0.2389
1932.00,0.2389
1931.00,0.2390
1930.00,0.2390
1929.00,0.2392
1928.00,0.2393
1927.00,0.2394
1926.00,0.2395
1925.00,0.2397
1924.00,0.2400
1923.00,0.2403
1922.00,0.2407
1921.00,0.2411
1920.00,0.2415
1919.00,0.2417
1918.00,0.2420
1917.00,0.2423
1916.00,0.2426
1915.00,0.2428
1914.00,0.2428
1913.00,0.2428
1912.00,0.2428
1911.00,0.2428
1910.00,0.2429
1909.00,0.2431
1908.00,0.2432
1907.00,0.2433
1906.00,0.2432
1905.00,0.2432
1904.00,0.2432
1903.00,0.2432
1902.00,0.2431
1901.00,0.2432
1900.00,0.2433
1899.00,0.2434
1898.00,0.2434
1897.00,0.2436
1896.00,0.2439
1895.00,0.2440
1894.00,0.2442
1893.00,0.2445
1892.00,0.2447
1891.00,0.2448
1890.00,0.2448
1889.00,0.2449
1888.00,0.2451
1887.00,0.2453
1886.00,0.2454
1885.00,0.2455
1884.00,0.2456
1883.00,0.2455
1882.00,0.2454
1881.00,0.2454
1880.00,0.2454
1879.00,0.2453
1878.00,0.2451
1877.00,0.2450
1876.00,0.2448
1875.00,0.2446
1874.00,0.2444
1873.00,0.2442
1872.00,0.2440
1871.00,0.2436
1870.00,0.2432
1869.00,0.2430
1868.00,0.2430
1867.00,0.2430
1866.00,0.2430
1865.00,0.2429
1864.00,0.2427
1863.00,0.2423
1862.00,0.2419
1861.00,0.2416
1860.00,0.2414
1859.00,0.2412
1858.00,0.2410
1857.00,0.2408
1856.00,0.2407
1855.00,0.2405
1854.00,0.2403
1853.00,0.2401
1852.00,0.2401
1851.00,0.2400
1850.00,0.2398
1849.00,0.2397
1848.00,0.2397
1847.00,0.2396
1846.00,0.2394
1845.00,0.2392
1844.00,0.2391
1843.00,0.2391
1842.00,0.2392
1841.00,0.2393
1840.00,0.2392
1839.00,0.2390
1838.00,0.2388
1837.00,0.2387
1836.00,0.2386
1835.00,0.2385
1834.00,0.2384
1833.00,0.2383
1832.00,0.2382
1831.00,0.2380
1830.00,0.2378
1829.00,0.2378
1828.00,0.2379
1827.00,0.2378
1826.00,0.2376
1825.00,0.2375
1824.00,0.2377
1823.00,0.2378
1822.00,0.2378
1821.00,0.2378
1820.00,0.2378
1819.00,0.2377
1818.00,0.2377
1817.00,0.2378
1816.00,0.2380
1815.00,0.2382
1814.00,0.2383
1813.00,0.2384
1812.00,0.2386
1811.00,0.2389
1810.00,0.2391
1809.00,0.2394
1808.00,0.2398
1807.00,0.2401
1806.00,0.2403
1805.00,0.2406
1804.00,0.2410
1803.00,0.2414
1802.00,0.2417
1801.00,0.2424
1800.00,0.2432
1799.00,0.2439
1798.00,0.2444
1797.00,0.2449
1796.00,0.2454
1795.00,0.2457
1794.00,0.2458
1793.00,0.2460
1792.00,0.2464
1791.00,0.2470
1790.00,0.2476
1789.00,0.2482
1788.00,0.2487
1787.00,0.2489
1786.00,0.2489
1785.00,0.2492
1784.00,0.2496
1783.00,0.2500
1782.00,0.2504
1781.00,0.2508
1780.00,0.2513
1779.00,0.2517
1778.00,0.2522
1777.00,0.2526
1776.00,0.2531
1775.00,0.2537
1774.00,0.2542
1773.00,0.2549
1772.00,0.2557
1771.00,0.2566
1770.00,0.2573
1769.00,0.2582
1768.00,0.2591
1767.00,0.2601
1766.00,0.2611
1765.00,0.2622
1764.00,0.2633
1763.00,0.2644
1762.00,0.2659
1761.00,0.2678
1760.00,0.2699
1759.00,0.2720
1758.00,0.2741
1757.00,0.2766
1756.00,0.2795
1755.00,0.2825
1754.00,0.2853
1753.00,0.2882
1752.00,0.2914
1751.00,0.2948
1750.00,0.2984
1749.00,0.3019
1748.00,0.3050
1747.00,0.3075
1746.00,0.3096
1745.00,0.3114
1744.00,0.3129
1743.00,0.3140
1742.00,0.3148
1741.00,0.3154
1740.00,0.3157
1739.00,0.3158
1738.00,0.3157
1737.00,0.3156
1736.00,0.3152
1735.00,0.3141
1734.00,0.3131
1733.00,0.3126
1732.00,0.3124
1731.00,0.3121
1730.00,0.3118
1729.00,0.3117
1728.00,0.3120
1727.00,0.3126
1726.00,0.3136
1725.00,0.3151
1724.00,0.3173
1723.00,0.3200
1722.00,0.3230
1721.00,0.3264
1720.00,0.3305
1719.00,0.3361
1718.00,0.3441
1717.00,0.3545
1716.00,0.3658
1715.00,0.3775
1714.00,0.3900
1713.00,0.4029
1712.00,0.4155
1711.00,0.4273
1710.00,0.4380
1709.00,0.4464
1708.00,0.4515
1707.00,0.4529
1706.00,0.4507
1705.00,0.4452
1704.00,0.4379
1703.00,0.4299
1702.00,0.4203
1701.00,0.4065
1700.00,0.3907
1699.00,0.3784
1698.00,0.3703
1697.00,0.3629
1696.00,0.3541
1695.00,0.3452
1694.00,0.3386
1693.00,0.3341
1692.00,0.3304
1691.00,0.3267
1690.00,0.3232
1689.00,0.3203
1688.00,0.3182
1687.00,0.3166
1686.00,0.3148
1685.00,0.3125
1684.00,0.3100
1683.00,0.3081
1682.00,0.3071
1681.00,0.3063
1680.00,0.3054
1679.00,0.3043
1678.00,0.3034
1677.00,0.3024
1676.00,0.3014
1675.00,0.3007
1674.00,0.3004
1673.00,0.3004
1672.00,0.3003
1671.00,0.2999
1670.00,0.2996
1669.00,0.2996
1668.00,0.2997
1667.00,0.2999
1666.00,0.2999
1665.00,0.3000
1664.00,0.2999
1663.00,0.2999
1662.00,0.3001
1661.00,0.3006
1660.00,0.3010
1659.00,0.3013
1658.00,0.3016
1657.00,0.3020
1656.00,0.3024
1655.00,0.3028
1654.00,0.3034
1653.00,0.3050
1652.00,0.3065
1651.00,0.3073
1650.00,0.3076
1649.00,0.3079
1648.00,0.3086
1647.00,0.3096
1646.00,0.3109
1645.00,0.3124
1644.00,0.3137
1643.00,0.3148
1642.00,0.3159
1641.00,0.3173
1640.00,0.3188
1639.00,0.3202
1638.00,0.3218
1637.00,0.3238
1636.00,0.3264
1635.00,0.3292
1634.00,0.3316
1633.00,0.3340
1632.00,0.3362
1631.00,0.3382
1630.00,0.3402
1629.00,0.3428
1628.00,0.3459
1627.00,0.3490
1626.00,0.3520
1625.00,0.3553
1624.00,0.3594
1623.00,0.3642
1622.00,0.3695
1621.00,0.3752
1620.00,0.3810
1619.00,0.3874
1618.00,0.3954
1617.00,0.4061
1616.00,0.4183
1615.00,0.4294
1614.00,0.4389
1613.00,0.4482
1612.00,0.4580
1611.00,0.4683
1610.00,0.4785
1609.00,0.4888
1608.00,0.4988
1607.00,0.5076
1606.00,0.5150
1605.00,0.5217
1604.00,0.5283
1603.00,0.5346
1602.00,0.5405
1601.00,0.5469
1600.00,0.5542
1599.00,0.5622
1598.00,0.5711
1597.00,0.5823
1596.00,0.5971
1595.00,0.6158
1594.00,0.6390
1593.00,0.6684
1592.00,0.7060
1591.00,0.7531
1590.00,0.8118
1589.00,0.8864
1588.00,0.9819
1587.00,1.1016
1586.00,1.2474
1585.00,1.4245
1584.00,1.6404
1583.00,1.8822
1582.00,2.0761
1581.00,2.1289
1580.00,2.0504
1579.00,1.8842
1578.00,1.6661
1577.00,1.4436
1576.00,1.2553
1575.00,1.1185
1574.00,1.0271
1573.00,0.9650
1572.00,0.9190
1571.00,0.8818
1570.00,0.8538
1569.00,0.8400
1568.00,0.8428
1567.00,0.8606
1566.00,0.8938
1565.00,0.9459
1564.00,1.0150
1563.00,1.0892
1562.00,1.1548
1561.00,1.2028
1560.00,1.2094
1559.00,1.1349
1558.00,1.0224
1557.00,0.9334
1556.00,0.8637
1555.00,0.7964
1554.00,0.7328
1553.00,0.6807
1552.00,0.6417
1551.00,0.6105
1550.00,0.5834
1549.00,0.5612
1548.00,0.5448
1547.00,0.5322
1546.00,0.5211
1545.00,0.5113
1544.00,0.5036
1543.00,0.4976
1542.00,0.4922
1541.00,0.4871
1540.00,0.4819
1539.00,0.4764
1538.00,0.4714
1537.00,0.4677
1536.00,0.4647
1535.00,0.4614
1534.00,0.4578
1533.00,0.4553
1532.00,0.4545
1531.00,0.4546
1530.00,0.4550
1529.00,0.4557
1528.00,0.4565
1527.00,0.4568
1526.00,0.4563
1525.00,0.4556
1524.00,0.4554
1523.00,0.4554
1522.00,0.4558
1521.00,0.4574
1520.00,0.4601
1519.00,0.4630
1518.00,0.4660
1517.00,0.4698
1516.00,0.4737
1515.00,0.4763
1514.00,0.4776
1513.00,0.4783
1512.00,0.4791
1511.00,0.4802
1510.00,0.4818
1509.00,0.4851
1508.00,0.4914
1507.00,0.5018
1506.00,0.5146
1505.00,0.5266
1504.00,0.5365
1503.00,0.5445
1502.00,0.5517
1501.00,0.5589
1500.00,0.5662
1499.00,0.5731
1498.00,0.5805
1497.00,0.5900
1496.00,0.6014
1495.00,0.6124
1494.00,0.6226
1493.00,0.6333
1492.00,0.6454
1491.00,0.6594
1490.00,0.6759
1489.00,0.6951
1488.00,0.7155
1487.00,0.7366
1486.00,0.7596
1485.00,0.7863
1484.00,0.8170
1483.00,0.8524
1482.00,0.8950
1481.00,0.9459
1480.00,1.0030
1479.00,1.0643
1478.00,1.1335
1477.00,1.2169
1476.00,1.3155
1475.00,1.4267
1474.00,1.5589
1473.00,1.7355
1472.00,1.9707
1471.00,2.2471
1470.00,2.5455
1469.00,2.8853
1468.00,3.2737
1467.00,3.5614
1466.00,3.8565
1465.00,4.0295
1464.00,3.7844
1463.00,3.8226
1462.00,3.9499
1461.00,4.3068
1460.00,4.3824
1459.00,4.0480
1458.00,3.8494
1457.00,3.8563
1456.00,4.0363
1455.00,4.1977
1454.00,4.0755
1453.00,3.9815
1452.00,3.7159
1451.00,3.5108
1450.00,3.3942
1449.00,3.3898
1448.00,3.3401
1447.00,3.1453
1446.00,2.9806
1445.00,2.8487
1444.00,2.6872
1443.00,2.5079
1442.00,2.3531
1441.00,2.2246
1440.00,2.1064
1439.00,1.9908
1438.00,1.8740
1437.00,1.7511
1436.00,1.6294
1435.00,1.5235
1434.00,1.4339
1433.00,1.3507
1432.00,1.2678
1431.00,1.1867
1430.00,1.1125
1429.00,1.0488
1428.00,0.9971
1427.00,0.9567
1426.00,0.9242
1425.00,0.8963
1424.00,0.8726
1423.00,0.8546
1422.00,0.8415
1421.00,0.8305
1420.00,0.8197
1419.00,0.8094
1418.00,0.8005
1417.00,0.7932
1416.00,0.7873
1415.00,0.7829
1414.00,0.7796
1413.00,0.7771
1412.00,0.7753
1411.00,0.7742
1410.00,0.7727
1409.00,0.7696
1408.00,0.7642
1407.00,0.7565
1406.00,0.7461
1405.00,0.7330
1404.00,0.7189
1403.00,0.7058
1402.00,0.6942
1401.00,0.6835
1400.00,0.6738
1399.00,0.6662
1398.00,0.6612
1397.00,0.6586
1396.00,0.6587
1395.00,0.6626
1394.00,0.6710
1393.00,0.6838
1392.00,0.7024
1391.00,0.7287
1390.00,0.7651
1389.00,0.8151
1388.00,0.8836
1387.00,0.9720
1386.00,1.0735
1385.00,1.1785
1384.00,1.2851
1383.00,1.3984
1382.00,1.5234
1381.00,1.6636
1380.00,1.8222
1379.00,1.9894
1378.00,2.1234
1377.00,2.1703
1376.00,2.1176
1375.00,1.9891
1374.00,1.8243
1373.00,1.6660
1372.00,1.5359
1371.00,1.4354
1370.00,1.3610
1369.00,1.3107
1368.00,1.2802
1367.00,1.2591
1366.00,1.2322
1365.00,1.1883
1364.00,1.1256
1363.00,1.0536
1362.00,0.9859
1361.00,0.9312
1360.00,0.8905
1359.00,0.8608
1358.00,0.8391
1357.00,0.8235
1356.00,0.8128
1355.00,0.8062
1354.00,0.8024
1353.00,0.8004
1352.00,0.7990
1351.00,0.7975
1350.00,0.7954
1349.00,0.7924
1348.00,0.7891
1347.00,0.7860
1346.00,0.7834
1345.00,0.7812
1344.00,0.7794
1343.00,0.7774
1342.00,0.7747
1341.00,0.7703
1340.00,0.7635
1339.00,0.7543
1338.00,0.7429
1337.00,0.7299
1336.00,0.7157
1335.00,0.7011
1334.00,0.6868
1333.00,0.6736
1332.00,0.6620
1331.00,0.6523
1330.00,0.6446
1329.00,0.6386
1328.00,0.6342
1327.00,0.6312
1326.00,0.6294
1325.00,0.6286
1324.00,0.6286
1323.00,0.6292
1322.00,0.6299
1321.00,0.6305
1320.00,0.6310
1319.00,0.6318
1318.00,0.6331
1317.00,0.6349
1316.00,0.6373
1315.00,0.6401
1314.00,0.6435
1313.00,0.6472
1312.00,0.6512
1311.00,0.6553
1310.00,0.6590
1309.00,0.6622
1308.00,0.6648
1307.00,0.6667
1306.00,0.6678
1305.00,0.6675
1304.00,0.6659
1303.00,0.6629
1302.00,0.6588
1301.00,0.6540
1300.00,0.6488
1299.00,0.6434
1298.00,0.6380
1297.00,0.6325
1296.00,0.6271
1295.00,0.6221
1294.00,0.6177
1293.00,0.6136
1292.00,0.6098
1291.00,0.6061
1290.00,0.6025
1289.00,0.5991
1288.00,0.5957
1287.00,0.5923
1286.00,0.5887
1285.00,0.5847
1284.00,0.5805
1283.00,0.5765
1282.00,0.5728
1281.00,0.5696
1280.00,0.5669
1279.00,0.5646
1278.00,0.5624
1277.00,0.5601
1276.00,0.5577
1275.00,0.5554
1274.00,0.5534
1273.00,0.5517
1272.00,0.5504
1271.00,0.5495
1270.00,0.5490
1269.00,0.5484
1268.00,0.5471
1267.00,0.5447
1266.00,0.5412
1265.00,0.5370
1264.00,0.5329
1263.00,0.5295
1262.00,0.5268
1261.00,0.5247
1260.00,0.5229
1259.00,0.5214
1258.00,0.5199
1257.00,0.5181
1256.00,0.5162
1255.00,0.5142
1254.00,0.5125
1253.00,0.5109
1252.00,0.5097
1251.00,0.5086
1250.00,0.5075
1249.00,0.5060
1248.00,0.5041
1247.00,0.5019
1246.00,0.4996
1245.00,0.4971
1244.00,0.4942
1243.00,0.4910
1242.00,0.4877
1241.00,0.4843
1240.00,0.4811
1239.00,0.4782
1238.00,0.4759
1237.00,0.4739
1236.00,0.4724
1235.00,0.4715
1234.00,0.4709
1233.00,0.4708
1232.00,0.4710
1231.00,0.4717
1230.00,0.4725
1229.00,0.4726
1228.00,0.4718
1227.00,0.4699
1226.00,0.4672
1225.00,0.4640
1224.00,0.4607
1223.00,0.4578
1222.00,0.4556
1221.00,0.4537
1220.00,0.4523
1219.00,0.4515
1218.00,0.4513
1217.00,0.4514
1216.00,0.4519
1215.00,0.4529
1214.00,0.4540
1213.00,0.4546
1212.00,0.4544
1211.00,0.4536
1210.00,0.4524
1209.00,0.4508
1208.00,0.4490
1207.00,0.4472
1206.00,0.4453
1205.00,0.4435
1204.00,0.4417
1203.00,0.4402
1202.00,0.4390
1201.00,0.4381
1200.00,0.4375
1199.00,0.4373
1198.00,0.4371
1197.00,0.4366
1196.00,0.4359
1195.00,0.4349
1194.00,0.4340
1193.00,0.4332
1192.00,0.4326
1191.00,0.4322
1190.00,0.4318
1189.00,0.4313
1188.00,0.4306
1187.00,0.4301
1186.00,0.4299
1185.00,0.4296
1184.00,0.4292
1183.00,0.4290
1182.00,0.4289
1181.00,0.4291
1180.00,0.4296
1179.00,0.4304
1178.00,0.4315
1177.00,0.4329
1176.00,0.4348
1175.00,0.4376
1174.00,0.4414
1173.00,0.4458
1172.00,0.4505
1171.00,0.4549
1170.00,0.4581
1169.00,0.4597
1168.00,0.4596
1167.00,0.4584
1166.00,0.4567
1165.00,0.4550
1164.00,0.4539
1163.00,0.4537
1162.00,0.4542
1161.00,0.4553
1160.00,0.4567
1159.00,0.4583
1158.00,0.4599
1157.00,0.4610
1156.00,0.4616
1155.00,0.4616
1154.00,0.4609
1153.00,0.4595
1152.00,0.4575
1151.00,0.4553
1150.00,0.4530
1149.00,0.4505
1148.00,0.4481
1147.00,0.4460
1146.00,0.4443
1145.00,0.4430
1144.00,0.4423
1143.00,0.4424
1142.00,0.4436
1141.00,0.4458
1140.00,0.4491
1139.00,0.4537
1138.00,0.4596
1137.00,0.4667
1136.00,0.4746
1135.00,0.4830
1134.00,0.4906
1133.00,0.4953
1132.00,0.4955
1131.00,0.4911
1130.00,0.4835
1129.00,0.4748
1128.00,0.4668
1127.00,0.4605
1126.00,0.4562
1125.00,0.4534
1124.00,0.4516
1123.00,0.4502
1122.00,0.4488
1121.00,0.4473
1120.00,0.4460
1119.00,0.4456
1118.00,0.4465
1117.00,0.4487
1116.00,0.4522
1115.00,0.4557
1114.00,0.4578
1113.00,0.4570
1112.00,0.4531
1111.00,0.4472
1110.00,0.4407
1109.00,0.4348
1108.00,0.4299
1107.00,0.4263
1106.00,0.4241
1105.00,0.4228
1104.00,0.4222
1103.00,0.4218
1102.00,0.4215
1101.00,0.4208
1100.00,0.4198
1099.00,0.4185
1098.00,0.4172
1097.00,0.4161
1096.00,0.4151
1095.00,0.4145
1094.00,0.4142
1093.00,0.4141
1092.00,0.4143
1091.00,0.4149
1090.00,0.4159
1089.00,0.4176
1088.00,0.4198
1087.00,0.4229
1086.00,0.4267
1085.00,0.4313
1084.00,0.4367
1083.00,0.4430
1082.00,0.4501
1081.00,0.4578
1080.00,0.4658
1079.00,0.4732
1078.00,0.4789
1077.00,0.4821
1076.00,0.4821
1075.00,0.4793
1074.00,0.4743
1073.00,0.4681
1072.00,0.4618
1071.00,0.4561
1070.00,0.4516
1069.00,0.4482
1068.00,0.4458
1067.00,0.4443
1066.00,0.4433
1065.00,0.4426
1064.00,0.4421
1063.00,0.4421
1062.00,0.4424
1061.00,0.4428
1060.00,0.4432
1059.00,0.4435
1058.00,0.4436
1057.00,0.4431
1056.00,0.4423
1055.00,0.4414
1054.00,0.4405
1053.00,0.4399
1052.00,0.4399
1051.00,0.4406
1050.00,0.4422
1049.00,0.4442
1048.00,0.4464
1047.00,0.4484
1046.00,0.4501
1045.00,0.4510
1044.00,0.4512
1043.00,0.4510
1042.00,0.4506
1041.00,0.4503
1040.00,0.4501
1039.00,0.4497
1038.00,0.4491
1037.00,0.4482
1036.00,0.4475
1035.00,0.4474
1034.00,0.4482
1033.00,0.4496
1032.00,0.4514
1031.00,0.4532
1030.00,0.4548
1029.00,0.4556
1028.00,0.4552
1027.00,0.4535
1026.00,0.4502
1025.00,0.4454
1024.00,0.4396
1023.00,0.4336
1022.00,0.4280
1021.00,0.4229
1020.00,0.4183
1019.00,0.4143
1018.00,0.4109
1017.00,0.4079
1016.00,0.4054
1015.00,0.4032
1014.00,0.4012
1013.00,0.3994
1012.00,0.3978
1011.00,0.3966
1010.00,0.3959
1009.00,0.3957
1008.00,0.3960
1007.00,0.3968
1006.00,0.3981
1005.00,0.3998
1004.00,0.4017
1003.00,0.4038
1002.00,0.4060
1001.00,0.4079
1000.00,0.4094
999.00,0.4104
998.00,0.4108
997.00,0.4104
996.00,0.4093
995.00,0.4075
994.00,0.4052
993.00,0.4024
992.00,0.3992
991.00,0.3959
990.00,0.3928
989.00,0.3901
988.00,0.3881
987.00,0.3869
986.00,0.3866
985.00,0.3871
984.00,0.3882
983.00,0.3900
982.00,0.3923
981.00,0.3947
980.00,0.3972
979.00,0.3996
978.00,0.4020
977.00,0.4041
976.00,0.4057
975.00,0.4068
974.00,0.4074
973.00,0.4076
972.00,0.4074
971.00,0.4072
970.00,0.4071
969.00,0.4069
968.00,0.4067
967.00,0.4066
966.00,0.4063
965.00,0.4058
964.00,0.4050
963.00,0.4038
962.00,0.4026
961.00,0.4011
960.00,0.3998
959.00,0.3988
958.00,0.3982
957.00,0.3980
956.00,0.3978
955.00,0.3976
954.00,0.3971
953.00,0.3963
952.00,0.3953
951.00,0.3945
950.00,0.3939
949.00,0.3936
948.00,0.3936
947.00,0.3942
946.00,0.3951
945.00,0.3963
944.00,0.3977
943.00,0.3994
942.00,0.4012
941.00,0.4028
940.00,0.4040
939.00,0.4048
938.00,0.4052
937.00,0.4051
936.00,0.4045
935.00,0.4034
934.00,0.4016
933.00,0.3993
932.00,0.3967
931.00,0.3942
930.00,0.3922
929.00,0.3907
928.00,0.3900
927.00,0.3904
926.00,0.3921
925.00,0.3951
924.00,0.3994
923.00,0.4046
922.00,0.4096
921.00,0.4128
920.00,0.4128
919.00,0.4091
918.00,0.4023
917.00,0.3939
916.00,0.3853
915.00,0.3775
914.00,0.3710
913.00,0.3659
912.00,0.3620
911.00,0.3591
910.00,0.3569
909.00,0.3551
908.00,0.3537
907.00,0.3526
906.00,0.3519
905.00,0.3515
904.00,0.3514
903.00,0.3520
902.00,0.3534
901.00,0.3554
900.00,0.3579
899.00,0.3609
898.00,0.3642
897.00,0.3676
896.00,0.3710
895.00,0.3747
894.00,0.3784
893.00,0.3823
892.00,0.3861
891.00,0.3897
890.00,0.3926
889.00,0.3942
888.00,0.3943
887.00,0.3932
886.00,0.3913
885.00,0.3893
884.00,0.3878
883.00,0.3872
882.00,0.3876
881.00,0.3888
880.00,0.3904
879.00,0.3920
878.00,0.3931
877.00,0.3933
876.00,0.3928
875.00,0.3921
874.00,0.3918
873.00,0.3919
872.00,0.3924
871.00,0.3933
870.00,0.3944
869.00,0.3956
868.00,0.3972
867.00,0.3996
866.00,0.4030
865.00,0.4071
864.00,0.4111
863.00,0.4144
862.00,0.4155
861.00,0.4135
860.00,0.4083
859.00,0.4012
858.00,0.3939
857.00,0.3877
856.00,0.3829
855.00,0.3797
854.00,0.3775
853.00,0.3759
852.00,0.3744
851.00,0.3730
850.00,0.3717
849.00,0.3701
848.00,0.3680
847.00,0.3655
846.00,0.3628
845.00,0.3601
844.00,0.3576
843.00,0.3555
842.00,0.3545
841.00,0.3551
840.00,0.3579
839.00,0.3629
838.00,0.3697
837.00,0.3766
836.00,0.3815
835.00,0.3828
834.00,0.3805
833.00,0.3759
832.00,0.3713
831.00,0.3683
830.00,0.3675
829.00,0.3689
828.00,0.3720
827.00,0.3764
826.00,0.3817
825.00,0.3875
824.00,0.3936
823.00,0.4001
822.00,0.4071
821.00,0.4142
820.00,0.4209
819.00,0.4271
818.00,0.4326
817.00,0.4369
816.00,0.4395
815.00,0.4400
814.00,0.4383
813.00,0.4344
812.00,0.4290
811.00,0.4228
810.00,0.4165
809.00,0.4105
808.00,0.4050
807.00,0.4001
806.00,0.3954
805.00,0.3906
804.00,0.3855
803.00,0.3800
802.00,0.3744
801.00,0.3689
800.00,0.3639
799.00,0.3599
798.00,0.3568
797.00,0.3546
796.00,0.3530
795.00,0.3522
794.00,0.3520
793.00,0.3525
792.00,0.3536
791.00,0.3555
790.00,0.3580
789.00,0.3608
788.00,0.3639
787.00,0.3673
786.00,0.3711
785.00,0.3752
784.00,0.3795
783.00,0.3836
782.00,0.3874
781.00,0.3905
780.00,0.3928
779.00,0.3946
778.00,0.3961
777.00,0.3974
776.00,0.3990
775.00,0.4009
774.00,0.4031
773.00,0.4054
772.00,0.4076
771.00,0.4101
770.00,0.4129
769.00,0.4162
768.00,0.4194
767.00,0.4224
766.00,0.4247
765.00,0.4265
764.00,0.4280
763.00,0.4299
762.00,0.4326
761.00,0.4361
760.00,0.4401
759.00,0.4440
758.00,0.4476
757.00,0.4504
756.00,0.4527
755.00,0.4550
754.00,0.4579
753.00,0.4616
752.00,0.4662
751.00,0.4713
750.00,0.4765
749.00,0.4816
748.00,0.4860
747.00,0.4898
746.00,0.4932
745.00,0.4966
744.00,0.5007
743.00,0.5056
742.00,0.5109
741.00,0.5161
740.00,0.5207
739.00,0.5247
738.00,0.5286
737.00,0.5323
736.00,0.5361
735.00,0.5402
734.00,0.5451
733.00,0.5510
732.00,0.5585
731.00,0.5682
730.00,0.5803
729.00,0.5952
728.00,0.6132
727.00,0.6348
726.00,0.6604
725.00,0.6890
724.00,0.7181
723.00,0.7428
722.00,0.7553
721.00,0.7481
720.00,0.7199
719.00,0.6780
718.00,0.6321
717.00,0.5893
716.00,0.5528
715.00,0.5233
714.00,0.5001
713.00,0.4817
712.00,0.4667
711.00,0.4544
710.00,0.4445
709.00,0.4364
708.00,0.4299
707.00,0.4244
706.00,0.4198
705.00,0.4155
704.00,0.4116
703.00,0.4085
702.00,0.4066
701.00,0.4055
700.00,0.4035
699.00,0.3984
698.00,0.3889
697.00,0.3752
696.00,0.3597
695.00,0.3451
694.00,0.3332
693.00,0.3242
692.00,0.3177
691.00,0.3128
690.00,0.3089
689.00,0.3055
688.00,0.3028
687.00,0.3009
686.00,0.2998
685.00,0.2989
684.00,0.2981
683.00,0.2974
682.00,0.2968
681.00,0.2963
680.00,0.2960
679.00,0.2959
678.00,0.2960
677.00,0.2962
676.00,0.2962
675.00,0.2964
674.00,0.2967
673.00,0.2969
672.00,0.2970
671.00,0.2969
670.00,0.2969
669.00,0.2969
668.00,0.2972
667.00,0.2976
666.00,0.2980
665.00,0.2986
664.00,0.2996
663.00,0.3008
662.00,0.3020
661.00,0.3031
660.00,0.3041
659.00,0.3051
658.00,0.3061
657.00,0.3070
656.00,0.3078
655.00,0.3085
654.00,0.3094
653.00,0.3103
652.00,0.3115
651.00,0.3127
650.00,0.3139
649.00,0.3148
648.00,0.3157
647.00,0.3167
646.00,0.3181
645.00,0.3195
644.00,0.3208
643.00,0.3222
642.00,0.3234
641.00,0.3245
640.00,0.3253
639.00,0.3259
638.00,0.3264
637.00,0.3269
636.00,0.3275
635.00,0.3282
634.00,0.3288
633.00,0.3294
632.00,0.3301
631.00,0.3311
630.00,0.3324
629.00,0.3340
628.00,0.3354
627.00,0.3370
626.00,0.3388
625.00,0.3410
624.00,0.3435
623.00,0.3461
622.00,0.3484
621.00,0.3502
620.00,0.3514
619.00,0.3525
618.00,0.3534
617.00,0.3542
616.00,0.3546
615.00,0.3545
614.00,0.3538
613.00,0.3528
612.00,0.3515
611.00,0.3504
610.00,0.3492
609.00,0.3476
608.00,0.3457
607.00,0.3437
606.00,0.3420
605.00,0.3409
604.00,0.3402
603.00,0.3396
602.00,0.3390
601.00,0.3384
600.00,0.3383
599.00,0.3389
598.00,0.3402
597.00,0.3419
596.00,0.3435
595.00,0.3449
594.00,0.3461
593.00,0.3473
592.00,0.3488
591.00,0.3509
590.00,0.3534
589.00,0.3560
588.00,0.3584
587.00,0.3607
586.00,0.3629
585.00,0.3650
584.00,0.3673
583.00,0.3698
582.00,0.3724
581.00,0.3748
580.00,0.3772
579.00,0.3797
578.00,0.3823
577.00,0.3848
576.00,0.3870
575.00,0.3893
574.00,0.3915
573.00,0.3939
572.00,0.3963
571.00,0.3989
570.00,0.4013
569.00,0.4032
568.00,0.4044
567.00,0.4053
566.00,0.4064
565.00,0.4077
564.00,0.4093
563.00,0.4107
562.00,0.4117
561.00,0.4119
560.00,0.4119
559.00,0.4123
558.00,0.4135
557.00,0.4149
556.00,0.4161
555.00,0.4170
554.00,0.4176
553.00,0.4184
552.00,0.4196
551.00,0.4216
550.00,0.4239
