Created as New Dataset,
cm-1,A
4000.00,0.3674
3999.00,0.3671
3998.00,0.3667
3997.00,0.3663
3996.00,0.3660
3995.00,0.3657
3994.00,0.3655
3993.00,0.3653
3992.00,0.3650
3991.00,0.3647
3990.00,0.3644
3989.00,0.3641
3988.00,0.3638
3987.00,0.3636
3986.00,0.3632
3985.00,0.3629
3984.00,0.3625
3983.00,0.3622
3982.00,0.3619
3981.00,0.3616
3980.00,0.3613
3979.00,0.3609
3978.00,0.3606
3977.00,0.3603
3976.00,0.3600
3975.00,0.3597
3974.00,0.3594
3973.00,0.3592
3972.00,0.3589
3971.00,0.3587
3970.00,0.3583
3969.00,0.3580
3968.00,0.3577
3967.00,0.3574
3966.00,0.3573
3965.00,0.3571
3964.00,0.3569
3963.00,0.3567
3962.00,0.3565
3961.00,0.3563
3960.00,0.3561
3959.00,0.3560
3958.00,0.3558
3957.00,0.3557
3956.00,0.3555
3955.00,0.3554
3954.00,0.3552
3953.00,0.3551
3952.00,0.3550
3951.00,0.3550
3950.00,0.3549
3949.00,0.3549
3948.00,0.3548
3947.00,0.3547
3946.00,0.3547
3945.00,0.3546
3944.00,0.3545
3943.00,0.3543
3942.00,0.3541
3941.00,0.3539
3940.00,0.3538
3939.00,0.3537
3938.00,0.3537
3937.00,0.3536
3936.00,0.3535
3935.00,0.3535
3934.00,0.3534
3933.00,0.3533
3932.00,0.3533
3931.00,0.3532
3930.00,0.3532
3929.00,0.3532
3928.00,0.3531
3927.00,0.3531
3926.00,0.3530
3925.00,0.3530
3924.00,0.3529
3923.00,0.3528
3922.00,0.3528
3921.00,0.3528
3920.00,0.3528
3919.00,0.3528
3918.00,0.3528
3917.00,0.3527
3916.00,0.3527
3915.00,0.3526
3914.00,0.3526
3913.00,0.3526
3912.00,0.3526
3911.00,0.3526
3910.00,0.3526
3909.00,0.3526
3908.00,0.3526
3907.00,0.3526
3906.00,0.3525
3905.00,0.3525
3904.00,0.3525
3903.00,0.3526
3902.00,0.3527
3901.00,0.3528
3900.00,0.3528
3899.00,0.3527
3898.00,0.3525
3897.00,0.3523
3896.00,0.3521
3895.00,0.3519
3894.00,0.3517
3893.00,0.3515
3892.00,0.3512
3891.00,0.3511
3890.00,0.3510
3889.00,0.3510
3888.00,0.3510
3887.00,0.3511
3886.00,0.3512
3885.00,0.3511
3884.00,0.3511
3883.00,0.3509
3882.00,0.3508
3881.00,0.3508
3880.00,0.3506
3879.00,0.3505
3878.00,0.3504
3877.00,0.3503
3876.00,0.3503
3875.00,0.3503
3874.00,0.3502
3873.00,0.3501
3872.00,0.3501
3871.00,0.3501
3870.00,0.3501
3869.00,0.3502
3868.00,0.3501
3867.00,0.3501
3866.00,0.3500
3865.00,0.3499
3864.00,0.3498
3863.00,0.3496
3862.00,0.3494
3861.00,0.3491
3860.00,0.3489
3859.00,0.3488
3858.00,0.3487
3857.00,0.3487
3856.00,0.3487
3855.00,0.3486
3854.00,0.3485
3853.00,0.3485
3852.00,0.3485
3851.00,0.3485
3850.00,0.3485
3849.00,0.3483
3848.00,0.3482
3847.00,0.3480
3846.00,0.3477
3845.00,0.3475
3844.00,0.3473
3843.00,0.3472
3842.00,0.3472
3841.00,0.3473
3840.00,0.3475
3839.00,0.3476
3838.00,0.3478
3837.00,0.3479
3836.00,0.3480
3835.00,0.3481
3834.00,0.3480
3833.00,0.3478
3832.00,0.3475
3831.00,0.3472
3830.00,0.3470
3829.00,0.3469
3828.00,0.3468
3827.00,0.3468
3826.00,0.3467
3825.00,0.3466
3824.00,0.3466
3823.00,0.3465
3822.00,0.3465
3821.00,0.3464
3820.00,0.3462
3819.00,0.3461
3818.00,0.3460
3817.00,0.3459
3816.00,0.3457
3815.00,0.3455
3814.00,0.3451
3813.00,0.3447
3812.00,0.3444
3811.00,0.3440
3810.00,0.3437
3809.00,0.3435
3808.00,0.3433
3807.00,0.3431
3806.00,0.3429
3805.00,0.3428
3804.00,0.3428
3803.00,0.3427
3802.00,0.3427
3801.00,0.3425
3800.00,0.3424
3799.00,0.3423
3798.00,0.3422
3797.00,0.3421
3796.00,0.3418
3795.00,0.3416
3794.00,0.3414
3793.00,0.3412
3792.00,0.3410
3791.00,0.3408
3790.00,0.3407
3789.00,0.3406
3788.00,0.3405
3787.00,0.3403
3786.00,0.3401
3785.00,0.3399
3784.00,0.3397
3783.00,0.3396
3782.00,0.3394
3781.00,0.3393
3780.00,0.3391
3779.00,0.3388
3778.00,0.3386
3777.00,0.3384
3776.00,0.3382
3775.00,0.3380
3774.00,0.3378
3773.00,0.3376
3772.00,0.3374
3771.00,0.3372
3770.00,0.3371
3769.00,0.3370
3768.00,0.3370
3767.00,0.3369
3766.00,0.3368
3765.00,0.3367
3764.00,0.3365
3763.00,0.3364
3762.00,0.3363
3761.00,0.3363
3760.00,0.3362
3759.00,0.3361
3758.00,0.3360
3757.00,0.3359
3756.00,0.3358
3755.00,0.3358
3754.00,0.3357
3753.00,0.3356
3752.00,0.3356
3751.00,0.3356
3750.00,0.3357
3749.00,0.3357
3748.00,0.3357
3747.00,0.3357
3746.00,0.3356
3745.00,0.3355
3744.00,0.3353
3743.00,0.3350
3742.00,0.3347
3741.00,0.3345
3740.00,0.3342
3739.00,0.3340
3738.00,0.3338
3737.00,0.3335
3736.00,0.3334
3735.00,0.3333
3734.00,0.3332
3733.00,0.3331
3732.00,0.3329
3731.00,0.3327
3730.00,0.3324
3729.00,0.3321
3728.00,0.3318
3727.00,0.3316
3726.00,0.3313
3725.00,0.3311
3724.00,0.3309
3723.00,0.3307
3722.00,0.3306
3721.00,0.3305
3720.00,0.3303
3719.00,0.3302
3718.00,0.3302
3717.00,0.3301
3716.00,0.3301
3715.00,0.3301
3714.00,0.3301
3713.00,0.3301
3712.00,0.3302
3711.00,0.3302
3710.00,0.3303
3709.00,0.3302
3708.00,0.3301
3707.00,0.3299
3706.00,0.3297
3705.00,0.3295
3704.00,0.3293
3703.00,0.3292
3702.00,0.3290
3701.00,0.3288
3700.00,0.3287
3699.00,0.3287
3698.00,0.3287
3697.00,0.3286
3696.00,0.3285
3695.00,0.3284
3694.00,0.3284
3693.00,0.3285
3692.00,0.3287
3691.00,0.3289
3690.00,0.3291
3689.00,0.3292
3688.00,0.3293
3687.00,0.3294
3686.00,0.3294
3685.00,0.3294
3684.00,0.3292
3683.00,0.3291
3682.00,0.3290
3681.00,0.3289
3680.00,0.3289
3679.00,0.3288
3678.00,0.3288
3677.00,0.3288
3676.00,0.3289
3675.00,0.3290
3674.00,0.3291
3673.00,0.3292
3672.00,0.3293
3671.00,0.3293
3670.00,0.3293
3669.00,0.3291
3668.00,0.3289
3667.00,0.3287
3666.00,0.3285
3665.00,0.3284
3664.00,0.3282
3663.00,0.3280
3662.00,0.3280
3661.00,0.3279
3660.00,0.3279
3659.00,0.3280
3658.00,0.3281
3657.00,0.3283
3656.00,0.3285
3655.00,0.3286
3654.00,0.3288
3653.00,0.3291
3652.00,0.3294
3651.00,0.3297
3650.00,0.3300
3649.00,0.3304
3648.00,0.3307
3647.00,0.3309
3646.00,0.3310
3645.00,0.3310
3644.00,0.3308
3643.00,0.3307
3642.00,0.3307
3641.00,0.3307
3640.00,0.3307
3639.00,0.3307
3638.00,0.3307
3637.00,0.3307
3636.00,0.3308
3635.00,0.3310
3634.00,0.3311
3633.00,0.3313
3632.00,0.3315
3631.00,0.3318
3630.00,0.3321
3629.00,0.3325
3628.00,0.3329
3627.00,0.3332
3626.00,0.3335
3625.00,0.3337
3624.00,0.3338
3623.00,0.3339
3622.00,0.3340
3621.00,0.3340
3620.00,0.3340
3619.00,0.3340
3618.00,0.3340
3617.00,0.3340
3616.00,0.3339
3615.00,0.3339
3614.00,0.3340
3613.00,0.3341
3612.00,0.3341
3611.00,0.3342
3610.00,0.3342
3609.00,0.3342
3608.00,0.3342
3607.00,0.3341
3606.00,0.3340
3605.00,0.3338
3604.00,0.3337
3603.00,0.3334
3602.00,0.3331
3601.00,0.3327
3600.00,0.3322
3599.00,0.3317
3598.00,0.3312
3597.00,0.3306
3596.00,0.3301
3595.00,0.3295
3594.00,0.3290
3593.00,0.3286
3592.00,0.3282
3591.00,0.3279
3590.00,0.3276
3589.00,0.3274
3588.00,0.3272
3587.00,0.3270
3586.00,0.3269
3585.00,0.3268
3584.00,0.3267
3583.00,0.3267
3582.00,0.3267
3581.00,0.3267
3580.00,0.3267
3579.00,0.3266
3578.00,0.3266
3577.00,0.3266
3576.00,0.3267
3575.00,0.3268
3574.00,0.3270
3573.00,0.3272
3572.00,0.3274
3571.00,0.3276
3570.00,0.3277
3569.00,0.3279
3568.00,0.3281
3567.00,0.3284
3566.00,0.3286
3565.00,0.3289
3564.00,0.3292
3563.00,0.3294
3562.00,0.3295
3561.00,0.3296
3560.00,0.3297
3559.00,0.3299
3558.00,0.3301
3557.00,0.3303
3556.00,0.3306
3555.00,0.3310
3554.00,0.3313
3553.00,0.3316
3552.00,0.3319
3551.00,0.3323
3550.00,0.3326
3549.00,0.3330
3548.00,0.3335
3547.00,0.3339
3546.00,0.3344
3545.00,0.3348
3544.00,0.3352
3543.00,0.3356
3542.00,0.3360
3541.00,0.3363
3540.00,0.3366
3539.00,0.3369
3538.00,0.3373
3537.00,0.3376
3536.00,0.3379
3535.00,0.3382
3534.00,0.3384
3533.00,0.3387
3532.00,0.3389
3531.00,0.3393
3530.00,0.3396
3529.00,0.3399
3528.00,0.3402
3527.00,0.3405
3526.00,0.3409
3525.00,0.3412
3524.00,0.3416
3523.00,0.3419
3522.00,0.3422
3521.00,0.3425
3520.00,0.3429
3519.00,0.3432
3518.00,0.3436
3517.00,0.3440
3516.00,0.3443
3515.00,0.3447
3514.00,0.3451
3513.00,0.3456
3512.00,0.3461
3511.00,0.3466
3510.00,0.3471
3509.00,0.3476
3508.00,0.3481
3507.00,0.3486
3506.00,0.3490
3505.00,0.3495
3504.00,0.3500
3503.00,0.3506
3502.00,0.3512
3501.00,0.3518
3500.00,0.3523
3499.00,0.3528
3498.00,0.3533
3497.00,0.3539
3496.00,0.3544
3495.00,0.3550
3494.00,0.3556
3493.00,0.3562
3492.00,0.3569
3491.00,0.3576
3490.00,0.3584
3489.00,0.3591
3488.00,0.3598
3487.00,0.3604
3486.00,0.3609
3485.00,0.3615
3484.00,0.3620
3483.00,0.3626
3482.00,0.3632
3481.00,0.3637
3480.00,0.3643
3479.00,0.3649
3478.00,0.3654
3477.00,0.3659
3476.00,0.3664
3475.00,0.3670
3474.00,0.3675
3473.00,0.3679
3472.00,0.3685
3471.00,0.3690
3470.00,0.3695
3469.00,0.3701
3468.00,0.3706
3467.00,0.3712
3466.00,0.3717
3465.00,0.3722
3464.00,0.3727
3463.00,0.3733
3462.00,0.3738
3461.00,0.3745
3460.00,0.3751
3459.00,0.3756
3458.00,0.3762
3457.00,0.3768
3456.00,0.3774
3455.00,0.3780
3454.00,0.3787
3453.00,0.3793
3452.00,0.3799
3451.00,0.3805
3450.00,0.3812
3449.00,0.3819
3448.00,0.3826
3447.00,0.3833
3446.00,0.3840
3445.00,0.3847
3444.00,0.3854
3443.00,0.3862
3442.00,0.3869
3441.00,0.3877
3440.00,0.3884
3439.00,0.3892
3438.00,0.3899
3437.00,0.3907
3436.00,0.3914
3435.00,0.3922
3434.00,0.3929
3433.00,0.3936
3432.00,0.3944
3431.00,0.3951
3430.00,0.3959
3429.00,0.3966
3428.00,0.3973
3427.00,0.3981
3426.00,0.3988
3425.00,0.3995
3424.00,0.4002
3423.00,0.4010
3422.00,0.4018
3421.00,0.4027
3420.00,0.4036
3419.00,0.4043
3418.00,0.4051
3417.00,0.4059
3416.00,0.4068
3415.00,0.4078
3414.00,0.4088
3413.00,0.4097
3412.00,0.4106
3411.00,0.4115
3410.00,0.4125
3409.00,0.4135
3408.00,0.4145
3407.00,0.4155
3406.00,0.4165
3405.00,0.4176
3404.00,0.4187
3403.00,0.4197
3402.00,0.4208
3401.00,0.4218
3400.00,0.4228
3399.00,0.4238
3398.00,0.4248
3397.00,0.4258
3396.00,0.4268
3395.00,0.4279
3394.00,0.4289
3393.00,0.4300
3392.00,0.4310
3391.00,0.4320
3390.00,0.4330
3389.00,0.4339
3388.00,0.4349
3387.00,0.4359
3386.00,0.4370
3385.00,0.4381
3384.00,0.4392
3383.00,0.4403
3382.00,0.4414
3381.00,0.4425
3380.00,0.4437
3379.00,0.4449
3378.00,0.4462
3377.00,0.4475
3376.00,0.4489
3375.00,0.4502
3374.00,0.4515
3373.00,0.4527
3372.00,0.4539
3371.00,0.4552
3370.00,0.4567
3369.00,0.4581
3368.00,0.4596
3367.00,0.4610
3366.00,0.4624
3365.00,0.4639
3364.00,0.4653
3363.00,0.4667
3362.00,0.4682
3361.00,0.4698
3360.00,0.4715
3359.00,0.4730
3358.00,0.4746
3357.00,0.4761
3356.00,0.4777
3355.00,0.4793
3354.00,0.4808
3353.00,0.4824
3352.00,0.4840
3351.00,0.4857
3350.00,0.4874
3349.00,0.4892
3348.00,0.4909
3347.00,0.4925
3346.00,0.4940
3345.00,0.4955
3344.00,0.4969
3343.00,0.4983
3342.00,0.4996
3341.00,0.5009
3340.00,0.5022
3339.00,0.5035
3338.00,0.5048
3337.00,0.5060
3336.00,0.5071
3335.00,0.5081
3334.00,0.5091
3333.00,0.5099
3332.00,0.5107
3331.00,0.5114
3330.00,0.5120
3329.00,0.5125
3328.00,0.5130
3327.00,0.5134
3326.00,0.5137
3325.00,0.5139
3324.00,0.5140
3323.00,0.5139
3322.00,0.5137
3321.00,0.5134
3320.00,0.5130
3319.00,0.5126
3318.00,0.5123
3317.00,0.5118
3316.00,0.5113
3315.00,0.5106
3314.00,0.5098
3313.00,0.5090
3312.00,0.5083
3311.00,0.5075
3310.00,0.5067
3309.00,0.5059
3308.00,0.5050
3307.00,0.5041
3306.00,0.5033
3305.00,0.5025
3304.00,0.5016
3303.00,0.5007
3302.00,0.4998
3301.00,0.4989
3300.00,0.4981
3299.00,0.4974
3298.00,0.4966
3297.00,0.4959
3296.00,0.4952
3295.00,0.4946
3294.00,0.4940
3293.00,0.4935
3292.00,0.4930
3291.00,0.4925
3290.00,0.4921
3289.00,0.4917
3288.00,0.4914
3287.00,0.4910
3286.00,0.4907
3285.00,0.4904
3284.00,0.4901
3283.00,0.4900
3282.00,0.4899
3281.00,0.4899
3280.00,0.4899
3279.00,0.4900
3278.00,0.4900
3277.00,0.4901
3276.00,0.4902
3275.00,0.4903
3274.00,0.4905
3273.00,0.4908
3272.00,0.4912
3271.00,0.4915
3270.00,0.4919
3269.00,0.4923
3268.00,0.4927
3267.00,0.4931
3266.00,0.4936
3265.00,0.4941
3264.00,0.4947
3263.00,0.4953
3262.00,0.4958
3261.00,0.4963
3260.00,0.4969
3259.00,0.4974
3258.00,0.4981
3257.00,0.4987
3256.00,0.4992
3255.00,0.4998
3254.00,0.5003
3253.00,0.5009
3252.00,0.5013
3251.00,0.5018
3250.00,0.5023
3249.00,0.5027
3248.00,0.5032
3247.00,0.5037
3246.00,0.5042
3245.00,0.5046
3244.00,0.5050
3243.00,0.5053
3242.00,0.5056
3241.00,0.5059
3240.00,0.5061
3239.00,0.5064
3238.00,0.5067
3237.00,0.5070
3236.00,0.5072
3235.00,0.5075
3234.00,0.5076
3233.00,0.5078
3232.00,0.5078
3231.00,0.5079
3230.00,0.5079
3229.00,0.5080
3228.00,0.5080
3227.00,0.5080
3226.00,0.5080
3225.00,0.5079
3224.00,0.5078
3223.00,0.5077
3222.00,0.5075
3221.00,0.5074
3220.00,0.5073
3219.00,0.5071
3218.00,0.5069
3217.00,0.5067
3216.00,0.5065
3215.00,0.5062
3214.00,0.5059
3213.00,0.5055
3212.00,0.5052
3211.00,0.5049
3210.00,0.5046
3209.00,0.5044
3208.00,0.5041
3207.00,0.5038
3206.00,0.5034
3205.00,0.5029
3204.00,0.5025
3203.00,0.5022
3202.00,0.5020
3201.00,0.5018
3200.00,0.5015
3199.00,0.5012
3198.00,0.5007
3197.00,0.5002
3196.00,0.4997
3195.00,0.4992
3194.00,0.4987
3193.00,0.4983
3192.00,0.4979
3191.00,0.4974
3190.00,0.4969
3189.00,0.4964
3188.00,0.4959
3187.00,0.4954
3186.00,0.4948
3185.00,0.4943
3184.00,0.4936
3183.00,0.4930
3182.00,0.4922
3181.00,0.4915
3180.00,0.4907
3179.00,0.4900
3178.00,0.4892
3177.00,0.4885
3176.00,0.4877
3175.00,0.4870
3174.00,0.4862
3173.00,0.4854
3172.00,0.4846
3171.00,0.4837
3170.00,0.4828
3169.00,0.4819
3168.00,0.4811
3167.00,0.4802
3166.00,0.4794
3165.00,0.4785
3164.00,0.4777
3163.00,0.4769
3162.00,0.4762
3161.00,0.4754
3160.00,0.4746
3159.00,0.4737
3158.00,0.4729
3157.00,0.4722
3156.00,0.4715
3155.00,0.4708
3154.00,0.4701
3153.00,0.4694
3152.00,0.4686
3151.00,0.4678
3150.00,0.4670
3149.00,0.4662
3148.00,0.4654
3147.00,0.4647
3146.00,0.4641
3145.00,0.4635
3144.00,0.4628
3143.00,0.4622
3142.00,0.4615
3141.00,0.4608
3140.00,0.4602
3139.00,0.4597
3138.00,0.4592
3137.00,0.4587
3136.00,0.4583
3135.00,0.4579
3134.00,0.4576
3133.00,0.4572
3132.00,0.4569
3131.00,0.4565
3130.00,0.4563
3129.00,0.4563
3128.00,0.4563
3127.00,0.4563
3126.00,0.4563
3125.00,0.4563
3124.00,0.4563
3123.00,0.4563
3122.00,0.4564
3121.00,0.4565
3120.00,0.4567
3119.00,0.4570
3118.00,0.4573
3117.00,0.4577
3116.00,0.4579
3115.00,0.4582
3114.00,0.4585
3113.00,0.4590
3112.00,0.4595
3111.00,0.4600
3110.00,0.4606
3109.00,0.4613
3108.00,0.4619
3107.00,0.4626
3106.00,0.4633
3105.00,0.4640
3104.00,0.4647
3103.00,0.4654
3102.00,0.4662
3101.00,0.4670
3100.00,0.4678
3099.00,0.4687
3098.00,0.4697
3097.00,0.4708
3096.00,0.4720
3095.00,0.4733
3094.00,0.4749
3093.00,0.4766
3092.00,0.4785
3091.00,0.4806
3090.00,0.4828
3089.00,0.4852
3088.00,0.4877
3087.00,0.4903
3086.00,0.4930
3085.00,0.4957
3084.00,0.4984
3083.00,0.5013
3082.00,0.5043
3081.00,0.5076
3080.00,0.5110
3079.00,0.5145
3078.00,0.5183
3077.00,0.5222
3076.00,0.5263
3075.00,0.5305
3074.00,0.5347
3073.00,0.5390
3072.00,0.5433
3071.00,0.5476
3070.00,0.5520
3069.00,0.5564
3068.00,0.5608
3067.00,0.5651
3066.00,0.5694
3065.00,0.5735
3064.00,0.5773
3063.00,0.5809
3062.00,0.5842
3061.00,0.5873
3060.00,0.5901
3059.00,0.5929
3058.00,0.5956
3057.00,0.5983
3056.00,0.6011
3055.00,0.6040
3054.00,0.6070
3053.00,0.6103
3052.00,0.6138
3051.00,0.6175
3050.00,0.6214
3049.00,0.6254
3048.00,0.6297
3047.00,0.6341
3046.00,0.6387
3045.00,0.6434
3044.00,0.6481
3043.00,0.6526
3042.00,0.6572
3041.00,0.6617
3040.00,0.6664
3039.00,0.6711
3038.00,0.6759
3037.00,0.6810
3036.00,0.6864
3035.00,0.6922
3034.00,0.6985
3033.00,0.7052
3032.00,0.7123
3031.00,0.7200
3030.00,0.7281
3029.00,0.7365
3028.00,0.7452
3027.00,0.7542
3026.00,0.7636
3025.00,0.7734
3024.00,0.7836
3023.00,0.7940
3022.00,0.8048
3021.00,0.8158
3020.00,0.8272
3019.00,0.8388
3018.00,0.8506
3017.00,0.8625
3016.00,0.8744
3015.00,0.8864
3014.00,0.8985
3013.00,0.9108
3012.00,0.9236
3011.00,0.9368
3010.00,0.9506
3009.00,0.9649
3008.00,0.9797
3007.00,0.9951
3006.00,1.0111
3005.00,1.0276
3004.00,1.0446
3003.00,1.0621
3002.00,1.0803
3001.00,1.0993
3000.00,1.1191
2999.00,1.1401
2998.00,1.1626
2997.00,1.1870
2996.00,1.2139
2995.00,1.2436
2994.00,1.2765
2993.00,1.3132
2992.00,1.3540
2991.00,1.3996
2990.00,1.4507
2989.00,1.5078
2988.00,1.5715
2987.00,1.6427
2986.00,1.7224
2985.00,1.8113
2984.00,1.9100
2983.00,2.0188
2982.00,2.1378
2981.00,2.2664
2980.00,2.4048
2979.00,2.5566
2978.00,2.7277
2977.00,2.9175
2976.00,3.1146
2975.00,3.3048
2974.00,3.4972
2973.00,3.7173
2972.00,3.9735
2971.00,4.2268
2970.00,4.2234
2969.00,4.0418
2968.00,3.9502
2967.00,3.9131
2966.00,3.8368
2965.00,3.7624
2964.00,3.7672
2963.00,3.8753
2962.00,4.0030
2961.00,4.0194
2960.00,3.9228
2959.00,3.7977
2958.00,3.7334
2957.00,3.7475
2956.00,3.8525
2955.00,4.0762
2954.00,4.3161
2953.00,4.3295
2952.00,4.3104
2951.00,4.4524
2950.00,4.3627
2949.00,4.1636
2948.00,4.0367
2947.00,4.1152
2946.00,4.3387
2945.00,4.3348
2944.00,4.1592
2943.00,3.9882
2942.00,3.9693
2941.00,4.0218
2940.00,4.1064
2939.00,4.2428
2938.00,4.2696
2937.00,4.1292
2936.00,3.9981
2935.00,4.0290
2934.00,4.1618
2933.00,4.1462
2932.00,4.0006
2931.00,3.8421
2930.00,3.7486
2929.00,3.7279
2928.00,3.8366
2927.00,4.0670
2926.00,4.2480
2925.00,4.2750
2924.00,4.2465
2923.00,4.1803
2922.00,4.2016
2921.00,4.4637
2920.00,4.4865
2919.00,4.3484
2918.00,4.3625
2917.00,4.4735
2916.00,4.1281
2915.00,3.8572
2914.00,3.8020
2913.00,3.8975
2912.00,4.0646
2911.00,4.3015
2910.00,4.4740
2909.00,4.4462
2908.00,4.3328
2907.00,4.3548
2906.00,4.6147
2905.00,4.5366
2904.00,4.3354
2903.00,4.1782
2902.00,4.2628
2901.00,4.4983
2900.00,4.3138
2899.00,4.0659
2898.00,3.8850
2897.00,3.8640
2896.00,3.9333
2895.00,4.1264
2894.00,4.5736
2893.00,4.5278
2892.00,4.3371
2891.00,4.2428
2890.00,4.2811
2889.00,4.2574
2888.00,4.2565
2887.00,4.2870
2886.00,4.1426
2885.00,4.0266
2884.00,3.9955
2883.00,3.9740
2882.00,3.9122
2881.00,3.8802
2880.00,3.9406
2879.00,4.1112
2878.00,4.3110
2877.00,4.4711
2876.00,4.6602
2875.00,4.7869
2874.00,4.5305
2873.00,4.1279
2872.00,3.9545
2871.00,3.9424
2870.00,4.0765
2869.00,4.2354
2868.00,4.3973
2867.00,4.5308
2866.00,4.2217
2865.00,4.1054
2864.00,4.1794
2863.00,4.2747
2862.00,4.0963
2861.00,3.9507
2860.00,4.0046
2859.00,4.0722
2858.00,4.0550
2857.00,4.0604
2856.00,4.2027
2855.00,4.4382
2854.00,4.2571
2853.00,4.0080
2852.00,3.9352
2851.00,4.0566
2850.00,4.2493
2849.00,4.2419
2848.00,4.0631
2847.00,3.9103
2846.00,3.8244
2845.00,3.7643
2844.00,3.7580
2843.00,3.8442
2842.00,4.0204
2841.00,4.3272
2840.00,4.4036
2839.00,3.9167
2838.00,3.5227
2837.00,3.2277
2836.00,2.9814
2835.00,2.7639
2834.00,2.5736
2833.00,2.4043
2832.00,2.2524
2831.00,2.1168
2830.00,1.9960
2829.00,1.8886
2828.00,1.7934
2827.00,1.7088
2826.00,1.6332
2825.00,1.5648
2824.00,1.5025
2823.00,1.4453
2822.00,1.3925
2821.00,1.3437
2820.00,1.2988
2819.00,1.2576
2818.00,1.2196
2817.00,1.1842
2816.00,1.1513
2815.00,1.1204
2814.00,1.0914
2813.00,1.0641
2812.00,1.0384
2811.00,1.0144
2810.00,0.9919
2809.00,0.9704
2808.00,0.9498
2807.00,0.9300
2806.00,0.9112
2805.00,0.8934
2804.00,0.8766
2803.00,0.8608
2802.00,0.8457
2801.00,0.8314
2800.00,0.8176
2799.00,0.8045
2798.00,0.7919
2797.00,0.7799
2796.00,0.7683
2795.00,0.7572
2794.00,0.7465
2793.00,0.7360
2792.00,0.7259
2791.00,0.7160
2790.00,0.7064
2789.00,0.6969
2788.00,0.6875
2787.00,0.6783
2786.00,0.6692
2785.00,0.6604
2784.00,0.6520
2783.00,0.6438
2782.00,0.6358
2781.00,0.6281
2780.00,0.6208
2779.00,0.6139
2778.00,0.6074
2777.00,0.6013
2776.00,0.5955
2775.00,0.5900
2774.00,0.5847
2773.00,0.5796
2772.00,0.5749
2771.00,0.5707
2770.00,0.5668
2769.00,0.5633
2768.00,0.5602
2767.00,0.5573
2766.00,0.5546
2765.00,0.5523
2764.00,0.5502
2763.00,0.5485
2762.00,0.5469
2761.00,0.5456
2760.00,0.5444
2759.00,0.5432
2758.00,0.5421
2757.00,0.5410
2756.00,0.5399
2755.00,0.5388
2754.00,0.5378
2753.00,0.5370
2752.00,0.5365
2751.00,0.5363
2750.00,0.5362
2749.00,0.5363
2748.00,0.5366
2747.00,0.5371
2746.00,0.5379
2745.00,0.5390
2744.00,0.5404
2743.00,0.5421
2742.00,0.5441
2741.00,0.5465
2740.00,0.5492
2739.00,0.5523
2738.00,0.5560
2737.00,0.5601
2736.00,0.5648
2735.00,0.5699
2734.00,0.5752
2733.00,0.5804
2732.00,0.5853
2731.00,0.5894
2730.00,0.5925
2729.00,0.5945
2728.00,0.5954
2727.00,0.5952
2726.00,0.5942
2725.00,0.5926
2724.00,0.5906
2723.00,0.5883
2722.00,0.5858
2721.00,0.5829
2720.00,0.5797
2719.00,0.5761
2718.00,0.5723
2717.00,0.5682
2716.00,0.5638
2715.00,0.5593
2714.00,0.5548
2713.00,0.5504
2712.00,0.5462
2711.00,0.5425
2710.00,0.5391
2709.00,0.5361
2708.00,0.5334
2707.00,0.5312
2706.00,0.5293
2705.00,0.5277
2704.00,0.5264
2703.00,0.5254
2702.00,0.5247
2701.00,0.5243
2700.00,0.5241
2699.00,0.5241
2698.00,0.5243
2697.00,0.5247
2696.00,0.5252
2695.00,0.5259
2694.00,0.5266
2693.00,0.5274
2692.00,0.5284
2691.00,0.5294
2690.00,0.5303
2689.00,0.5312
2688.00,0.5320
2687.00,0.5327
2686.00,0.5334
2685.00,0.5339
2684.00,0.5344
2683.00,0.5348
2682.00,0.5351
2681.00,0.5355
2680.00,0.5359
2679.00,0.5363
2678.00,0.5368
2677.00,0.5372
2676.00,0.5376
2675.00,0.5379
2674.00,0.5383
2673.00,0.5386
2672.00,0.5388
2671.00,0.5388
2670.00,0.5386
2669.00,0.5380
2668.00,0.5371
2667.00,0.5359
2666.00,0.5345
2665.00,0.5329
2664.00,0.5312
2663.00,0.5295
2662.00,0.5276
2661.00,0.5257
2660.00,0.5236
2659.00,0.5214
2658.00,0.5192
2657.00,0.5171
2656.00,0.5151
2655.00,0.5133
2654.00,0.5115
2653.00,0.5099
2652.00,0.5083
2651.00,0.5067
2650.00,0.5052
2649.00,0.5037
2648.00,0.5023
2647.00,0.5010
2646.00,0.4997
2645.00,0.4985
2644.00,0.4974
2643.00,0.4963
2642.00,0.4953
2641.00,0.4943
2640.00,0.4934
2639.00,0.4925
2638.00,0.4915
2637.00,0.4905
2636.00,0.4895
2635.00,0.4886
2634.00,0.4877
2633.00,0.4869
2632.00,0.4860
2631.00,0.4851
2630.00,0.4842
2629.00,0.4833
2628.00,0.4824
2627.00,0.4815
2626.00,0.4806
2625.00,0.4798
2624.00,0.4790
2623.00,0.4782
2622.00,0.4774
2621.00,0.4765
2620.00,0.4757
2619.00,0.4749
2618.00,0.4741
2617.00,0.4732
2616.00,0.4723
2615.00,0.4714
2614.00,0.4706
2613.00,0.4697
2612.00,0.4689
2611.00,0.4680
2610.00,0.4671
2609.00,0.4661
2608.00,0.4652
2607.00,0.4643
2606.00,0.4634
2605.00,0.4624
2604.00,0.4614
2603.00,0.4604
2602.00,0.4592
2601.00,0.4580
2600.00,0.4566
2599.00,0.4552
2598.00,0.4538
2597.00,0.4524
2596.00,0.4510
2595.00,0.4496
2594.00,0.4481
2593.00,0.4465
2592.00,0.4449
2591.00,0.4434
2590.00,0.4418
2589.00,0.4403
2588.00,0.4387
2587.00,0.4372
2586.00,0.4357
2585.00,0.4341
2584.00,0.4324
2583.00,0.4308
2582.00,0.4293
2581.00,0.4277
2580.00,0.4261
2579.00,0.4244
2578.00,0.4227
2577.00,0.4210
2576.00,0.4194
2575.00,0.4177
2574.00,0.4161
2573.00,0.4145
2572.00,0.4130
2571.00,0.4115
2570.00,0.4101
2569.00,0.4086
2568.00,0.4071
2567.00,0.4056
2566.00,0.4041
2565.00,0.4026
2564.00,0.4013
2563.00,0.3999
2562.00,0.3984
2561.00,0.3970
2560.00,0.3956
2559.00,0.3942
2558.00,0.3929
2557.00,0.3917
2556.00,0.3905
2555.00,0.3895
2554.00,0.3884
2553.00,0.3874
2552.00,0.3864
2551.00,0.3854
2550.00,0.3844
2549.00,0.3835
2548.00,0.3826
2547.00,0.3818
2546.00,0.3810
2545.00,0.3802
2544.00,0.3794
2543.00,0.3786
2542.00,0.3779
2541.00,0.3772
2540.00,0.3765
2539.00,0.3759
2538.00,0.3752
2537.00,0.3746
2536.00,0.3739
2535.00,0.3732
2534.00,0.3725
2533.00,0.3717
2532.00,0.3709
2531.00,0.3702
2530.00,0.3694
2529.00,0.3685
2528.00,0.3676
2527.00,0.3666
2526.00,0.3655
2525.00,0.3645
2524.00,0.3634
2523.00,0.3624
2522.00,0.3614
2521.00,0.3604
2520.00,0.3595
2519.00,0.3586
2518.00,0.3578
2517.00,0.3569
2516.00,0.3561
2515.00,0.3553
2514.00,0.3546
2513.00,0.3539
2512.00,0.3533
2511.00,0.3527
2510.00,0.3521
2509.00,0.3516
2508.00,0.3510
2507.00,0.3505
2506.00,0.3501
2505.00,0.3496
2504.00,0.3491
2503.00,0.3486
2502.00,0.3481
2501.00,0.3476
2500.00,0.3471
2499.00,0.3467
2498.00,0.3462
2497.00,0.3458
2496.00,0.3454
2495.00,0.3449
2494.00,0.3444
2493.00,0.3438
2492.00,0.3433
2491.00,0.3428
2490.00,0.3424
2489.00,0.3419
2488.00,0.3414
2487.00,0.3409
2486.00,0.3405
2485.00,0.3400
2484.00,0.3396
2483.00,0.3393
2482.00,0.3389
2481.00,0.3386
2480.00,0.3383
2479.00,0.3380
2478.00,0.3377
2477.00,0.3374
2476.00,0.3372
2475.00,0.3369
2474.00,0.3367
2473.00,0.3365
2472.00,0.3364
2471.00,0.3363
2470.00,0.3361
2469.00,0.3359
2468.00,0.3357
2467.00,0.3355
2466.00,0.3353
2465.00,0.3351
2464.00,0.3348
2463.00,0.3345
2462.00,0.3342
2461.00,0.3339
2460.00,0.3336
2459.00,0.3334
2458.00,0.3332
2457.00,0.3329
2456.00,0.3327
2455.00,0.3324
2454.00,0.3322
2453.00,0.3320
2452.00,0.3318
2451.00,0.3316
2450.00,0.3314
2449.00,0.3313
2448.00,0.3312
2447.00,0.3310
2446.00,0.3310
2445.00,0.3309
2444.00,0.3309
2443.00,0.3309
2442.00,0.3310
2441.00,0.3310
2440.00,0.3311
2439.00,0.3312
2438.00,0.3313
2437.00,0.3314
2436.00,0.3315
2435.00,0.3317
2434.00,0.3318
2433.00,0.3319
2432.00,0.3320
2431.00,0.3321
2430.00,0.3322
2429.00,0.3323
2428.00,0.3324
2427.00,0.3325
2426.00,0.3325
2425.00,0.3325
2424.00,0.3325
2423.00,0.3326
2422.00,0.3326
2421.00,0.3327
2420.00,0.3327
2419.00,0.3327
2418.00,0.3326
2417.00,0.3325
2416.00,0.3325
2415.00,0.3324
2414.00,0.3324
2413.00,0.3323
2412.00,0.3323
2411.00,0.3323
2410.00,0.3323
2409.00,0.3323
2408.00,0.3324
2407.00,0.3323
2406.00,0.3323
2405.00,0.3322
2404.00,0.3322
2403.00,0.3321
2402.00,0.3320
2401.00,0.3319
2400.00,0.3318
2399.00,0.3317
2398.00,0.3317
2397.00,0.3316
2396.00,0.3315
2395.00,0.3314
2394.00,0.3312
2393.00,0.3311
2392.00,0.3310
2391.00,0.3310
2390.00,0.3310
2389.00,0.3309
2388.00,0.3309
2387.00,0.3309
2386.00,0.3308
2385.00,0.3307
2384.00,0.3307
2383.00,0.3306
2382.00,0.3306
2381.00,0.3305
2380.00,0.3305
2379.00,0.3304
2378.00,0.3304
2377.00,0.3304
2376.00,0.3303
2375.00,0.3303
2374.00,0.3302
2373.00,0.3301
2372.00,0.3301
2371.00,0.3300
2370.00,0.3300
2369.00,0.3299
2368.00,0.3298
2367.00,0.3297
2366.00,0.3295
2365.00,0.3295
2364.00,0.3295
2363.00,0.3295
2362.00,0.3295
2361.00,0.3294
2360.00,0.3294
2359.00,0.3293
2358.00,0.3292
2357.00,0.3291
2356.00,0.3290
2355.00,0.3288
2354.00,0.3286
2353.00,0.3283
2352.00,0.3283
2351.00,0.3285
2350.00,0.3287
2349.00,0.3289
2348.00,0.3289
2347.00,0.3287
2346.00,0.3282
2345.00,0.3279
2344.00,0.3277
2343.00,0.3277
2342.00,0.3277
2341.00,0.3277
2340.00,0.3275
2339.00,0.3274
2338.00,0.3273
2337.00,0.3273
2336.00,0.3272
2335.00,0.3271
2334.00,0.3269
2333.00,0.3266
2332.00,0.3264
2331.00,0.3262
2330.00,0.3260
2329.00,0.3259
2328.00,0.3257
2327.00,0.3254
2326.00,0.3251
2325.00,0.3248
2324.00,0.3245
2323.00,0.3242
2322.00,0.3239
2321.00,0.3237
2320.00,0.3235
2319.00,0.3233
2318.00,0.3231
2317.00,0.3230
2316.00,0.3228
2315.00,0.3225
2314.00,0.3223
2313.00,0.3220
2312.00,0.3217
2311.00,0.3213
2310.00,0.3210
2309.00,0.3207
2308.00,0.3203
2307.00,0.3200
2306.00,0.3197
2305.00,0.3194
2304.00,0.3191
2303.00,0.3188
2302.00,0.3185
2301.00,0.3182
2300.00,0.3179
2299.00,0.3176
2298.00,0.3173
2297.00,0.3170
2296.00,0.3168
2295.00,0.3165
2294.00,0.3162
2293.00,0.3159
2292.00,0.3156
2291.00,0.3152
2290.00,0.3149
2289.00,0.3147
2288.00,0.3145
2287.00,0.3142
2286.00,0.3140
2285.00,0.3138
2284.00,0.3136
2283.00,0.3134
2282.00,0.3132
2281.00,0.3130
2280.00,0.3127
2279.00,0.3124
2278.00,0.3121
2277.00,0.3118
2276.00,0.3115
2275.00,0.3113
2274.00,0.3111
2273.00,0.3109
2272.00,0.3108
2271.00,0.3106
2270.00,0.3104
2269.00,0.3102
2268.00,0.3101
2267.00,0.3099
2266.00,0.3096
2265.00,0.3094
2264.00,0.3091
2263.00,0.3089
2262.00,0.3086
2261.00,0.3083
2260.00,0.3080
2259.00,0.3077
2258.00,0.3074
2257.00,0.3072
2256.00,0.3069
2255.00,0.3067
2254.00,0.3064
2253.00,0.3061
2252.00,0.3058
2251.00,0.3055
2250.00,0.3052
2249.00,0.3050
2248.00,0.3047
2247.00,0.3045
2246.00,0.3043
2245.00,0.3042
2244.00,0.3040
2243.00,0.3038
2242.00,0.3037
2241.00,0.3036
2240.00,0.3035
2239.00,0.3033
2238.00,0.3032
2237.00,0.3032
2236.00,0.3032
2235.00,0.3031
2234.00,0.3031
2233.00,0.3031
2232.00,0.3030
2231.00,0.3030
2230.00,0.3029
2229.00,0.3028
2228.00,0.3027
2227.00,0.3026
2226.00,0.3025
2225.00,0.3023
2224.00,0.3021
2223.00,0.3020
2222.00,0.3018
2221.00,0.3016
2220.00,0.3015
2219.00,0.3013
2218.00,0.3012
2217.00,0.3010
2216.00,0.3009
2215.00,0.3007
2214.00,0.3006
2213.00,0.3004
2212.00,0.3003
2211.00,0.3002
2210.00,0.3002
2209.00,0.3002
2208.00,0.3002
2207.00,0.3002
2206.00,0.3002
2205.00,0.3003
2204.00,0.3003
2203.00,0.3004
2202.00,0.3004
2201.00,0.3005
2200.00,0.3005
2199.00,0.3005
2198.00,0.3005
2197.00,0.3006
2196.00,0.3007
2195.00,0.3008
2194.00,0.3009
2193.00,0.3010
2192.00,0.3011
2191.00,0.3011
2190.00,0.3011
2189.00,0.3011
2188.00,0.3010
2187.00,0.3010
2186.00,0.3009
2185.00,0.3008
2184.00,0.3007
2183.00,0.3006
2182.00,0.3004
2181.00,0.3002
2180.00,0.3000
2179.00,0.2998
2178.00,0.2996
2177.00,0.2994
2176.00,0.2993
2175.00,0.2991
2174.00,0.2990
2173.00,0.2989
2172.00,0.2988
2171.00,0.2986
2170.00,0.2985
2169.00,0.2984
2168.00,0.2983
2167.00,0.2982
2166.00,0.2980
2165.00,0.2979
2164.00,0.2978
2163.00,0.2978
2162.00,0.2977
2161.00,0.2976
2160.00,0.2976
2159.00,0.2976
2158.00,0.2976
2157.00,0.2975
2156.00,0.2974
2155.00,0.2973
2154.00,0.2972
2153.00,0.2971
2152.00,0.2969
2151.00,0.2968
2150.00,0.2965
2149.00,0.2963
2148.00,0.2960
2147.00,0.2956
2146.00,0.2951
2145.00,0.2946
2144.00,0.2941
2143.00,0.2936
2142.00,0.2931
2141.00,0.2926
2140.00,0.2922
2139.00,0.2917
2138.00,0.2913
2137.00,0.2909
2136.00,0.2906
2135.00,0.2904
2134.00,0.2902
2133.00,0.2900
2132.00,0.2898
2131.00,0.2896
2130.00,0.2894
2129.00,0.2893
2128.00,0.2892
2127.00,0.2891
2126.00,0.2890
2125.00,0.2889
2124.00,0.2889
2123.00,0.2889
2122.00,0.2889
2121.00,0.2889
2120.00,0.2889
2119.00,0.2889
2118.00,0.2889
2117.00,0.2888
2116.00,0.2887
2115.00,0.2886
2114.00,0.2885
2113.00,0.2885
2112.00,0.2884
2111.00,0.2883
2110.00,0.2881
2109.00,0.2879
2108.00,0.2878
2107.00,0.2876
2106.00,0.2874
2105.00,0.2873
2104.00,0.2872
2103.00,0.2871
2102.00,0.2870
2101.00,0.2869
2100.00,0.2867
2099.00,0.2866
2098.00,0.2865
2097.00,0.2864
2096.00,0.2864
2095.00,0.2864
2094.00,0.2863
2093.00,0.2863
2092.00,0.2862
2091.00,0.2862
2090.00,0.2861
2089.00,0.2861
2088.00,0.2861
2087.00,0.2861
2086.00,0.2862
2085.00,0.2862
2084.00,0.2863
2083.00,0.2864
2082.00,0.2865
2081.00,0.2865
2080.00,0.2866
2079.00,0.2867
2078.00,0.2867
2077.00,0.2868
2076.00,0.2868
2075.00,0.2869
2074.00,0.2869
2073.00,0.2869
2072.00,0.2870
2071.00,0.2870
2070.00,0.2870
2069.00,0.2870
2068.00,0.2871
2067.00,0.2870
2066.00,0.2870
2065.00,0.2871
2064.00,0.2872
2063.00,0.2873
2062.00,0.2873
2061.00,0.2874
2060.00,0.2875
2059.00,0.2876
2058.00,0.2877
2057.00,0.2878
2056.00,0.2879
2055.00,0.2879
2054.00,0.2880
2053.00,0.2881
2052.00,0.2883
2051.00,0.2884
2050.00,0.2886
2049.00,0.2888
2048.00,0.2891
2047.00,0.2893
2046.00,0.2895
2045.00,0.2897
2044.00,0.2899
2043.00,0.2901
2042.00,0.2902
2041.00,0.2904
2040.00,0.2906
2039.00,0.2907
2038.00,0.2907
2037.00,0.2908
2036.00,0.2909
2035.00,0.2909
2034.00,0.2910
2033.00,0.2910
2032.00,0.2910
2031.00,0.2910
2030.00,0.2910
2029.00,0.2909
2028.00,0.2909
2027.00,0.2908
2026.00,0.2906
2025.00,0.2904
2024.00,0.2902
2023.00,0.2899
2022.00,0.2896
2021.00,0.2892
2020.00,0.2888
2019.00,0.2882
2018.00,0.2876
2017.00,0.2871
2016.00,0.2866
2015.00,0.2860
2014.00,0.2855
2013.00,0.2850
2012.00,0.2846
2011.00,0.2841
2010.00,0.2837
2009.00,0.2834
2008.00,0.2831
2007.00,0.2828
2006.00,0.2825
2005.00,0.2823
2004.00,0.2821
2003.00,0.2820
2002.00,0.2818
2001.00,0.2818
2000.00,0.2817
1999.00,0.2816
1998.00,0.2814
1997.00,0.2813
1996.00,0.2811
1995.00,0.2810
1994.00,0.2808
1993.00,0.2806
1992.00,0.2805
1991.00,0.2804
1990.00,0.2804
1989.00,0.2805
1988.00,0.2805
1987.00,0.2805
1986.00,0.2804
1985.00,0.2804
1984.00,0.2803
1983.00,0.2802
1982.00,0.2800
1981.00,0.2799
1980.00,0.2798
1979.00,0.2797
1978.00,0.2796
1977.00,0.2796
1976.00,0.2796
1975.00,0.2795
1974.00,0.2794
1973.00,0.2794
1972.00,0.2794
1971.00,0.2794
1970.00,0.2793
1969.00,0.2793
1968.00,0.2792
1967.00,0.2793
1966.00,0.2794
1965.00,0.2796
1964.00,0.2799
1963.00,0.2800
1962.00,0.2801
1961.00,0.2802
1960.00,0.2803
1959.00,0.2805
1958.00,0.2807
1957.00,0.2810
1956.00,0.2812
1955.00,0.2814
1954.00,0.2815
1953.00,0.2817
1952.00,0.2818
1951.00,0.2819
1950.00,0.2819
1949.00,0.2820
1948.00,0.2820
1947.00,0.2821
1946.00,0.2821
1945.00,0.2823
1944.00,0.2825
1943.00,0.2828
1942.00,0.2833
1941.00,0.2838
1940.00,0.2844
1939.00,0.2848
1938.00,0.2850
1937.00,0.2850
1936.00,0.2849
1935.00,0.2847
1934.00,0.2845
1933.00,0.2844
1932.00,0.2844
1931.00,0.2844
1930.00,0.2844
1929.00,0.2845
1928.00,0.2846
1927.00,0.2846
1926.00,0.2847
1925.00,0.2848
1924.00,0.2850
1923.00,0.2852
1922.00,0.2856
1921.00,0.2862
1920.00,0.2868
1919.00,0.2872
1918.00,0.2876
1917.00,0.2879
1916.00,0.2883
1915.00,0.2886
1914.00,0.2888
1913.00,0.2890
1912.00,0.2890
1911.00,0.2890
1910.00,0.2889
1909.00,0.2889
1908.00,0.2890
1907.00,0.2890
1906.00,0.2891
1905.00,0.2891
1904.00,0.2891
1903.00,0.2891
1902.00,0.2891
1901.00,0.2891
1900.00,0.2891
1899.00,0.2891
1898.00,0.2891
1897.00,0.2891
1896.00,0.2893
1895.00,0.2894
1894.00,0.2896
1893.00,0.2897
1892.00,0.2898
1891.00,0.2898
1890.00,0.2898
1889.00,0.2899
1888.00,0.2902
1887.00,0.2904
1886.00,0.2906
1885.00,0.2908
1884.00,0.2909
1883.00,0.2911
1882.00,0.2911
1881.00,0.2912
1880.00,0.2912
1879.00,0.2912
1878.00,0.2911
1877.00,0.2910
1876.00,0.2909
1875.00,0.2907
1874.00,0.2905
1873.00,0.2902
1872.00,0.2899
1871.00,0.2895
1870.00,0.2890
1869.00,0.2886
1868.00,0.2885
1867.00,0.2884
1866.00,0.2884
1865.00,0.2883
1864.00,0.2882
1863.00,0.2879
1862.00,0.2875
1861.00,0.2872
1860.00,0.2869
1859.00,0.2865
1858.00,0.2862
1857.00,0.2860
1856.00,0.2858
1855.00,0.2856
1854.00,0.2854
1853.00,0.2853
1852.00,0.2852
1851.00,0.2851
1850.00,0.2849
1849.00,0.2847
1848.00,0.2845
1847.00,0.2844
1846.00,0.2843
1845.00,0.2843
1844.00,0.2844
1843.00,0.2844
1842.00,0.2845
1841.00,0.2846
1840.00,0.2847
1839.00,0.2846
1838.00,0.2845
1837.00,0.2844
1836.00,0.2844
1835.00,0.2844
1834.00,0.2843
1833.00,0.2842
1832.00,0.2840
1831.00,0.2838
1830.00,0.2836
1829.00,0.2835
1828.00,0.2834
1827.00,0.2833
1826.00,0.2832
1825.00,0.2831
1824.00,0.2831
1823.00,0.2831
1822.00,0.2831
1821.00,0.2831
1820.00,0.2831
1819.00,0.2830
1818.00,0.2829
1817.00,0.2830
1816.00,0.2832
1815.00,0.2833
1814.00,0.2833
1813.00,0.2834
1812.00,0.2835
1811.00,0.2837
1810.00,0.2839
1809.00,0.2843
1808.00,0.2848
1807.00,0.2852
1806.00,0.2856
1805.00,0.2859
1804.00,0.2862
1803.00,0.2864
1802.00,0.2867
1801.00,0.2874
1800.00,0.2882
1799.00,0.2890
1798.00,0.2895
1797.00,0.2899
1796.00,0.2903
1795.00,0.2906
1794.00,0.2909
1793.00,0.2911
1792.00,0.2915
1791.00,0.2919
1790.00,0.2924
1789.00,0.2930
1788.00,0.2934
1787.00,0.2937
1786.00,0.2938
1785.00,0.2940
1784.00,0.2944
1783.00,0.2947
1782.00,0.2949
1781.00,0.2952
1780.00,0.2956
1779.00,0.2960
1778.00,0.2964
1777.00,0.2969
1776.00,0.2974
1775.00,0.2979
1774.00,0.2985
1773.00,0.2993
1772.00,0.3001
1771.00,0.3008
1770.00,0.3014
1769.00,0.3022
1768.00,0.3033
1767.00,0.3046
1766.00,0.3058
1765.00,0.3071
1764.00,0.3084
1763.00,0.3097
1762.00,0.3112
1761.00,0.3130
1760.00,0.3150
1759.00,0.3171
1758.00,0.3194
1757.00,0.3223
1756.00,0.3255
1755.00,0.3287
1754.00,0.3317
1753.00,0.3349
1752.00,0.3384
1751.00,0.3421
1750.00,0.3459
1749.00,0.3495
1748.00,0.3528
1747.00,0.3554
1746.00,0.3575
1745.00,0.3590
1744.00,0.3601
1743.00,0.3607
1742.00,0.3610
1741.00,0.3611
1740.00,0.3607
1739.00,0.3598
1738.00,0.3587
1737.00,0.3576
1736.00,0.3564
1735.00,0.3549
1734.00,0.3531
1733.00,0.3517
1732.00,0.3509
1731.00,0.3504
1730.00,0.3502
1729.00,0.3503
1728.00,0.3507
1727.00,0.3514
1726.00,0.3522
1725.00,0.3535
1724.00,0.3552
1723.00,0.3574
1722.00,0.3599
1721.00,0.3628
1720.00,0.3663
1719.00,0.3710
1718.00,0.3773
1717.00,0.3854
1716.00,0.3948
1715.00,0.4049
1714.00,0.4158
1713.00,0.4272
1712.00,0.4384
1711.00,0.4490
1710.00,0.4585
1709.00,0.4659
1708.00,0.4704
1707.00,0.4716
1706.00,0.4696
1705.00,0.4646
1704.00,0.4580
1703.00,0.4510
1702.00,0.4429
1701.00,0.4318
1700.00,0.4187
1699.00,0.4075
1698.00,0.3997
1697.00,0.3931
1696.00,0.3861
1695.00,0.3792
1694.00,0.3739
1693.00,0.3701
1692.00,0.3669
1691.00,0.3637
1690.00,0.3606
1689.00,0.3579
1688.00,0.3559
1687.00,0.3545
1686.00,0.3532
1685.00,0.3516
1684.00,0.3496
1683.00,0.3480
1682.00,0.3470
1681.00,0.3465
1680.00,0.3461
1679.00,0.3455
1678.00,0.3451
1677.00,0.3446
1676.00,0.3441
1675.00,0.3436
1674.00,0.3431
1673.00,0.3428
1672.00,0.3426
1671.00,0.3423
1670.00,0.3420
1669.00,0.3419
1668.00,0.3420
1667.00,0.3420
1666.00,0.3421
1665.00,0.3423
1664.00,0.3424
1663.00,0.3424
1662.00,0.3426
1661.00,0.3429
1660.00,0.3433
1659.00,0.3436
1658.00,0.3438
1657.00,0.3440
1656.00,0.3443
1655.00,0.3447
1654.00,0.3455
1653.00,0.3469
1652.00,0.3481
1651.00,0.3487
1650.00,0.3491
1649.00,0.3498
1648.00,0.3507
1647.00,0.3519
1646.00,0.3534
1645.00,0.3549
1644.00,0.3564
1643.00,0.3577
1642.00,0.3590
1641.00,0.3605
1640.00,0.3621
1639.00,0.3636
1638.00,0.3651
1637.00,0.3672
1636.00,0.3699
1635.00,0.3726
1634.00,0.3750
1633.00,0.3772
1632.00,0.3793
1631.00,0.3814
1630.00,0.3837
1629.00,0.3864
1628.00,0.3893
1627.00,0.3923
1626.00,0.3953
1625.00,0.3988
1624.00,0.4030
1623.00,0.4078
1622.00,0.4130
1621.00,0.4185
1620.00,0.4246
1619.00,0.4313
1618.00,0.4397
1617.00,0.4505
1616.00,0.4625
1615.00,0.4736
1614.00,0.4836
1613.00,0.4935
1612.00,0.5041
1611.00,0.5147
1610.00,0.5251
1609.00,0.5354
1608.00,0.5455
1607.00,0.5544
1606.00,0.5620
1605.00,0.5690
1604.00,0.5758
1603.00,0.5824
1602.00,0.5887
1601.00,0.5957
1600.00,0.6035
1599.00,0.6121
1598.00,0.6219
1597.00,0.6344
1596.00,0.6507
1595.00,0.6713
1594.00,0.6967
1593.00,0.7290
1592.00,0.7700
1591.00,0.8212
1590.00,0.8846
1589.00,0.9649
1588.00,1.0675
1587.00,1.1959
1586.00,1.3519
1585.00,1.5399
1584.00,1.7642
1583.00,2.0001
1582.00,2.1499
1581.00,2.1315
1580.00,2.0000
1579.00,1.8157
1578.00,1.6088
1577.00,1.4089
1576.00,1.2413
1575.00,1.1184
1574.00,1.0355
1573.00,0.9792
1572.00,0.9381
1571.00,0.9062
1570.00,0.8839
1569.00,0.8750
1568.00,0.8814
1567.00,0.9021
1566.00,0.9380
1565.00,0.9921
1564.00,1.0623
1563.00,1.1371
1562.00,1.2028
1561.00,1.2487
1560.00,1.2486
1559.00,1.1709
1558.00,1.0593
1557.00,0.9681
1556.00,0.8957
1555.00,0.8289
1554.00,0.7675
1553.00,0.7175
1552.00,0.6799
1551.00,0.6498
1550.00,0.6242
1549.00,0.6033
1548.00,0.5873
1547.00,0.5747
1546.00,0.5635
1545.00,0.5538
1544.00,0.5460
1543.00,0.5399
1542.00,0.5345
1541.00,0.5295
1540.00,0.5245
1539.00,0.5196
1538.00,0.5152
1537.00,0.5117
1536.00,0.5087
1535.00,0.5055
1534.00,0.5022
1533.00,0.4997
1532.00,0.4988
1531.00,0.4988
1530.00,0.4993
1529.00,0.4999
1528.00,0.5005
1527.00,0.5005
1526.00,0.4999
1525.00,0.4993
1524.00,0.4990
1523.00,0.4988
1522.00,0.4990
1521.00,0.5003
1520.00,0.5029
1519.00,0.5059
1518.00,0.5092
1517.00,0.5129
1516.00,0.5165
1515.00,0.5190
1514.00,0.5202
1513.00,0.5209
1512.00,0.5214
1511.00,0.5220
1510.00,0.5234
1509.00,0.5265
1508.00,0.5327
1507.00,0.5425
1506.00,0.5550
1505.00,0.5672
1504.00,0.5774
1503.00,0.5859
1502.00,0.5935
1501.00,0.6009
1500.00,0.6082
1499.00,0.6150
1498.00,0.6223
1497.00,0.6316
1496.00,0.6426
1495.00,0.6537
1494.00,0.6642
1493.00,0.6753
1492.00,0.6875
1491.00,0.7012
1490.00,0.7168
1489.00,0.7348
1488.00,0.7546
1487.00,0.7755
1486.00,0.7987
1485.00,0.8257
1484.00,0.8569
1483.00,0.8928
1482.00,0.9354
1481.00,0.9859
1480.00,1.0427
1479.00,1.1045
1478.00,1.1747
1477.00,1.2584
1476.00,1.3567
1475.00,1.4687
1474.00,1.6037
1473.00,1.7823
1472.00,2.0156
1471.00,2.2883
1470.00,2.5846
1469.00,2.9237
1468.00,3.3012
1467.00,3.5282
1466.00,3.6307
1465.00,3.8648
1464.00,4.2581
1463.00,4.2041
1462.00,4.1594
1461.00,4.0677
1460.00,3.8110
1459.00,4.0642
1458.00,4.5094
1457.00,4.3727
1456.00,4.5383
1455.00,4.0949
1454.00,3.9151
1453.00,4.2871
1452.00,4.3085
1451.00,3.8588
1450.00,3.5929
1449.00,3.4718
1448.00,3.2820
1447.00,3.0480
1446.00,2.8988
1445.00,2.7981
1444.00,2.6737
1443.00,2.5205
1442.00,2.3786
1441.00,2.2570
1440.00,2.1431
1439.00,2.0293
1438.00,1.9132
1437.00,1.7920
1436.00,1.6727
1435.00,1.5672
1434.00,1.4760
1433.00,1.3908
1432.00,1.3067
1431.00,1.2256
1430.00,1.1522
1429.00,1.0893
1428.00,1.0376
1427.00,0.9965
1426.00,0.9630
1425.00,0.9344
1424.00,0.9104
1423.00,0.8920
1422.00,0.8784
1421.00,0.8670
1420.00,0.8558
1419.00,0.8450
1418.00,0.8358
1417.00,0.8283
1416.00,0.8223
1415.00,0.8175
1414.00,0.8136
1413.00,0.8104
1412.00,0.8081
1411.00,0.8066
1410.00,0.8051
1409.00,0.8023
1408.00,0.7975
1407.00,0.7902
1406.00,0.7800
1405.00,0.7673
1404.00,0.7536
1403.00,0.7409
1402.00,0.7297
1401.00,0.7195
1400.00,0.7104
1399.00,0.7033
1398.00,0.6987
1397.00,0.6963
1396.00,0.6966
1395.00,0.7006
1394.00,0.7087
1393.00,0.7215
1392.00,0.7401
1391.00,0.7668
1390.00,0.8036
1389.00,0.8539
1388.00,0.9220
1387.00,1.0091
1386.00,1.1096
1385.00,1.2152
1384.00,1.3237
1383.00,1.4389
1382.00,1.5652
1381.00,1.7068
1380.00,1.8658
1379.00,2.0310
1378.00,2.1616
1377.00,2.2079
1376.00,2.1563
1375.00,2.0292
1374.00,1.8671
1373.00,1.7110
1372.00,1.5813
1371.00,1.4801
1370.00,1.4051
1369.00,1.3546
1368.00,1.3239
1367.00,1.3018
1366.00,1.2734
1365.00,1.2278
1364.00,1.1648
1363.00,1.0940
1362.00,1.0279
1361.00,0.9742
1360.00,0.9337
1359.00,0.9038
1358.00,0.8819
1357.00,0.8664
1356.00,0.8561
1355.00,0.8497
1354.00,0.8460
1353.00,0.8438
1352.00,0.8421
1351.00,0.8403
1350.00,0.8380
1349.00,0.8349
1348.00,0.8316
1347.00,0.8284
1346.00,0.8256
1345.00,0.8233
1344.00,0.8213
1343.00,0.8192
1342.00,0.8163
1341.00,0.8119
1340.00,0.8053
1339.00,0.7965
1338.00,0.7856
1337.00,0.7728
1336.00,0.7587
1335.00,0.7441
1334.00,0.7299
1333.00,0.7169
1332.00,0.7054
1331.00,0.6957
1330.00,0.6879
1329.00,0.6819
1328.00,0.6774
1327.00,0.6745
1326.00,0.6729
1325.00,0.6724
1324.00,0.6725
1323.00,0.6730
1322.00,0.6736
1321.00,0.6741
1320.00,0.6746
1319.00,0.6753
1318.00,0.6764
1317.00,0.6780
1316.00,0.6801
1315.00,0.6828
1314.00,0.6861
1313.00,0.6899
1312.00,0.6940
1311.00,0.6981
1310.00,0.7019
1309.00,0.7050
1308.00,0.7074
1307.00,0.7092
1306.00,0.7102
1305.00,0.7101
1304.00,0.7086
1303.00,0.7057
1302.00,0.7017
1301.00,0.6967
1300.00,0.6914
1299.00,0.6860
1298.00,0.6804
1297.00,0.6747
1296.00,0.6691
1295.00,0.6639
1294.00,0.6593
1293.00,0.6551
1292.00,0.6511
1291.00,0.6472
1290.00,0.6435
1289.00,0.6399
1288.00,0.6365
1287.00,0.6332
1286.00,0.6297
1285.00,0.6257
1284.00,0.6216
1283.00,0.6176
1282.00,0.6143
1281.00,0.6114
1280.00,0.6089
1279.00,0.6066
1278.00,0.6043
1277.00,0.6019
1276.00,0.5994
1275.00,0.5971
1274.00,0.5951
1273.00,0.5934
1272.00,0.5921
1271.00,0.5913
1270.00,0.5908
1269.00,0.5901
1268.00,0.5886
1267.00,0.5861
1266.00,0.5826
1265.00,0.5784
1264.00,0.5743
1263.00,0.5707
1262.00,0.5678
1261.00,0.5657
1260.00,0.5640
1259.00,0.5626
1258.00,0.5612
1257.00,0.5594
1256.00,0.5574
1255.00,0.5555
1254.00,0.5538
1253.00,0.5524
1252.00,0.5513
1251.00,0.5504
1250.00,0.5494
1249.00,0.5481
1248.00,0.5464
1247.00,0.5446
1246.00,0.5424
1245.00,0.5399
1244.00,0.5368
1243.00,0.5334
1242.00,0.5299
1241.00,0.5265
1240.00,0.5234
1239.00,0.5207
1238.00,0.5185
1237.00,0.5166
1236.00,0.5149
1235.00,0.5137
1234.00,0.5131
1233.00,0.5130
1232.00,0.5134
1231.00,0.5142
1230.00,0.5149
1229.00,0.5149
1228.00,0.5138
1227.00,0.5116
1226.00,0.5088
1225.00,0.5055
1224.00,0.5022
1223.00,0.4992
1222.00,0.4969
1221.00,0.4951
1220.00,0.4939
1219.00,0.4933
1218.00,0.4932
1217.00,0.4934
1216.00,0.4941
1215.00,0.4951
1214.00,0.4962
1213.00,0.4969
1212.00,0.4969
1211.00,0.4964
1210.00,0.4955
1209.00,0.4943
1208.00,0.4929
1207.00,0.4914
1206.00,0.4897
1205.00,0.4878
1204.00,0.4860
1203.00,0.4845
1202.00,0.4834
1201.00,0.4825
1200.00,0.4819
1199.00,0.4816
1198.00,0.4815
1197.00,0.4811
1196.00,0.4806
1195.00,0.4799
1194.00,0.4792
1193.00,0.4784
1192.00,0.4777
1191.00,0.4771
1190.00,0.4765
1189.00,0.4760
1188.00,0.4754
1187.00,0.4748
1186.00,0.4743
1185.00,0.4738
1184.00,0.4735
1183.00,0.4733
1182.00,0.4734
1181.00,0.4735
1180.00,0.4738
1179.00,0.4745
1178.00,0.4757
1177.00,0.4773
1176.00,0.4796
1175.00,0.4828
1174.00,0.4869
1173.00,0.4916
1172.00,0.4964
1171.00,0.5009
1170.00,0.5043
1169.00,0.5060
1168.00,0.5061
1167.00,0.5050
1166.00,0.5036
1165.00,0.5022
1164.00,0.5013
1163.00,0.5010
1162.00,0.5015
1161.00,0.5026
1160.00,0.5041
1159.00,0.5058
1158.00,0.5074
1157.00,0.5084
1156.00,0.5089
1155.00,0.5087
1154.00,0.5079
1153.00,0.5065
1152.00,0.5045
1151.00,0.5022
1150.00,0.4997
1149.00,0.4971
1148.00,0.4945
1147.00,0.4921
1146.00,0.4900
1145.00,0.4883
1144.00,0.4872
1143.00,0.4870
1142.00,0.4878
1141.00,0.4897
1140.00,0.4928
1139.00,0.4971
1138.00,0.5027
1137.00,0.5094
1136.00,0.5173
1135.00,0.5257
1134.00,0.5333
1133.00,0.5379
1132.00,0.5381
1131.00,0.5338
1130.00,0.5264
1129.00,0.5178
1128.00,0.5100
1127.00,0.5040
1126.00,0.4999
1125.00,0.4972
1124.00,0.4953
1123.00,0.4937
1122.00,0.4922
1121.00,0.4906
1120.00,0.4895
1119.00,0.4894
1118.00,0.4905
1117.00,0.4929
1116.00,0.4963
1115.00,0.4997
1114.00,0.5018
1113.00,0.5012
1112.00,0.4976
1111.00,0.4917
1110.00,0.4851
1109.00,0.4791
1108.00,0.4743
1107.00,0.4710
1106.00,0.4690
1105.00,0.4680
1104.00,0.4674
1103.00,0.4671
1102.00,0.4666
1101.00,0.4659
1100.00,0.4649
1099.00,0.4639
1098.00,0.4630
1097.00,0.4620
1096.00,0.4610
1095.00,0.4602
1094.00,0.4599
1093.00,0.4600
1092.00,0.4604
1091.00,0.4611
1090.00,0.4621
1089.00,0.4635
1088.00,0.4655
1087.00,0.4683
1086.00,0.4720
1085.00,0.4767
1084.00,0.4822
1083.00,0.4886
1082.00,0.4958
1081.00,0.5035
1080.00,0.5112
1079.00,0.5184
1078.00,0.5241
1077.00,0.5274
1076.00,0.5275
1075.00,0.5246
1074.00,0.5193
1073.00,0.5127
1072.00,0.5060
1071.00,0.5000
1070.00,0.4954
1069.00,0.4919
1068.00,0.4896
1067.00,0.4880
1066.00,0.4869
1065.00,0.4860
1064.00,0.4853
1063.00,0.4851
1062.00,0.4855
1061.00,0.4861
1060.00,0.4869
1059.00,0.4877
1058.00,0.4882
1057.00,0.4882
1056.00,0.4876
1055.00,0.4868
1054.00,0.4861
1053.00,0.4857
1052.00,0.4860
1051.00,0.4869
1050.00,0.4885
1049.00,0.4906
1048.00,0.4929
1047.00,0.4950
1046.00,0.4965
1045.00,0.4969
1044.00,0.4966
1043.00,0.4961
1042.00,0.4958
1041.00,0.4955
1040.00,0.4951
1039.00,0.4945
1038.00,0.4938
1037.00,0.4930
1036.00,0.4924
1035.00,0.4924
1034.00,0.4931
1033.00,0.4944
1032.00,0.4960
1031.00,0.4978
1030.00,0.4992
1029.00,0.4999
1028.00,0.4994
1027.00,0.4975
1026.00,0.4942
1025.00,0.4894
1024.00,0.4836
1023.00,0.4777
1022.00,0.4722
1021.00,0.4673
1020.00,0.4629
1019.00,0.4590
1018.00,0.4556
1017.00,0.4526
1016.00,0.4499
1015.00,0.4477
1014.00,0.4459
1013.00,0.4442
1012.00,0.4428
1011.00,0.4419
1010.00,0.4415
1009.00,0.4415
1008.00,0.4417
1007.00,0.4424
1006.00,0.4436
1005.00,0.4452
1004.00,0.4470
1003.00,0.4488
1002.00,0.4507
1001.00,0.4524
1000.00,0.4539
999.00,0.4550
998.00,0.4554
997.00,0.4550
996.00,0.4537
995.00,0.4518
994.00,0.4493
993.00,0.4465
992.00,0.4435
991.00,0.4404
990.00,0.4374
989.00,0.4347
988.00,0.4326
987.00,0.4314
986.00,0.4311
985.00,0.4318
984.00,0.4330
983.00,0.4349
982.00,0.4370
981.00,0.4393
980.00,0.4415
979.00,0.4437
978.00,0.4461
977.00,0.4483
976.00,0.4503
975.00,0.4517
974.00,0.4527
973.00,0.4531
972.00,0.4530
971.00,0.4528
970.00,0.4526
969.00,0.4525
968.00,0.4524
967.00,0.4522
966.00,0.4519
965.00,0.4513
964.00,0.4503
963.00,0.4490
962.00,0.4476
961.00,0.4462
960.00,0.4449
959.00,0.4438
958.00,0.4430
957.00,0.4424
956.00,0.4419
955.00,0.4413
954.00,0.4405
953.00,0.4395
952.00,0.4385
951.00,0.4376
950.00,0.4370
949.00,0.4368
948.00,0.4368
947.00,0.4372
946.00,0.4381
945.00,0.4394
944.00,0.4410
943.00,0.4427
942.00,0.4446
941.00,0.4463
940.00,0.4477
939.00,0.4488
938.00,0.4493
937.00,0.4490
936.00,0.4481
935.00,0.4468
934.00,0.4450
933.00,0.4427
932.00,0.4402
931.00,0.4378
930.00,0.4357
929.00,0.4342
928.00,0.4336
927.00,0.4341
926.00,0.4357
925.00,0.4385
924.00,0.4426
923.00,0.4475
922.00,0.4522
921.00,0.4552
920.00,0.4550
919.00,0.4513
918.00,0.4447
917.00,0.4366
916.00,0.4284
915.00,0.4209
914.00,0.4146
913.00,0.4094
912.00,0.4054
911.00,0.4022
910.00,0.3998
909.00,0.3979
908.00,0.3966
907.00,0.3957
906.00,0.3951
905.00,0.3948
904.00,0.3949
903.00,0.3958
902.00,0.3974
901.00,0.3995
900.00,0.4019
899.00,0.4048
898.00,0.4081
897.00,0.4117
896.00,0.4153
895.00,0.4191
894.00,0.4231
893.00,0.4272
892.00,0.4311
891.00,0.4345
890.00,0.4370
889.00,0.4385
888.00,0.4386
887.00,0.4375
886.00,0.4357
885.00,0.4335
884.00,0.4316
883.00,0.4305
882.00,0.4306
881.00,0.4315
880.00,0.4329
879.00,0.4344
878.00,0.4354
877.00,0.4357
876.00,0.4355
875.00,0.4352
874.00,0.4351
873.00,0.4352
872.00,0.4355
871.00,0.4362
870.00,0.4373
869.00,0.4388
868.00,0.4408
867.00,0.4434
866.00,0.4467
865.00,0.4506
864.00,0.4545
863.00,0.4575
862.00,0.4582
861.00,0.4557
860.00,0.4503
859.00,0.4434
858.00,0.4365
857.00,0.4308
856.00,0.4268
855.00,0.4240
854.00,0.4221
853.00,0.4205
852.00,0.4191
851.00,0.4178
850.00,0.4165
849.00,0.4147
848.00,0.4122
847.00,0.4094
846.00,0.4065
845.00,0.4038
844.00,0.4014
843.00,0.3995
842.00,0.3985
841.00,0.3988
840.00,0.4014
839.00,0.4063
838.00,0.4131
837.00,0.4198
836.00,0.4244
835.00,0.4257
834.00,0.4235
833.00,0.4193
832.00,0.4149
831.00,0.4119
830.00,0.4110
829.00,0.4120
828.00,0.4146
827.00,0.4186
826.00,0.4239
825.00,0.4300
824.00,0.4365
823.00,0.4432
822.00,0.4502
821.00,0.4574
820.00,0.4645
819.00,0.4712
818.00,0.4769
817.00,0.4810
816.00,0.4830
815.00,0.4831
814.00,0.4813
813.00,0.4777
812.00,0.4727
811.00,0.4668
810.00,0.4606
809.00,0.4546
808.00,0.4490
807.00,0.4440
806.00,0.4393
805.00,0.4343
804.00,0.4290
803.00,0.4233
802.00,0.4177
801.00,0.4122
800.00,0.4072
799.00,0.4033
798.00,0.4004
797.00,0.3984
796.00,0.3969
795.00,0.3961
794.00,0.3958
793.00,0.3962
792.00,0.3972
791.00,0.3989
790.00,0.4013
789.00,0.4041
788.00,0.4070
787.00,0.4101
786.00,0.4136
785.00,0.4178
784.00,0.4225
783.00,0.4272
782.00,0.4314
781.00,0.4345
780.00,0.4368
779.00,0.4385
778.00,0.4400
777.00,0.4414
776.00,0.4429
775.00,0.4448
774.00,0.4473
773.00,0.4500
772.00,0.4526
771.00,0.4552
770.00,0.4581
769.00,0.4612
768.00,0.4645
767.00,0.4676
766.00,0.4701
765.00,0.4718
764.00,0.4730
763.00,0.4747
762.00,0.4771
761.00,0.4804
760.00,0.4844
759.00,0.4887
758.00,0.4928
757.00,0.4961
756.00,0.4987
755.00,0.5010
754.00,0.5038
753.00,0.5073
752.00,0.5115
751.00,0.5163
750.00,0.5213
749.00,0.5259
748.00,0.5301
747.00,0.5339
746.00,0.5377
745.00,0.5418
744.00,0.5464
743.00,0.5514
742.00,0.5567
741.00,0.5621
740.00,0.5670
739.00,0.5713
738.00,0.5751
737.00,0.5786
736.00,0.5824
735.00,0.5869
734.00,0.5923
733.00,0.5985
732.00,0.6059
731.00,0.6153
730.00,0.6272
729.00,0.6422
728.00,0.6604
727.00,0.6824
726.00,0.7086
725.00,0.7382
724.00,0.7683
723.00,0.7935
722.00,0.8056
721.00,0.7972
720.00,0.7672
719.00,0.7235
718.00,0.6763
717.00,0.6327
716.00,0.5959
715.00,0.5665
714.00,0.5433
713.00,0.5248
712.00,0.5097
711.00,0.4973
710.00,0.4873
709.00,0.4792
708.00,0.4725
707.00,0.4669
706.00,0.4623
705.00,0.4584
704.00,0.4548
703.00,0.4519
702.00,0.4502
701.00,0.4495
700.00,0.4479
699.00,0.4431
698.00,0.4333
697.00,0.4191
696.00,0.4030
695.00,0.3880
694.00,0.3759
693.00,0.3667
692.00,0.3600
691.00,0.3549
690.00,0.3510
689.00,0.3479
688.00,0.3454
687.00,0.3436
686.00,0.3425
685.00,0.3416
684.00,0.3409
683.00,0.3403
682.00,0.3397
681.00,0.3391
680.00,0.3385
679.00,0.3383
678.00,0.3384
677.00,0.3385
676.00,0.3384
675.00,0.3381
674.00,0.3379
673.00,0.3380
672.00,0.3385
671.00,0.3394
670.00,0.3407
669.00,0.3418
668.00,0.3420
667.00,0.3418
666.00,0.3419
665.00,0.3424
664.00,0.3429
663.00,0.3436
662.00,0.3443
661.00,0.3450
660.00,0.3457
659.00,0.3467
658.00,0.3480
657.00,0.3493
656.00,0.3503
655.00,0.3511
654.00,0.3520
653.00,0.3529
652.00,0.3539
651.00,0.3548
650.00,0.3557
649.00,0.3566
648.00,0.3576
647.00,0.3587
646.00,0.3600
645.00,0.3615
644.00,0.3632
643.00,0.3651
642.00,0.3669
641.00,0.3683
640.00,0.3694
639.00,0.3703
638.00,0.3711
637.00,0.3718
636.00,0.3722
635.00,0.3723
634.00,0.3723
633.00,0.3722
632.00,0.3726
631.00,0.3736
630.00,0.3751
629.00,0.3768
628.00,0.3785
627.00,0.3802
626.00,0.3819
625.00,0.3838
624.00,0.3858
623.00,0.3880
622.00,0.3901
621.00,0.3920
620.00,0.3936
619.00,0.3948
618.00,0.3958
617.00,0.3965
616.00,0.3967
615.00,0.3965
614.00,0.3960
613.00,0.3953
612.00,0.3944
611.00,0.3935
610.00,0.3925
609.00,0.3912
608.00,0.3894
607.00,0.3875
606.00,0.3857
605.00,0.3844
604.00,0.3835
603.00,0.3832
602.00,0.3834
601.00,0.3837
600.00,0.3839
599.00,0.3841
598.00,0.3845
597.00,0.3855
596.00,0.3870
595.00,0.3888
594.00,0.3905
593.00,0.3918
592.00,0.3927
591.00,0.3936
590.00,0.3950
589.00,0.3969
588.00,0.3991
587.00,0.4016
586.00,0.4041
585.00,0.4068
584.00,0.4095
583.00,0.4123
582.00,0.4151
581.00,0.4177
580.00,0.4204
579.00,0.4230
578.00,0.4255
577.00,0.4277
576.00,0.4301
575.00,0.4331
574.00,0.4360
573.00,0.4382
572.00,0.4396
571.00,0.4407
570.00,0.4420
569.00,0.4432
568.00,0.4442
567.00,0.4455
566.00,0.4474
565.00,0.4495
564.00,0.4512
563.00,0.4522
562.00,0.4530
561.00,0.4536
560.00,0.4539
559.00,0.4535
558.00,0.4529
557.00,0.4527
556.00,0.4537
555.00,0.4557
554.00,0.4577
553.00,0.4593
552.00,0.4606
551.00,0.4624
550.00,0.4645
