Created as New Dataset,
cm-1,A
4000.00,0.3650
3999.00,0.3647
3998.00,0.3644
3997.00,0.3641
3996.00,0.3638
3995.00,0.3634
3994.00,0.3630
3993.00,0.3627
3992.00,0.3625
3991.00,0.3622
3990.00,0.3618
3989.00,0.3615
3988.00,0.3611
3987.00,0.3608
3986.00,0.3605
3985.00,0.3602
3984.00,0.3599
3983.00,0.3597
3982.00,0.3595
3981.00,0.3592
3980.00,0.3590
3979.00,0.3588
3978.00,0.3586
3977.00,0.3583
3976.00,0.3580
3975.00,0.3577
3974.00,0.3574
3973.00,0.3570
3972.00,0.3566
3971.00,0.3562
3970.00,0.3559
3969.00,0.3557
3968.00,0.3555
3967.00,0.3553
3966.00,0.3551
3965.00,0.3549
3964.00,0.3546
3963.00,0.3545
3962.00,0.3543
3961.00,0.3542
3960.00,0.3540
3959.00,0.3538
3958.00,0.3535
3957.00,0.3533
3956.00,0.3531
3955.00,0.3530
3954.00,0.3530
3953.00,0.3529
3952.00,0.3528
3951.00,0.3527
3950.00,0.3525
3949.00,0.3524
3948.00,0.3522
3947.00,0.3522
3946.00,0.3522
3945.00,0.3522
3944.00,0.3522
3943.00,0.3521
3942.00,0.3521
3941.00,0.3520
3940.00,0.3519
3939.00,0.3517
3938.00,0.3515
3937.00,0.3513
3936.00,0.3512
3935.00,0.3511
3934.00,0.3510
3933.00,0.3509
3932.00,0.3509
3931.00,0.3509
3930.00,0.3509
3929.00,0.3508
3928.00,0.3507
3927.00,0.3505
3926.00,0.3505
3925.00,0.3505
3924.00,0.3504
3923.00,0.3504
3922.00,0.3504
3921.00,0.3503
3920.00,0.3503
3919.00,0.3503
3918.00,0.3502
3917.00,0.3501
3916.00,0.3500
3915.00,0.3500
3914.00,0.3500
3913.00,0.3501
3912.00,0.3501
3911.00,0.3501
3910.00,0.3501
3909.00,0.3501
3908.00,0.3501
3907.00,0.3502
3906.00,0.3503
3905.00,0.3503
3904.00,0.3504
3903.00,0.3504
3902.00,0.3504
3901.00,0.3504
3900.00,0.3504
3899.00,0.3503
3898.00,0.3503
3897.00,0.3501
3896.00,0.3500
3895.00,0.3498
3894.00,0.3496
3893.00,0.3494
3892.00,0.3492
3891.00,0.3491
3890.00,0.3489
3889.00,0.3487
3888.00,0.3486
3887.00,0.3486
3886.00,0.3487
3885.00,0.3488
3884.00,0.3488
3883.00,0.3487
3882.00,0.3486
3881.00,0.3484
3880.00,0.3483
3879.00,0.3482
3878.00,0.3481
3877.00,0.3481
3876.00,0.3481
3875.00,0.3481
3874.00,0.3481
3873.00,0.3481
3872.00,0.3481
3871.00,0.3481
3870.00,0.3482
3869.00,0.3483
3868.00,0.3482
3867.00,0.3481
3866.00,0.3479
3865.00,0.3476
3864.00,0.3474
3863.00,0.3472
3862.00,0.3470
3861.00,0.3468
3860.00,0.3466
3859.00,0.3466
3858.00,0.3466
3857.00,0.3468
3856.00,0.3468
3855.00,0.3467
3854.00,0.3466
3853.00,0.3466
3852.00,0.3467
3851.00,0.3467
3850.00,0.3465
3849.00,0.3462
3848.00,0.3458
3847.00,0.3455
3846.00,0.3452
3845.00,0.3450
3844.00,0.3449
3843.00,0.3450
3842.00,0.3451
3841.00,0.3451
3840.00,0.3452
3839.00,0.3453
3838.00,0.3455
3837.00,0.3456
3836.00,0.3457
3835.00,0.3457
3834.00,0.3455
3833.00,0.3454
3832.00,0.3452
3831.00,0.3450
3830.00,0.3448
3829.00,0.3446
3828.00,0.3444
3827.00,0.3442
3826.00,0.3441
3825.00,0.3440
3824.00,0.3439
3823.00,0.3439
3822.00,0.3439
3821.00,0.3440
3820.00,0.3441
3819.00,0.3440
3818.00,0.3438
3817.00,0.3435
3816.00,0.3433
3815.00,0.3430
3814.00,0.3427
3813.00,0.3423
3812.00,0.3419
3811.00,0.3417
3810.00,0.3415
3809.00,0.3413
3808.00,0.3411
3807.00,0.3410
3806.00,0.3410
3805.00,0.3410
3804.00,0.3409
3803.00,0.3408
3802.00,0.3408
3801.00,0.3407
3800.00,0.3406
3799.00,0.3403
3798.00,0.3400
3797.00,0.3398
3796.00,0.3396
3795.00,0.3394
3794.00,0.3391
3793.00,0.3388
3792.00,0.3386
3791.00,0.3384
3790.00,0.3382
3789.00,0.3381
3788.00,0.3379
3787.00,0.3377
3786.00,0.3375
3785.00,0.3373
3784.00,0.3372
3783.00,0.3371
3782.00,0.3370
3781.00,0.3369
3780.00,0.3367
3779.00,0.3365
3778.00,0.3363
3777.00,0.3361
3776.00,0.3359
3775.00,0.3357
3774.00,0.3355
3773.00,0.3354
3772.00,0.3352
3771.00,0.3351
3770.00,0.3350
3769.00,0.3350
3768.00,0.3349
3767.00,0.3348
3766.00,0.3346
3765.00,0.3345
3764.00,0.3344
3763.00,0.3342
3762.00,0.3340
3761.00,0.3339
3760.00,0.3338
3759.00,0.3336
3758.00,0.3335
3757.00,0.3334
3756.00,0.3334
3755.00,0.3334
3754.00,0.3335
3753.00,0.3336
3752.00,0.3336
3751.00,0.3336
3750.00,0.3336
3749.00,0.3337
3748.00,0.3337
3747.00,0.3336
3746.00,0.3335
3745.00,0.3334
3744.00,0.3331
3743.00,0.3328
3742.00,0.3323
3741.00,0.3319
3740.00,0.3317
3739.00,0.3315
3738.00,0.3313
3737.00,0.3310
3736.00,0.3308
3735.00,0.3307
3734.00,0.3307
3733.00,0.3307
3732.00,0.3306
3731.00,0.3303
3730.00,0.3300
3729.00,0.3296
3728.00,0.3292
3727.00,0.3289
3726.00,0.3287
3725.00,0.3285
3724.00,0.3284
3723.00,0.3283
3722.00,0.3283
3721.00,0.3282
3720.00,0.3281
3719.00,0.3280
3718.00,0.3279
3717.00,0.3278
3716.00,0.3277
3715.00,0.3276
3714.00,0.3275
3713.00,0.3274
3712.00,0.3274
3711.00,0.3274
3710.00,0.3274
3709.00,0.3273
3708.00,0.3272
3707.00,0.3270
3706.00,0.3269
3705.00,0.3268
3704.00,0.3266
3703.00,0.3265
3702.00,0.3264
3701.00,0.3264
3700.00,0.3264
3699.00,0.3265
3698.00,0.3265
3697.00,0.3265
3696.00,0.3264
3695.00,0.3264
3694.00,0.3264
3693.00,0.3265
3692.00,0.3267
3691.00,0.3268
3690.00,0.3270
3689.00,0.3271
3688.00,0.3273
3687.00,0.3273
3686.00,0.3272
3685.00,0.3271
3684.00,0.3269
3683.00,0.3268
3682.00,0.3266
3681.00,0.3264
3680.00,0.3262
3679.00,0.3262
3678.00,0.3262
3677.00,0.3262
3676.00,0.3264
3675.00,0.3267
3674.00,0.3270
3673.00,0.3271
3672.00,0.3271
3671.00,0.3270
3670.00,0.3269
3669.00,0.3267
3668.00,0.3265
3667.00,0.3262
3666.00,0.3259
3665.00,0.3257
3664.00,0.3255
3663.00,0.3255
3662.00,0.3255
3661.00,0.3255
3660.00,0.3256
3659.00,0.3258
3658.00,0.3259
3657.00,0.3262
3656.00,0.3264
3655.00,0.3267
3654.00,0.3270
3653.00,0.3272
3652.00,0.3275
3651.00,0.3278
3650.00,0.3281
3649.00,0.3283
3648.00,0.3284
3647.00,0.3285
3646.00,0.3286
3645.00,0.3285
3644.00,0.3284
3643.00,0.3282
3642.00,0.3281
3641.00,0.3280
3640.00,0.3279
3639.00,0.3279
3638.00,0.3280
3637.00,0.3281
3636.00,0.3283
3635.00,0.3284
3634.00,0.3286
3633.00,0.3288
3632.00,0.3291
3631.00,0.3294
3630.00,0.3298
3629.00,0.3302
3628.00,0.3307
3627.00,0.3311
3626.00,0.3314
3625.00,0.3316
3624.00,0.3319
3623.00,0.3321
3622.00,0.3322
3621.00,0.3323
3620.00,0.3323
3619.00,0.3321
3618.00,0.3320
3617.00,0.3319
3616.00,0.3318
3615.00,0.3317
3614.00,0.3317
3613.00,0.3318
3612.00,0.3317
3611.00,0.3317
3610.00,0.3315
3609.00,0.3314
3608.00,0.3313
3607.00,0.3312
3606.00,0.3312
3605.00,0.3311
3604.00,0.3309
3603.00,0.3306
3602.00,0.3302
3601.00,0.3298
3600.00,0.3293
3599.00,0.3288
3598.00,0.3283
3597.00,0.3277
3596.00,0.3272
3595.00,0.3266
3594.00,0.3261
3593.00,0.3257
3592.00,0.3254
3591.00,0.3252
3590.00,0.3250
3589.00,0.3248
3588.00,0.3246
3587.00,0.3245
3586.00,0.3245
3585.00,0.3244
3584.00,0.3243
3583.00,0.3242
3582.00,0.3242
3581.00,0.3241
3580.00,0.3241
3579.00,0.3241
3578.00,0.3241
3577.00,0.3242
3576.00,0.3243
3575.00,0.3243
3574.00,0.3244
3573.00,0.3245
3572.00,0.3246
3571.00,0.3247
3570.00,0.3249
3569.00,0.3250
3568.00,0.3252
3567.00,0.3255
3566.00,0.3258
3565.00,0.3260
3564.00,0.3261
3563.00,0.3262
3562.00,0.3263
3561.00,0.3265
3560.00,0.3266
3559.00,0.3268
3558.00,0.3270
3557.00,0.3272
3556.00,0.3275
3555.00,0.3278
3554.00,0.3281
3553.00,0.3283
3552.00,0.3287
3551.00,0.3290
3550.00,0.3294
3549.00,0.3298
3548.00,0.3302
3547.00,0.3307
3546.00,0.3311
3545.00,0.3316
3544.00,0.3320
3543.00,0.3324
3542.00,0.3328
3541.00,0.3331
3540.00,0.3334
3539.00,0.3337
3538.00,0.3341
3537.00,0.3344
3536.00,0.3347
3535.00,0.3349
3534.00,0.3351
3533.00,0.3354
3532.00,0.3356
3531.00,0.3359
3530.00,0.3363
3529.00,0.3366
3528.00,0.3369
3527.00,0.3372
3526.00,0.3374
3525.00,0.3376
3524.00,0.3378
3523.00,0.3380
3522.00,0.3383
3521.00,0.3386
3520.00,0.3389
3519.00,0.3393
3518.00,0.3397
3517.00,0.3400
3516.00,0.3403
3515.00,0.3407
3514.00,0.3411
3513.00,0.3416
3512.00,0.3422
3511.00,0.3427
3510.00,0.3432
3509.00,0.3437
3508.00,0.3443
3507.00,0.3448
3506.00,0.3452
3505.00,0.3457
3504.00,0.3462
3503.00,0.3467
3502.00,0.3473
3501.00,0.3478
3500.00,0.3483
3499.00,0.3488
3498.00,0.3493
3497.00,0.3498
3496.00,0.3503
3495.00,0.3509
3494.00,0.3514
3493.00,0.3520
3492.00,0.3526
3491.00,0.3532
3490.00,0.3538
3489.00,0.3545
3488.00,0.3552
3487.00,0.3559
3486.00,0.3565
3485.00,0.3572
3484.00,0.3578
3483.00,0.3583
3482.00,0.3588
3481.00,0.3592
3480.00,0.3597
3479.00,0.3602
3478.00,0.3607
3477.00,0.3612
3476.00,0.3617
3475.00,0.3622
3474.00,0.3626
3473.00,0.3631
3472.00,0.3636
3471.00,0.3642
3470.00,0.3647
3469.00,0.3653
3468.00,0.3658
3467.00,0.3663
3466.00,0.3668
3465.00,0.3674
3464.00,0.3679
3463.00,0.3684
3462.00,0.3690
3461.00,0.3696
3460.00,0.3702
3459.00,0.3707
3458.00,0.3713
3457.00,0.3718
3456.00,0.3724
3455.00,0.3730
3454.00,0.3736
3453.00,0.3742
3452.00,0.3747
3451.00,0.3753
3450.00,0.3759
3449.00,0.3765
3448.00,0.3771
3447.00,0.3778
3446.00,0.3785
3445.00,0.3792
3444.00,0.3799
3443.00,0.3806
3442.00,0.3813
3441.00,0.3820
3440.00,0.3828
3439.00,0.3835
3438.00,0.3842
3437.00,0.3849
3436.00,0.3856
3435.00,0.3864
3434.00,0.3872
3433.00,0.3879
3432.00,0.3886
3431.00,0.3892
3430.00,0.3899
3429.00,0.3906
3428.00,0.3913
3427.00,0.3920
3426.00,0.3928
3425.00,0.3936
3424.00,0.3944
3423.00,0.3952
3422.00,0.3960
3421.00,0.3967
3420.00,0.3975
3419.00,0.3984
3418.00,0.3992
3417.00,0.4000
3416.00,0.4008
3415.00,0.4016
3414.00,0.4024
3413.00,0.4033
3412.00,0.4042
3411.00,0.4051
3410.00,0.4061
3409.00,0.4069
3408.00,0.4078
3407.00,0.4087
3406.00,0.4096
3405.00,0.4106
3404.00,0.4115
3403.00,0.4124
3402.00,0.4133
3401.00,0.4142
3400.00,0.4152
3399.00,0.4161
3398.00,0.4172
3397.00,0.4183
3396.00,0.4193
3395.00,0.4203
3394.00,0.4212
3393.00,0.4222
3392.00,0.4231
3391.00,0.4241
3390.00,0.4250
3389.00,0.4260
3388.00,0.4270
3387.00,0.4280
3386.00,0.4291
3385.00,0.4302
3384.00,0.4313
3383.00,0.4324
3382.00,0.4334
3381.00,0.4344
3380.00,0.4355
3379.00,0.4366
3378.00,0.4378
3377.00,0.4389
3376.00,0.4401
3375.00,0.4412
3374.00,0.4424
3373.00,0.4436
3372.00,0.4449
3371.00,0.4461
3370.00,0.4473
3369.00,0.4485
3368.00,0.4499
3367.00,0.4512
3366.00,0.4525
3365.00,0.4539
3364.00,0.4552
3363.00,0.4566
3362.00,0.4580
3361.00,0.4595
3360.00,0.4610
3359.00,0.4624
3358.00,0.4639
3357.00,0.4654
3356.00,0.4669
3355.00,0.4685
3354.00,0.4701
3353.00,0.4717
3352.00,0.4731
3351.00,0.4745
3350.00,0.4759
3349.00,0.4774
3348.00,0.4789
3347.00,0.4804
3346.00,0.4818
3345.00,0.4831
3344.00,0.4845
3343.00,0.4857
3342.00,0.4870
3341.00,0.4883
3340.00,0.4895
3339.00,0.4907
3338.00,0.4919
3337.00,0.4929
3336.00,0.4939
3335.00,0.4946
3334.00,0.4953
3333.00,0.4960
3332.00,0.4966
3331.00,0.4973
3330.00,0.4979
3329.00,0.4983
3328.00,0.4987
3327.00,0.4989
3326.00,0.4991
3325.00,0.4992
3324.00,0.4993
3323.00,0.4993
3322.00,0.4993
3321.00,0.4991
3320.00,0.4988
3319.00,0.4984
3318.00,0.4979
3317.00,0.4974
3316.00,0.4969
3315.00,0.4964
3314.00,0.4957
3313.00,0.4950
3312.00,0.4942
3311.00,0.4934
3310.00,0.4926
3309.00,0.4919
3308.00,0.4911
3307.00,0.4903
3306.00,0.4896
3305.00,0.4888
3304.00,0.4880
3303.00,0.4872
3302.00,0.4863
3301.00,0.4856
3300.00,0.4849
3299.00,0.4842
3298.00,0.4836
3297.00,0.4829
3296.00,0.4824
3295.00,0.4818
3294.00,0.4813
3293.00,0.4809
3292.00,0.4804
3291.00,0.4799
3290.00,0.4794
3289.00,0.4791
3288.00,0.4788
3287.00,0.4786
3286.00,0.4785
3285.00,0.4785
3284.00,0.4784
3283.00,0.4784
3282.00,0.4783
3281.00,0.4783
3280.00,0.4784
3279.00,0.4784
3278.00,0.4785
3277.00,0.4787
3276.00,0.4789
3275.00,0.4792
3274.00,0.4795
3273.00,0.4797
3272.00,0.4800
3271.00,0.4803
3270.00,0.4807
3269.00,0.4811
3268.00,0.4815
3267.00,0.4820
3266.00,0.4823
3265.00,0.4828
3264.00,0.4833
3263.00,0.4838
3262.00,0.4844
3261.00,0.4850
3260.00,0.4855
3259.00,0.4860
3258.00,0.4864
3257.00,0.4869
3256.00,0.4874
3255.00,0.4880
3254.00,0.4885
3253.00,0.4890
3252.00,0.4894
3251.00,0.4898
3250.00,0.4903
3249.00,0.4907
3248.00,0.4912
3247.00,0.4916
3246.00,0.4920
3245.00,0.4925
3244.00,0.4929
3243.00,0.4933
3242.00,0.4936
3241.00,0.4939
3240.00,0.4942
3239.00,0.4944
3238.00,0.4946
3237.00,0.4949
3236.00,0.4951
3235.00,0.4953
3234.00,0.4955
3233.00,0.4956
3232.00,0.4957
3231.00,0.4957
3230.00,0.4957
3229.00,0.4958
3228.00,0.4958
3227.00,0.4958
3226.00,0.4957
3225.00,0.4956
3224.00,0.4955
3223.00,0.4954
3222.00,0.4952
3221.00,0.4950
3220.00,0.4948
3219.00,0.4946
3218.00,0.4946
3217.00,0.4946
3216.00,0.4945
3215.00,0.4943
3214.00,0.4942
3213.00,0.4941
3212.00,0.4940
3211.00,0.4938
3210.00,0.4936
3209.00,0.4934
3208.00,0.4932
3207.00,0.4929
3206.00,0.4926
3205.00,0.4924
3204.00,0.4922
3203.00,0.4920
3202.00,0.4917
3201.00,0.4915
3200.00,0.4912
3199.00,0.4909
3198.00,0.4905
3197.00,0.4901
3196.00,0.4898
3195.00,0.4894
3194.00,0.4891
3193.00,0.4888
3192.00,0.4885
3191.00,0.4882
3190.00,0.4877
3189.00,0.4873
3188.00,0.4869
3187.00,0.4864
3186.00,0.4859
3185.00,0.4853
3184.00,0.4848
3183.00,0.4843
3182.00,0.4838
3181.00,0.4832
3180.00,0.4826
3179.00,0.4820
3178.00,0.4814
3177.00,0.4808
3176.00,0.4801
3175.00,0.4794
3174.00,0.4787
3173.00,0.4780
3172.00,0.4773
3171.00,0.4766
3170.00,0.4759
3169.00,0.4751
3168.00,0.4744
3167.00,0.4737
3166.00,0.4730
3165.00,0.4722
3164.00,0.4714
3163.00,0.4706
3162.00,0.4698
3161.00,0.4691
3160.00,0.4683
3159.00,0.4676
3158.00,0.4669
3157.00,0.4660
3156.00,0.4652
3155.00,0.4644
3154.00,0.4638
3153.00,0.4632
3152.00,0.4626
3151.00,0.4620
3150.00,0.4613
3149.00,0.4607
3148.00,0.4601
3147.00,0.4594
3146.00,0.4588
3145.00,0.4583
3144.00,0.4578
3143.00,0.4573
3142.00,0.4568
3141.00,0.4563
3140.00,0.4558
3139.00,0.4553
3138.00,0.4548
3137.00,0.4543
3136.00,0.4538
3135.00,0.4534
3134.00,0.4530
3133.00,0.4527
3132.00,0.4525
3131.00,0.4522
3130.00,0.4520
3129.00,0.4519
3128.00,0.4518
3127.00,0.4519
3126.00,0.4519
3125.00,0.4520
3124.00,0.4521
3123.00,0.4522
3122.00,0.4524
3121.00,0.4526
3120.00,0.4530
3119.00,0.4532
3118.00,0.4535
3117.00,0.4538
3116.00,0.4541
3115.00,0.4546
3114.00,0.4550
3113.00,0.4555
3112.00,0.4560
3111.00,0.4565
3110.00,0.4571
3109.00,0.4578
3108.00,0.4586
3107.00,0.4594
3106.00,0.4602
3105.00,0.4610
3104.00,0.4617
3103.00,0.4624
3102.00,0.4631
3101.00,0.4640
3100.00,0.4650
3099.00,0.4659
3098.00,0.4670
3097.00,0.4681
3096.00,0.4694
3095.00,0.4708
3094.00,0.4723
3093.00,0.4740
3092.00,0.4757
3091.00,0.4777
3090.00,0.4798
3089.00,0.4823
3088.00,0.4849
3087.00,0.4876
3086.00,0.4903
3085.00,0.4931
3084.00,0.4959
3083.00,0.4988
3082.00,0.5018
3081.00,0.5051
3080.00,0.5086
3079.00,0.5123
3078.00,0.5162
3077.00,0.5203
3076.00,0.5244
3075.00,0.5286
3074.00,0.5328
3073.00,0.5370
3072.00,0.5412
3071.00,0.5455
3070.00,0.5498
3069.00,0.5542
3068.00,0.5587
3067.00,0.5631
3066.00,0.5674
3065.00,0.5714
3064.00,0.5753
3063.00,0.5789
3062.00,0.5823
3061.00,0.5855
3060.00,0.5884
3059.00,0.5911
3058.00,0.5936
3057.00,0.5963
3056.00,0.5991
3055.00,0.6022
3054.00,0.6055
3053.00,0.6089
3052.00,0.6124
3051.00,0.6161
3050.00,0.6199
3049.00,0.6240
3048.00,0.6284
3047.00,0.6330
3046.00,0.6378
3045.00,0.6426
3044.00,0.6472
3043.00,0.6518
3042.00,0.6563
3041.00,0.6608
3040.00,0.6653
3039.00,0.6699
3038.00,0.6748
3037.00,0.6799
3036.00,0.6853
3035.00,0.6911
3034.00,0.6974
3033.00,0.7042
3032.00,0.7114
3031.00,0.7190
3030.00,0.7271
3029.00,0.7357
3028.00,0.7445
3027.00,0.7537
3026.00,0.7632
3025.00,0.7731
3024.00,0.7834
3023.00,0.7939
3022.00,0.8048
3021.00,0.8159
3020.00,0.8273
3019.00,0.8389
3018.00,0.8508
3017.00,0.8628
3016.00,0.8748
3015.00,0.8870
3014.00,0.8992
3013.00,0.9117
3012.00,0.9244
3011.00,0.9376
3010.00,0.9514
3009.00,0.9659
3008.00,0.9809
3007.00,0.9966
3006.00,1.0130
3005.00,1.0300
3004.00,1.0475
3003.00,1.0655
3002.00,1.0840
3001.00,1.1030
3000.00,1.1229
2999.00,1.1440
2998.00,1.1670
2997.00,1.1921
2996.00,1.2195
2995.00,1.2494
2994.00,1.2826
2993.00,1.3197
2992.00,1.3615
2991.00,1.4084
2990.00,1.4607
2989.00,1.5191
2988.00,1.5842
2987.00,1.6567
2986.00,1.7371
2985.00,1.8253
2984.00,1.9221
2983.00,2.0297
2982.00,2.1505
2981.00,2.2847
2980.00,2.4290
2979.00,2.5789
2978.00,2.7315
2977.00,2.8830
2976.00,3.0316
2975.00,3.1826
2974.00,3.3447
2973.00,3.5163
2972.00,3.6726
2971.00,3.7741
2970.00,3.8033
2969.00,3.7893
2968.00,3.8029
2967.00,3.8809
2966.00,3.9990
2965.00,4.0697
2964.00,3.9641
2963.00,3.8338
2962.00,3.8052
2961.00,3.9685
2960.00,4.3470
2959.00,4.3351
2958.00,4.1269
2957.00,4.0174
2956.00,4.0687
2955.00,4.0917
2954.00,4.0914
2953.00,4.1577
2952.00,4.1738
2951.00,4.1207
2950.00,4.0677
2949.00,4.1721
2948.00,4.2823
2947.00,4.1596
2946.00,4.1144
2945.00,4.1947
2944.00,4.2482
2943.00,4.2519
2942.00,4.2064
2941.00,4.0632
2940.00,3.9189
2939.00,3.9151
2938.00,4.0065
2937.00,3.9053
2936.00,3.7665
2935.00,3.7432
2934.00,3.8354
2933.00,4.0561
2932.00,4.5025
2931.00,4.7780
2930.00,4.4799
2929.00,4.2709
2928.00,4.3913
2927.00,4.7756
2926.00,5.0893
2925.00,4.8802
2924.00,4.1838
2923.00,3.9185
2922.00,3.8393
2921.00,3.9720
2920.00,4.3657
2919.00,4.7473
2918.00,4.2660
2917.00,3.8965
2916.00,3.7231
2915.00,3.6555
2914.00,3.6315
2913.00,3.6417
2912.00,3.7243
2911.00,3.8915
2910.00,3.9978
2909.00,3.9144
2908.00,3.8192
2907.00,3.8537
2906.00,4.0524
2905.00,4.3696
2904.00,4.4651
2903.00,4.2345
2902.00,4.0795
2901.00,4.0006
2900.00,3.8755
2899.00,3.7363
2898.00,3.6705
2897.00,3.7108
2896.00,3.8599
2895.00,4.0822
2894.00,4.2256
2893.00,4.1773
2892.00,4.0640
2891.00,3.9720
2890.00,3.9002
2889.00,3.8531
2888.00,3.8527
2887.00,3.9004
2886.00,3.9278
2885.00,3.8829
2884.00,3.8611
2883.00,3.9893
2882.00,4.2010
2881.00,4.1544
2880.00,4.0217
2879.00,3.9750
2878.00,4.0085
2877.00,4.0281
2876.00,4.0253
2875.00,4.0414
2874.00,4.0618
2873.00,4.1487
2872.00,4.1798
2871.00,4.2481
2870.00,4.5258
2869.00,4.3644
2868.00,4.1255
2867.00,4.0109
2866.00,4.1326
2865.00,4.2317
2864.00,4.1904
2863.00,4.3149
2862.00,4.6623
2861.00,4.6489
2860.00,4.1701
2859.00,3.8391
2858.00,3.6655
2857.00,3.6074
2856.00,3.6490
2855.00,3.7807
2854.00,3.9156
2853.00,3.9743
2852.00,4.0159
2851.00,4.1451
2850.00,4.2883
2849.00,4.1735
2848.00,4.0321
2847.00,4.0420
2846.00,4.1766
2845.00,4.2286
2844.00,4.1575
2843.00,4.1089
2842.00,4.1198
2841.00,4.0615
2840.00,3.8606
2839.00,3.6190
2838.00,3.3752
2837.00,3.1381
2836.00,2.9211
2835.00,2.7329
2834.00,2.5651
2833.00,2.4082
2832.00,2.2611
2831.00,2.1261
2830.00,2.0048
2829.00,1.8966
2828.00,1.8002
2827.00,1.7145
2826.00,1.6375
2825.00,1.5679
2824.00,1.5044
2823.00,1.4468
2822.00,1.3945
2821.00,1.3464
2820.00,1.3017
2819.00,1.2601
2818.00,1.2216
2817.00,1.1859
2816.00,1.1526
2815.00,1.1214
2814.00,1.0920
2813.00,1.0646
2812.00,1.0390
2811.00,1.0150
2810.00,0.9923
2809.00,0.9707
2808.00,0.9501
2807.00,0.9305
2806.00,0.9118
2805.00,0.8941
2804.00,0.8771
2803.00,0.8609
2802.00,0.8455
2801.00,0.8310
2800.00,0.8173
2799.00,0.8042
2798.00,0.7916
2797.00,0.7794
2796.00,0.7678
2795.00,0.7566
2794.00,0.7459
2793.00,0.7356
2792.00,0.7256
2791.00,0.7158
2790.00,0.7061
2789.00,0.6966
2788.00,0.6873
2787.00,0.6780
2786.00,0.6690
2785.00,0.6601
2784.00,0.6515
2783.00,0.6431
2782.00,0.6351
2781.00,0.6275
2780.00,0.6202
2779.00,0.6133
2778.00,0.6068
2777.00,0.6005
2776.00,0.5945
2775.00,0.5889
2774.00,0.5837
2773.00,0.5788
2772.00,0.5742
2771.00,0.5699
2770.00,0.5660
2769.00,0.5624
2768.00,0.5591
2767.00,0.5562
2766.00,0.5536
2765.00,0.5513
2764.00,0.5494
2763.00,0.5477
2762.00,0.5461
2761.00,0.5446
2760.00,0.5433
2759.00,0.5420
2758.00,0.5408
2757.00,0.5397
2756.00,0.5386
2755.00,0.5376
2754.00,0.5367
2753.00,0.5360
2752.00,0.5355
2751.00,0.5352
2750.00,0.5351
2749.00,0.5351
2748.00,0.5355
2747.00,0.5361
2746.00,0.5369
2745.00,0.5379
2744.00,0.5392
2743.00,0.5408
2742.00,0.5428
2741.00,0.5452
2740.00,0.5480
2739.00,0.5514
2738.00,0.5551
2737.00,0.5593
2736.00,0.5640
2735.00,0.5690
2734.00,0.5743
2733.00,0.5795
2732.00,0.5843
2731.00,0.5884
2730.00,0.5915
2729.00,0.5934
2728.00,0.5943
2727.00,0.5942
2726.00,0.5935
2725.00,0.5921
2724.00,0.5903
2723.00,0.5880
2722.00,0.5853
2721.00,0.5822
2720.00,0.5789
2719.00,0.5753
2718.00,0.5715
2717.00,0.5675
2716.00,0.5632
2715.00,0.5587
2714.00,0.5541
2713.00,0.5497
2712.00,0.5455
2711.00,0.5417
2710.00,0.5382
2709.00,0.5351
2708.00,0.5325
2707.00,0.5303
2706.00,0.5285
2705.00,0.5270
2704.00,0.5258
2703.00,0.5249
2702.00,0.5243
2701.00,0.5239
2700.00,0.5237
2699.00,0.5236
2698.00,0.5237
2697.00,0.5239
2696.00,0.5244
2695.00,0.5251
2694.00,0.5259
2693.00,0.5267
2692.00,0.5276
2691.00,0.5285
2690.00,0.5294
2689.00,0.5303
2688.00,0.5313
2687.00,0.5321
2686.00,0.5329
2685.00,0.5334
2684.00,0.5338
2683.00,0.5342
2682.00,0.5345
2681.00,0.5349
2680.00,0.5353
2679.00,0.5358
2678.00,0.5363
2677.00,0.5368
2676.00,0.5373
2675.00,0.5377
2674.00,0.5381
2673.00,0.5384
2672.00,0.5385
2671.00,0.5385
2670.00,0.5381
2669.00,0.5375
2668.00,0.5366
2667.00,0.5355
2666.00,0.5342
2665.00,0.5327
2664.00,0.5310
2663.00,0.5292
2662.00,0.5273
2661.00,0.5253
2660.00,0.5232
2659.00,0.5211
2658.00,0.5189
2657.00,0.5168
2656.00,0.5147
2655.00,0.5128
2654.00,0.5111
2653.00,0.5094
2652.00,0.5077
2651.00,0.5061
2650.00,0.5047
2649.00,0.5034
2648.00,0.5021
2647.00,0.5008
2646.00,0.4996
2645.00,0.4984
2644.00,0.4972
2643.00,0.4961
2642.00,0.4951
2641.00,0.4941
2640.00,0.4931
2639.00,0.4921
2638.00,0.4911
2637.00,0.4901
2636.00,0.4891
2635.00,0.4881
2634.00,0.4871
2633.00,0.4862
2632.00,0.4853
2631.00,0.4845
2630.00,0.4837
2629.00,0.4829
2628.00,0.4819
2627.00,0.4809
2626.00,0.4800
2625.00,0.4791
2624.00,0.4782
2623.00,0.4774
2622.00,0.4766
2621.00,0.4759
2620.00,0.4751
2619.00,0.4743
2618.00,0.4734
2617.00,0.4726
2616.00,0.4718
2615.00,0.4710
2614.00,0.4702
2613.00,0.4693
2612.00,0.4684
2611.00,0.4675
2610.00,0.4666
2609.00,0.4657
2608.00,0.4648
2607.00,0.4638
2606.00,0.4627
2605.00,0.4617
2604.00,0.4606
2603.00,0.4596
2602.00,0.4585
2601.00,0.4573
2600.00,0.4561
2599.00,0.4548
2598.00,0.4534
2597.00,0.4520
2596.00,0.4505
2595.00,0.4489
2594.00,0.4474
2593.00,0.4459
2592.00,0.4443
2591.00,0.4427
2590.00,0.4412
2589.00,0.4396
2588.00,0.4380
2587.00,0.4363
2586.00,0.4346
2585.00,0.4330
2584.00,0.4314
2583.00,0.4299
2582.00,0.4283
2581.00,0.4267
2580.00,0.4250
2579.00,0.4233
2578.00,0.4217
2577.00,0.4201
2576.00,0.4186
2575.00,0.4170
2574.00,0.4155
2573.00,0.4140
2572.00,0.4124
2571.00,0.4109
2570.00,0.4094
2569.00,0.4079
2568.00,0.4064
2567.00,0.4050
2566.00,0.4035
2565.00,0.4020
2564.00,0.4005
2563.00,0.3991
2562.00,0.3977
2561.00,0.3963
2560.00,0.3949
2559.00,0.3935
2558.00,0.3921
2557.00,0.3909
2556.00,0.3897
2555.00,0.3885
2554.00,0.3874
2553.00,0.3864
2552.00,0.3854
2551.00,0.3844
2550.00,0.3835
2549.00,0.3826
2548.00,0.3817
2547.00,0.3808
2546.00,0.3800
2545.00,0.3793
2544.00,0.3785
2543.00,0.3778
2542.00,0.3771
2541.00,0.3763
2540.00,0.3756
2539.00,0.3750
2538.00,0.3743
2537.00,0.3737
2536.00,0.3730
2535.00,0.3723
2534.00,0.3716
2533.00,0.3709
2532.00,0.3702
2531.00,0.3695
2530.00,0.3686
2529.00,0.3677
2528.00,0.3666
2527.00,0.3656
2526.00,0.3646
2525.00,0.3635
2524.00,0.3625
2523.00,0.3615
2522.00,0.3605
2521.00,0.3595
2520.00,0.3585
2519.00,0.3576
2518.00,0.3567
2517.00,0.3558
2516.00,0.3550
2515.00,0.3542
2514.00,0.3535
2513.00,0.3529
2512.00,0.3522
2511.00,0.3516
2510.00,0.3510
2509.00,0.3504
2508.00,0.3499
2507.00,0.3493
2506.00,0.3488
2505.00,0.3482
2504.00,0.3478
2503.00,0.3473
2502.00,0.3469
2501.00,0.3466
2500.00,0.3462
2499.00,0.3458
2498.00,0.3453
2497.00,0.3448
2496.00,0.3443
2495.00,0.3438
2494.00,0.3433
2493.00,0.3428
2492.00,0.3424
2491.00,0.3419
2490.00,0.3413
2489.00,0.3409
2488.00,0.3404
2487.00,0.3400
2486.00,0.3395
2485.00,0.3390
2484.00,0.3386
2483.00,0.3381
2482.00,0.3377
2481.00,0.3374
2480.00,0.3371
2479.00,0.3368
2478.00,0.3365
2477.00,0.3363
2476.00,0.3360
2475.00,0.3358
2474.00,0.3356
2473.00,0.3354
2472.00,0.3352
2471.00,0.3350
2470.00,0.3348
2469.00,0.3346
2468.00,0.3344
2467.00,0.3342
2466.00,0.3340
2465.00,0.3338
2464.00,0.3336
2463.00,0.3333
2462.00,0.3330
2461.00,0.3328
2460.00,0.3326
2459.00,0.3324
2458.00,0.3322
2457.00,0.3319
2456.00,0.3317
2455.00,0.3314
2454.00,0.3312
2453.00,0.3310
2452.00,0.3308
2451.00,0.3306
2450.00,0.3304
2449.00,0.3302
2448.00,0.3301
2447.00,0.3300
2446.00,0.3299
2445.00,0.3298
2444.00,0.3298
2443.00,0.3298
2442.00,0.3298
2441.00,0.3299
2440.00,0.3300
2439.00,0.3302
2438.00,0.3303
2437.00,0.3305
2436.00,0.3306
2435.00,0.3307
2434.00,0.3308
2433.00,0.3309
2432.00,0.3311
2431.00,0.3312
2430.00,0.3313
2429.00,0.3314
2428.00,0.3314
2427.00,0.3315
2426.00,0.3315
2425.00,0.3315
2424.00,0.3316
2423.00,0.3316
2422.00,0.3316
2421.00,0.3316
2420.00,0.3316
2419.00,0.3316
2418.00,0.3315
2417.00,0.3315
2416.00,0.3315
2415.00,0.3314
2414.00,0.3314
2413.00,0.3314
2412.00,0.3314
2411.00,0.3314
2410.00,0.3314
2409.00,0.3313
2408.00,0.3312
2407.00,0.3311
2406.00,0.3310
2405.00,0.3310
2404.00,0.3310
2403.00,0.3310
2402.00,0.3309
2401.00,0.3309
2400.00,0.3308
2399.00,0.3307
2398.00,0.3306
2397.00,0.3305
2396.00,0.3305
2395.00,0.3303
2394.00,0.3302
2393.00,0.3300
2392.00,0.3299
2391.00,0.3297
2390.00,0.3296
2389.00,0.3296
2388.00,0.3296
2387.00,0.3296
2386.00,0.3296
2385.00,0.3296
2384.00,0.3295
2383.00,0.3294
2382.00,0.3292
2381.00,0.3291
2380.00,0.3289
2379.00,0.3287
2378.00,0.3285
2377.00,0.3283
2376.00,0.3282
2375.00,0.3280
2374.00,0.3279
2373.00,0.3277
2372.00,0.3275
2371.00,0.3273
2370.00,0.3272
2369.00,0.3270
2368.00,0.3270
2367.00,0.3269
2366.00,0.3268
2365.00,0.3267
2364.00,0.3266
2363.00,0.3264
2362.00,0.3261
2361.00,0.3259
2360.00,0.3256
2359.00,0.3254
2358.00,0.3252
2357.00,0.3250
2356.00,0.3249
2355.00,0.3247
2354.00,0.3245
2353.00,0.3244
2352.00,0.3246
2351.00,0.3250
2350.00,0.3252
2349.00,0.3249
2348.00,0.3242
2347.00,0.3233
2346.00,0.3227
2345.00,0.3227
2344.00,0.3231
2343.00,0.3235
2342.00,0.3239
2341.00,0.3242
2340.00,0.3245
2339.00,0.3246
2338.00,0.3247
2337.00,0.3248
2336.00,0.3249
2335.00,0.3249
2334.00,0.3248
2333.00,0.3247
2332.00,0.3245
2331.00,0.3244
2330.00,0.3243
2329.00,0.3242
2328.00,0.3242
2327.00,0.3240
2326.00,0.3238
2325.00,0.3236
2324.00,0.3234
2323.00,0.3232
2322.00,0.3230
2321.00,0.3229
2320.00,0.3227
2319.00,0.3225
2318.00,0.3223
2317.00,0.3222
2316.00,0.3220
2315.00,0.3217
2314.00,0.3214
2313.00,0.3210
2312.00,0.3207
2311.00,0.3203
2310.00,0.3200
2309.00,0.3197
2308.00,0.3193
2307.00,0.3190
2306.00,0.3187
2305.00,0.3184
2304.00,0.3181
2303.00,0.3178
2302.00,0.3175
2301.00,0.3172
2300.00,0.3170
2299.00,0.3166
2298.00,0.3163
2297.00,0.3160
2296.00,0.3157
2295.00,0.3154
2294.00,0.3151
2293.00,0.3148
2292.00,0.3146
2291.00,0.3143
2290.00,0.3140
2289.00,0.3137
2288.00,0.3135
2287.00,0.3132
2286.00,0.3130
2285.00,0.3128
2284.00,0.3126
2283.00,0.3123
2282.00,0.3120
2281.00,0.3117
2280.00,0.3114
2279.00,0.3110
2278.00,0.3107
2277.00,0.3103
2276.00,0.3101
2275.00,0.3098
2274.00,0.3096
2273.00,0.3094
2272.00,0.3092
2271.00,0.3090
2270.00,0.3088
2269.00,0.3086
2268.00,0.3083
2267.00,0.3081
2266.00,0.3080
2265.00,0.3078
2264.00,0.3077
2263.00,0.3075
2262.00,0.3073
2261.00,0.3071
2260.00,0.3068
2259.00,0.3065
2258.00,0.3062
2257.00,0.3060
2256.00,0.3057
2255.00,0.3054
2254.00,0.3052
2253.00,0.3049
2252.00,0.3047
2251.00,0.3045
2250.00,0.3043
2249.00,0.3040
2248.00,0.3038
2247.00,0.3036
2246.00,0.3033
2245.00,0.3030
2244.00,0.3028
2243.00,0.3027
2242.00,0.3025
2241.00,0.3024
2240.00,0.3022
2239.00,0.3021
2238.00,0.3019
2237.00,0.3018
2236.00,0.3018
2235.00,0.3017
2234.00,0.3016
2233.00,0.3015
2232.00,0.3015
2231.00,0.3014
2230.00,0.3014
2229.00,0.3013
2228.00,0.3012
2227.00,0.3011
2226.00,0.3010
2225.00,0.3009
2224.00,0.3008
2223.00,0.3007
2222.00,0.3006
2221.00,0.3005
2220.00,0.3004
2219.00,0.3003
2218.00,0.3002
2217.00,0.3001
2216.00,0.3000
2215.00,0.2999
2214.00,0.2998
2213.00,0.2997
2212.00,0.2995
2211.00,0.2994
2210.00,0.2993
2209.00,0.2993
2208.00,0.2993
2207.00,0.2992
2206.00,0.2992
2205.00,0.2991
2204.00,0.2991
2203.00,0.2991
2202.00,0.2991
2201.00,0.2991
2200.00,0.2991
2199.00,0.2991
2198.00,0.2991
2197.00,0.2992
2196.00,0.2992
2195.00,0.2993
2194.00,0.2993
2193.00,0.2994
2192.00,0.2995
2191.00,0.2996
2190.00,0.2996
2189.00,0.2996
2188.00,0.2996
2187.00,0.2996
2186.00,0.2996
2185.00,0.2995
2184.00,0.2995
2183.00,0.2994
2182.00,0.2993
2181.00,0.2992
2180.00,0.2990
2179.00,0.2989
2178.00,0.2987
2177.00,0.2985
2176.00,0.2984
2175.00,0.2983
2174.00,0.2981
2173.00,0.2979
2172.00,0.2978
2171.00,0.2976
2170.00,0.2974
2169.00,0.2972
2168.00,0.2971
2167.00,0.2969
2166.00,0.2967
2165.00,0.2966
2164.00,0.2964
2163.00,0.2963
2162.00,0.2962
2161.00,0.2961
2160.00,0.2961
2159.00,0.2961
2158.00,0.2960
2157.00,0.2959
2156.00,0.2958
2155.00,0.2957
2154.00,0.2956
2153.00,0.2954
2152.00,0.2953
2151.00,0.2952
2150.00,0.2950
2149.00,0.2948
2148.00,0.2946
2147.00,0.2942
2146.00,0.2938
2145.00,0.2933
2144.00,0.2929
2143.00,0.2924
2142.00,0.2920
2141.00,0.2916
2140.00,0.2912
2139.00,0.2908
2138.00,0.2905
2137.00,0.2902
2136.00,0.2899
2135.00,0.2896
2134.00,0.2893
2133.00,0.2890
2132.00,0.2888
2131.00,0.2885
2130.00,0.2884
2129.00,0.2882
2128.00,0.2881
2127.00,0.2880
2126.00,0.2878
2125.00,0.2877
2124.00,0.2876
2123.00,0.2875
2122.00,0.2875
2121.00,0.2874
2120.00,0.2874
2119.00,0.2874
2118.00,0.2873
2117.00,0.2872
2116.00,0.2872
2115.00,0.2871
2114.00,0.2870
2113.00,0.2869
2112.00,0.2869
2111.00,0.2869
2110.00,0.2868
2109.00,0.2867
2108.00,0.2866
2107.00,0.2865
2106.00,0.2864
2105.00,0.2863
2104.00,0.2862
2103.00,0.2861
2102.00,0.2859
2101.00,0.2858
2100.00,0.2857
2099.00,0.2857
2098.00,0.2856
2097.00,0.2855
2096.00,0.2855
2095.00,0.2854
2094.00,0.2853
2093.00,0.2852
2092.00,0.2851
2091.00,0.2850
2090.00,0.2850
2089.00,0.2849
2088.00,0.2849
2087.00,0.2849
2086.00,0.2849
2085.00,0.2849
2084.00,0.2849
2083.00,0.2850
2082.00,0.2850
2081.00,0.2851
2080.00,0.2851
2079.00,0.2851
2078.00,0.2852
2077.00,0.2852
2076.00,0.2853
2075.00,0.2854
2074.00,0.2854
2073.00,0.2855
2072.00,0.2856
2071.00,0.2856
2070.00,0.2856
2069.00,0.2857
2068.00,0.2857
2067.00,0.2858
2066.00,0.2858
2065.00,0.2859
2064.00,0.2860
2063.00,0.2861
2062.00,0.2861
2061.00,0.2862
2060.00,0.2863
2059.00,0.2864
2058.00,0.2865
2057.00,0.2866
2056.00,0.2867
2055.00,0.2868
2054.00,0.2870
2053.00,0.2872
2052.00,0.2874
2051.00,0.2875
2050.00,0.2875
2049.00,0.2876
2048.00,0.2878
2047.00,0.2880
2046.00,0.2881
2045.00,0.2883
2044.00,0.2885
2043.00,0.2886
2042.00,0.2887
2041.00,0.2888
2040.00,0.2890
2039.00,0.2891
2038.00,0.2892
2037.00,0.2893
2036.00,0.2895
2035.00,0.2895
2034.00,0.2896
2033.00,0.2896
2032.00,0.2897
2031.00,0.2897
2030.00,0.2896
2029.00,0.2896
2028.00,0.2896
2027.00,0.2895
2026.00,0.2894
2025.00,0.2892
2024.00,0.2891
2023.00,0.2888
2022.00,0.2885
2021.00,0.2882
2020.00,0.2877
2019.00,0.2872
2018.00,0.2866
2017.00,0.2861
2016.00,0.2856
2015.00,0.2852
2014.00,0.2847
2013.00,0.2841
2012.00,0.2836
2011.00,0.2830
2010.00,0.2825
2009.00,0.2821
2008.00,0.2818
2007.00,0.2815
2006.00,0.2811
2005.00,0.2809
2004.00,0.2808
2003.00,0.2806
2002.00,0.2805
2001.00,0.2803
2000.00,0.2802
1999.00,0.2801
1998.00,0.2800
1997.00,0.2800
1996.00,0.2799
1995.00,0.2799
1994.00,0.2797
1993.00,0.2795
1992.00,0.2794
1991.00,0.2794
1990.00,0.2794
1989.00,0.2794
1988.00,0.2794
1987.00,0.2794
1986.00,0.2794
1985.00,0.2794
1984.00,0.2794
1983.00,0.2793
1982.00,0.2792
1981.00,0.2790
1980.00,0.2790
1979.00,0.2789
1978.00,0.2788
1977.00,0.2788
1976.00,0.2787
1975.00,0.2786
1974.00,0.2786
1973.00,0.2785
1972.00,0.2785
1971.00,0.2784
1970.00,0.2783
1969.00,0.2782
1968.00,0.2782
1967.00,0.2782
1966.00,0.2783
1965.00,0.2785
1964.00,0.2786
1963.00,0.2787
1962.00,0.2788
1961.00,0.2789
1960.00,0.2791
1959.00,0.2792
1958.00,0.2794
1957.00,0.2796
1956.00,0.2798
1955.00,0.2800
1954.00,0.2802
1953.00,0.2804
1952.00,0.2806
1951.00,0.2807
1950.00,0.2807
1949.00,0.2808
1948.00,0.2809
1947.00,0.2810
1946.00,0.2811
1945.00,0.2813
1944.00,0.2816
1943.00,0.2820
1942.00,0.2825
1941.00,0.2830
1940.00,0.2836
1939.00,0.2840
1938.00,0.2842
1937.00,0.2843
1936.00,0.2841
1935.00,0.2839
1934.00,0.2836
1933.00,0.2835
1932.00,0.2834
1931.00,0.2834
1930.00,0.2834
1929.00,0.2835
1928.00,0.2836
1927.00,0.2837
1926.00,0.2837
1925.00,0.2839
1924.00,0.2841
1923.00,0.2843
1922.00,0.2848
1921.00,0.2854
1920.00,0.2859
1919.00,0.2863
1918.00,0.2867
1917.00,0.2872
1916.00,0.2875
1915.00,0.2878
1914.00,0.2878
1913.00,0.2879
1912.00,0.2880
1911.00,0.2881
1910.00,0.2881
1909.00,0.2882
1908.00,0.2883
1907.00,0.2884
1906.00,0.2885
1905.00,0.2885
1904.00,0.2885
1903.00,0.2884
1902.00,0.2883
1901.00,0.2882
1900.00,0.2883
1899.00,0.2883
1898.00,0.2883
1897.00,0.2884
1896.00,0.2885
1895.00,0.2886
1894.00,0.2888
1893.00,0.2890
1892.00,0.2891
1891.00,0.2891
1890.00,0.2891
1889.00,0.2892
1888.00,0.2895
1887.00,0.2897
1886.00,0.2898
1885.00,0.2899
1884.00,0.2900
1883.00,0.2901
1882.00,0.2901
1881.00,0.2901
1880.00,0.2901
1879.00,0.2900
1878.00,0.2900
1877.00,0.2900
1876.00,0.2900
1875.00,0.2899
1874.00,0.2897
1873.00,0.2895
1872.00,0.2893
1871.00,0.2889
1870.00,0.2886
1869.00,0.2883
1868.00,0.2882
1867.00,0.2881
1866.00,0.2879
1865.00,0.2877
1864.00,0.2875
1863.00,0.2871
1862.00,0.2867
1861.00,0.2864
1860.00,0.2861
1859.00,0.2858
1858.00,0.2854
1857.00,0.2852
1856.00,0.2850
1855.00,0.2848
1854.00,0.2846
1853.00,0.2844
1852.00,0.2843
1851.00,0.2842
1850.00,0.2841
1849.00,0.2840
1848.00,0.2839
1847.00,0.2839
1846.00,0.2837
1845.00,0.2836
1844.00,0.2837
1843.00,0.2838
1842.00,0.2840
1841.00,0.2840
1840.00,0.2839
1839.00,0.2837
1838.00,0.2836
1837.00,0.2836
1836.00,0.2836
1835.00,0.2836
1834.00,0.2836
1833.00,0.2835
1832.00,0.2834
1831.00,0.2832
1830.00,0.2831
1829.00,0.2831
1828.00,0.2831
1827.00,0.2829
1826.00,0.2826
1825.00,0.2824
1824.00,0.2825
1823.00,0.2826
1822.00,0.2826
1821.00,0.2826
1820.00,0.2826
1819.00,0.2825
1818.00,0.2824
1817.00,0.2825
1816.00,0.2826
1815.00,0.2828
1814.00,0.2828
1813.00,0.2829
1812.00,0.2830
1811.00,0.2832
1810.00,0.2834
1809.00,0.2837
1808.00,0.2840
1807.00,0.2844
1806.00,0.2847
1805.00,0.2851
1804.00,0.2855
1803.00,0.2858
1802.00,0.2861
1801.00,0.2867
1800.00,0.2875
1799.00,0.2883
1798.00,0.2888
1797.00,0.2893
1796.00,0.2897
1795.00,0.2901
1794.00,0.2903
1793.00,0.2906
1792.00,0.2910
1791.00,0.2915
1790.00,0.2920
1789.00,0.2925
1788.00,0.2929
1787.00,0.2931
1786.00,0.2932
1785.00,0.2934
1784.00,0.2939
1783.00,0.2943
1782.00,0.2946
1781.00,0.2949
1780.00,0.2952
1779.00,0.2956
1778.00,0.2961
1777.00,0.2966
1776.00,0.2972
1775.00,0.2977
1774.00,0.2983
1773.00,0.2990
1772.00,0.3000
1771.00,0.3009
1770.00,0.3016
1769.00,0.3023
1768.00,0.3032
1767.00,0.3042
1766.00,0.3054
1765.00,0.3066
1764.00,0.3077
1763.00,0.3089
1762.00,0.3104
1761.00,0.3122
1760.00,0.3142
1759.00,0.3162
1758.00,0.3182
1757.00,0.3207
1756.00,0.3235
1755.00,0.3264
1754.00,0.3291
1753.00,0.3318
1752.00,0.3347
1751.00,0.3380
1750.00,0.3414
1749.00,0.3447
1748.00,0.3476
1747.00,0.3500
1746.00,0.3518
1745.00,0.3533
1744.00,0.3544
1743.00,0.3553
1742.00,0.3559
1741.00,0.3563
1740.00,0.3564
1739.00,0.3562
1738.00,0.3557
1737.00,0.3550
1736.00,0.3542
1735.00,0.3529
1734.00,0.3516
1733.00,0.3509
1732.00,0.3505
1731.00,0.3501
1730.00,0.3499
1729.00,0.3501
1728.00,0.3507
1727.00,0.3515
1726.00,0.3526
1725.00,0.3541
1724.00,0.3563
1723.00,0.3589
1722.00,0.3620
1721.00,0.3655
1720.00,0.3696
1719.00,0.3749
1718.00,0.3822
1717.00,0.3915
1716.00,0.4020
1715.00,0.4132
1714.00,0.4251
1713.00,0.4374
1712.00,0.4494
1711.00,0.4607
1710.00,0.4709
1709.00,0.4788
1708.00,0.4834
1707.00,0.4844
1706.00,0.4818
1705.00,0.4762
1704.00,0.4690
1703.00,0.4612
1702.00,0.4520
1701.00,0.4395
1700.00,0.4254
1699.00,0.4138
1698.00,0.4055
1697.00,0.3980
1696.00,0.3899
1695.00,0.3823
1694.00,0.3765
1693.00,0.3723
1692.00,0.3687
1691.00,0.3651
1690.00,0.3618
1689.00,0.3591
1688.00,0.3571
1687.00,0.3554
1686.00,0.3538
1685.00,0.3519
1684.00,0.3500
1683.00,0.3486
1682.00,0.3476
1681.00,0.3467
1680.00,0.3458
1679.00,0.3450
1678.00,0.3444
1677.00,0.3439
1676.00,0.3433
1675.00,0.3427
1674.00,0.3424
1673.00,0.3422
1672.00,0.3420
1671.00,0.3417
1670.00,0.3413
1669.00,0.3413
1668.00,0.3413
1667.00,0.3413
1666.00,0.3413
1665.00,0.3413
1664.00,0.3413
1663.00,0.3413
1662.00,0.3414
1661.00,0.3416
1660.00,0.3419
1659.00,0.3421
1658.00,0.3424
1657.00,0.3427
1656.00,0.3431
1655.00,0.3435
1654.00,0.3441
1653.00,0.3455
1652.00,0.3471
1651.00,0.3479
1650.00,0.3483
1649.00,0.3487
1648.00,0.3493
1647.00,0.3502
1646.00,0.3516
1645.00,0.3531
1644.00,0.3544
1643.00,0.3555
1642.00,0.3565
1641.00,0.3579
1640.00,0.3594
1639.00,0.3610
1638.00,0.3625
1637.00,0.3645
1636.00,0.3671
1635.00,0.3698
1634.00,0.3723
1633.00,0.3743
1632.00,0.3762
1631.00,0.3781
1630.00,0.3801
1629.00,0.3826
1628.00,0.3855
1627.00,0.3883
1626.00,0.3912
1625.00,0.3945
1624.00,0.3985
1623.00,0.4031
1622.00,0.4080
1621.00,0.4133
1620.00,0.4190
1619.00,0.4254
1618.00,0.4333
1617.00,0.4437
1616.00,0.4554
1615.00,0.4664
1614.00,0.4760
1613.00,0.4855
1612.00,0.4954
1611.00,0.5055
1610.00,0.5154
1609.00,0.5253
1608.00,0.5348
1607.00,0.5432
1606.00,0.5502
1605.00,0.5566
1604.00,0.5627
1603.00,0.5684
1602.00,0.5739
1601.00,0.5798
1600.00,0.5866
1599.00,0.5939
1598.00,0.6021
1597.00,0.6128
1596.00,0.6269
1595.00,0.6447
1594.00,0.6669
1593.00,0.6952
1592.00,0.7313
1591.00,0.7765
1590.00,0.8331
1589.00,0.9053
1588.00,0.9981
1587.00,1.1149
1586.00,1.2582
1585.00,1.4326
1584.00,1.6429
1583.00,1.8722
1582.00,2.0485
1581.00,2.0871
1580.00,1.9982
1579.00,1.8311
1578.00,1.6246
1577.00,1.4178
1576.00,1.2416
1575.00,1.1113
1574.00,1.0223
1573.00,0.9609
1572.00,0.9153
1571.00,0.8795
1570.00,0.8536
1569.00,0.8415
1568.00,0.8446
1567.00,0.8617
1566.00,0.8938
1565.00,0.9436
1564.00,1.0092
1563.00,1.0806
1562.00,1.1454
1561.00,1.1938
1560.00,1.2011
1559.00,1.1349
1558.00,1.0320
1557.00,0.9448
1556.00,0.8744
1555.00,0.8087
1554.00,0.7484
1553.00,0.6992
1552.00,0.6621
1551.00,0.6326
1550.00,0.6077
1549.00,0.5876
1548.00,0.5724
1547.00,0.5604
1546.00,0.5499
1545.00,0.5407
1544.00,0.5335
1543.00,0.5280
1542.00,0.5231
1541.00,0.5186
1540.00,0.5141
1539.00,0.5097
1538.00,0.5056
1537.00,0.5024
1536.00,0.4996
1535.00,0.4967
1534.00,0.4937
1533.00,0.4916
1532.00,0.4909
1531.00,0.4911
1530.00,0.4915
1529.00,0.4924
1528.00,0.4934
1527.00,0.4938
1526.00,0.4936
1525.00,0.4933
1524.00,0.4932
1523.00,0.4934
1522.00,0.4941
1521.00,0.4963
1520.00,0.4996
1519.00,0.5029
1518.00,0.5063
1517.00,0.5100
1516.00,0.5137
1515.00,0.5162
1514.00,0.5174
1513.00,0.5180
1512.00,0.5186
1511.00,0.5195
1510.00,0.5212
1509.00,0.5245
1508.00,0.5306
1507.00,0.5403
1506.00,0.5526
1505.00,0.5648
1504.00,0.5749
1503.00,0.5831
1502.00,0.5906
1501.00,0.5980
1500.00,0.6052
1499.00,0.6119
1498.00,0.6188
1497.00,0.6277
1496.00,0.6383
1495.00,0.6491
1494.00,0.6594
1493.00,0.6703
1492.00,0.6825
1491.00,0.6961
1490.00,0.7117
1489.00,0.7298
1488.00,0.7496
1487.00,0.7705
1486.00,0.7935
1485.00,0.8202
1484.00,0.8509
1483.00,0.8863
1482.00,0.9285
1481.00,0.9788
1480.00,1.0354
1479.00,1.0971
1478.00,1.1670
1477.00,1.2503
1476.00,1.3483
1475.00,1.4606
1474.00,1.5966
1473.00,1.7761
1472.00,2.0099
1471.00,2.2819
1470.00,2.5735
1469.00,2.8917
1468.00,3.2082
1467.00,3.3708
1466.00,3.4503
1465.00,3.6001
1464.00,3.8115
1463.00,4.0434
1462.00,3.9454
1461.00,3.9714
1460.00,4.1975
1459.00,4.1707
1458.00,3.9643
1457.00,3.8355
1456.00,3.9858
1455.00,4.0174
1454.00,3.6427
1453.00,3.6056
1452.00,3.5775
1451.00,3.4379
1450.00,3.4146
1449.00,3.4633
1448.00,3.3275
1447.00,3.0641
1446.00,2.8817
1445.00,2.7568
1444.00,2.6220
1443.00,2.4722
1442.00,2.3365
1441.00,2.2186
1440.00,2.1070
1439.00,1.9963
1438.00,1.8839
1437.00,1.7657
1436.00,1.6475
1435.00,1.5418
1434.00,1.4502
1433.00,1.3650
1432.00,1.2810
1431.00,1.2002
1430.00,1.1270
1429.00,1.0642
1428.00,1.0128
1427.00,0.9721
1426.00,0.9392
1425.00,0.9113
1424.00,0.8882
1423.00,0.8707
1422.00,0.8579
1421.00,0.8473
1420.00,0.8371
1419.00,0.8275
1418.00,0.8194
1417.00,0.8126
1416.00,0.8069
1415.00,0.8026
1414.00,0.7992
1413.00,0.7964
1412.00,0.7944
1411.00,0.7932
1410.00,0.7920
1409.00,0.7896
1408.00,0.7850
1407.00,0.7781
1406.00,0.7685
1405.00,0.7566
1404.00,0.7437
1403.00,0.7318
1402.00,0.7211
1401.00,0.7114
1400.00,0.7027
1399.00,0.6961
1398.00,0.6921
1397.00,0.6903
1396.00,0.6913
1395.00,0.6959
1394.00,0.7049
1393.00,0.7185
1392.00,0.7379
1391.00,0.7653
1390.00,0.8031
1389.00,0.8547
1388.00,0.9245
1387.00,1.0132
1386.00,1.1148
1385.00,1.2211
1384.00,1.3300
1383.00,1.4458
1382.00,1.5727
1381.00,1.7145
1380.00,1.8733
1379.00,2.0383
1378.00,2.1697
1377.00,2.2163
1376.00,2.1633
1375.00,2.0336
1374.00,1.8696
1373.00,1.7131
1372.00,1.5839
1371.00,1.4831
1370.00,1.4083
1369.00,1.3577
1368.00,1.3272
1367.00,1.3057
1366.00,1.2776
1365.00,1.2317
1364.00,1.1676
1363.00,1.0955
1362.00,1.0281
1361.00,0.9734
1360.00,0.9322
1359.00,0.9020
1358.00,0.8798
1357.00,0.8640
1356.00,0.8532
1355.00,0.8465
1354.00,0.8426
1353.00,0.8403
1352.00,0.8384
1351.00,0.8361
1350.00,0.8332
1349.00,0.8298
1348.00,0.8263
1347.00,0.8232
1346.00,0.8205
1345.00,0.8182
1344.00,0.8162
1343.00,0.8141
1342.00,0.8112
1341.00,0.8066
1340.00,0.7998
1339.00,0.7908
1338.00,0.7800
1337.00,0.7674
1336.00,0.7536
1335.00,0.7394
1334.00,0.7255
1333.00,0.7126
1332.00,0.7012
1331.00,0.6917
1330.00,0.6841
1329.00,0.6783
1328.00,0.6740
1327.00,0.6712
1326.00,0.6696
1325.00,0.6690
1324.00,0.6689
1323.00,0.6693
1322.00,0.6700
1321.00,0.6706
1320.00,0.6714
1319.00,0.6724
1318.00,0.6739
1317.00,0.6758
1316.00,0.6782
1315.00,0.6811
1314.00,0.6844
1313.00,0.6880
1312.00,0.6917
1311.00,0.6953
1310.00,0.6988
1309.00,0.7019
1308.00,0.7046
1307.00,0.7066
1306.00,0.7076
1305.00,0.7075
1304.00,0.7059
1303.00,0.7030
1302.00,0.6991
1301.00,0.6944
1300.00,0.6892
1299.00,0.6838
1298.00,0.6782
1297.00,0.6726
1296.00,0.6670
1295.00,0.6620
1294.00,0.6574
1293.00,0.6532
1292.00,0.6491
1291.00,0.6452
1290.00,0.6415
1289.00,0.6380
1288.00,0.6346
1287.00,0.6313
1286.00,0.6279
1285.00,0.6242
1284.00,0.6203
1283.00,0.6164
1282.00,0.6129
1281.00,0.6100
1280.00,0.6075
1279.00,0.6053
1278.00,0.6031
1277.00,0.6009
1276.00,0.5986
1275.00,0.5964
1274.00,0.5944
1273.00,0.5926
1272.00,0.5913
1271.00,0.5905
1270.00,0.5901
1269.00,0.5895
1268.00,0.5883
1267.00,0.5862
1266.00,0.5831
1265.00,0.5794
1264.00,0.5758
1263.00,0.5727
1262.00,0.5703
1261.00,0.5685
1260.00,0.5670
1259.00,0.5654
1258.00,0.5636
1257.00,0.5614
1256.00,0.5589
1255.00,0.5565
1254.00,0.5543
1253.00,0.5525
1252.00,0.5510
1251.00,0.5498
1250.00,0.5487
1249.00,0.5474
1248.00,0.5458
1247.00,0.5438
1246.00,0.5415
1245.00,0.5389
1244.00,0.5360
1243.00,0.5330
1242.00,0.5298
1241.00,0.5265
1240.00,0.5234
1239.00,0.5207
1238.00,0.5185
1237.00,0.5166
1236.00,0.5150
1235.00,0.5137
1234.00,0.5129
1233.00,0.5124
1232.00,0.5125
1231.00,0.5132
1230.00,0.5139
1229.00,0.5140
1228.00,0.5130
1227.00,0.5109
1226.00,0.5081
1225.00,0.5048
1224.00,0.5016
1223.00,0.4988
1222.00,0.4968
1221.00,0.4952
1220.00,0.4941
1219.00,0.4934
1218.00,0.4932
1217.00,0.4933
1216.00,0.4938
1215.00,0.4947
1214.00,0.4956
1213.00,0.4962
1212.00,0.4962
1211.00,0.4957
1210.00,0.4949
1209.00,0.4938
1208.00,0.4923
1207.00,0.4908
1206.00,0.4891
1205.00,0.4875
1204.00,0.4858
1203.00,0.4844
1202.00,0.4831
1201.00,0.4821
1200.00,0.4815
1199.00,0.4813
1198.00,0.4811
1197.00,0.4806
1196.00,0.4798
1195.00,0.4787
1194.00,0.4777
1193.00,0.4769
1192.00,0.4762
1191.00,0.4757
1190.00,0.4752
1189.00,0.4745
1188.00,0.4737
1187.00,0.4731
1186.00,0.4727
1185.00,0.4725
1184.00,0.4723
1183.00,0.4723
1182.00,0.4724
1181.00,0.4727
1180.00,0.4732
1179.00,0.4741
1178.00,0.4752
1177.00,0.4768
1176.00,0.4791
1175.00,0.4823
1174.00,0.4863
1173.00,0.4910
1172.00,0.4958
1171.00,0.5002
1170.00,0.5035
1169.00,0.5052
1168.00,0.5052
1167.00,0.5041
1166.00,0.5024
1165.00,0.5008
1164.00,0.4997
1163.00,0.4995
1162.00,0.5001
1161.00,0.5014
1160.00,0.5029
1159.00,0.5045
1158.00,0.5060
1157.00,0.5070
1156.00,0.5075
1155.00,0.5075
1154.00,0.5067
1153.00,0.5051
1152.00,0.5028
1151.00,0.5003
1150.00,0.4977
1149.00,0.4950
1148.00,0.4924
1147.00,0.4900
1146.00,0.4879
1145.00,0.4863
1144.00,0.4852
1143.00,0.4850
1142.00,0.4858
1141.00,0.4876
1140.00,0.4905
1139.00,0.4945
1138.00,0.4997
1137.00,0.5059
1136.00,0.5131
1135.00,0.5208
1134.00,0.5277
1133.00,0.5319
1132.00,0.5318
1131.00,0.5276
1130.00,0.5205
1129.00,0.5124
1128.00,0.5051
1127.00,0.4995
1126.00,0.4958
1125.00,0.4935
1124.00,0.4919
1123.00,0.4907
1122.00,0.4893
1121.00,0.4877
1120.00,0.4865
1119.00,0.4863
1118.00,0.4874
1117.00,0.4898
1116.00,0.4931
1115.00,0.4965
1114.00,0.4986
1113.00,0.4981
1112.00,0.4947
1111.00,0.4892
1110.00,0.4831
1109.00,0.4774
1108.00,0.4728
1107.00,0.4696
1106.00,0.4677
1105.00,0.4666
1104.00,0.4660
1103.00,0.4654
1102.00,0.4649
1101.00,0.4642
1100.00,0.4634
1099.00,0.4626
1098.00,0.4617
1097.00,0.4609
1096.00,0.4603
1095.00,0.4600
1094.00,0.4601
1093.00,0.4605
1092.00,0.4611
1091.00,0.4619
1090.00,0.4631
1089.00,0.4647
1088.00,0.4668
1087.00,0.4696
1086.00,0.4731
1085.00,0.4774
1084.00,0.4825
1083.00,0.4883
1082.00,0.4950
1081.00,0.5021
1080.00,0.5093
1079.00,0.5159
1078.00,0.5211
1077.00,0.5238
1076.00,0.5237
1075.00,0.5207
1074.00,0.5157
1073.00,0.5098
1072.00,0.5037
1071.00,0.4984
1070.00,0.4941
1069.00,0.4907
1068.00,0.4883
1067.00,0.4868
1066.00,0.4860
1065.00,0.4853
1064.00,0.4849
1063.00,0.4847
1062.00,0.4849
1061.00,0.4853
1060.00,0.4858
1059.00,0.4863
1058.00,0.4864
1057.00,0.4862
1056.00,0.4856
1055.00,0.4850
1054.00,0.4846
1053.00,0.4845
1052.00,0.4849
1051.00,0.4860
1050.00,0.4876
1049.00,0.4896
1048.00,0.4916
1047.00,0.4934
1046.00,0.4948
1045.00,0.4956
1044.00,0.4957
1043.00,0.4955
1042.00,0.4953
1041.00,0.4950
1040.00,0.4947
1039.00,0.4943
1038.00,0.4937
1037.00,0.4930
1036.00,0.4925
1035.00,0.4925
1034.00,0.4932
1033.00,0.4946
1032.00,0.4965
1031.00,0.4985
1030.00,0.5000
1029.00,0.5009
1028.00,0.5007
1027.00,0.4991
1026.00,0.4961
1025.00,0.4916
1024.00,0.4861
1023.00,0.4805
1022.00,0.4751
1021.00,0.4703
1020.00,0.4660
1019.00,0.4623
1018.00,0.4591
1017.00,0.4563
1016.00,0.4536
1015.00,0.4512
1014.00,0.4491
1013.00,0.4473
1012.00,0.4457
1011.00,0.4445
1010.00,0.4438
1009.00,0.4435
1008.00,0.4438
1007.00,0.4444
1006.00,0.4454
1005.00,0.4465
1004.00,0.4478
1003.00,0.4493
1002.00,0.4510
1001.00,0.4526
1000.00,0.4540
999.00,0.4550
998.00,0.4553
997.00,0.4550
996.00,0.4538
995.00,0.4518
994.00,0.4493
993.00,0.4463
992.00,0.4431
991.00,0.4400
990.00,0.4373
989.00,0.4348
988.00,0.4328
987.00,0.4314
986.00,0.4310
985.00,0.4314
984.00,0.4325
983.00,0.4343
982.00,0.4364
981.00,0.4388
980.00,0.4414
979.00,0.4440
978.00,0.4465
977.00,0.4486
976.00,0.4503
975.00,0.4516
974.00,0.4526
973.00,0.4531
972.00,0.4532
971.00,0.4531
970.00,0.4529
969.00,0.4527
968.00,0.4525
967.00,0.4522
966.00,0.4518
965.00,0.4510
964.00,0.4500
963.00,0.4488
962.00,0.4475
961.00,0.4462
960.00,0.4450
959.00,0.4441
958.00,0.4435
957.00,0.4431
956.00,0.4428
955.00,0.4424
954.00,0.4417
953.00,0.4407
952.00,0.4395
951.00,0.4385
950.00,0.4378
949.00,0.4375
948.00,0.4375
947.00,0.4380
946.00,0.4387
945.00,0.4396
944.00,0.4408
943.00,0.4423
942.00,0.4440
941.00,0.4457
940.00,0.4470
939.00,0.4480
938.00,0.4484
937.00,0.4482
936.00,0.4473
935.00,0.4459
934.00,0.4440
933.00,0.4418
932.00,0.4394
931.00,0.4371
930.00,0.4350
929.00,0.4334
928.00,0.4324
927.00,0.4324
926.00,0.4338
925.00,0.4367
924.00,0.4407
923.00,0.4454
922.00,0.4499
921.00,0.4527
920.00,0.4528
919.00,0.4494
918.00,0.4432
917.00,0.4353
916.00,0.4272
915.00,0.4199
914.00,0.4138
913.00,0.4088
912.00,0.4049
911.00,0.4019
910.00,0.3996
909.00,0.3976
908.00,0.3959
907.00,0.3946
906.00,0.3939
905.00,0.3937
904.00,0.3940
903.00,0.3948
902.00,0.3960
901.00,0.3977
900.00,0.4000
899.00,0.4030
898.00,0.4065
897.00,0.4101
896.00,0.4136
895.00,0.4174
894.00,0.4215
893.00,0.4258
892.00,0.4300
891.00,0.4337
890.00,0.4364
889.00,0.4378
888.00,0.4377
887.00,0.4364
886.00,0.4345
885.00,0.4324
884.00,0.4307
883.00,0.4297
882.00,0.4298
881.00,0.4306
880.00,0.4318
879.00,0.4331
878.00,0.4340
877.00,0.4344
876.00,0.4342
875.00,0.4339
874.00,0.4339
873.00,0.4341
872.00,0.4347
871.00,0.4357
870.00,0.4369
869.00,0.4381
868.00,0.4395
867.00,0.4416
866.00,0.4448
865.00,0.4487
864.00,0.4527
863.00,0.4557
862.00,0.4567
861.00,0.4548
860.00,0.4503
859.00,0.4440
858.00,0.4372
857.00,0.4312
856.00,0.4265
855.00,0.4233
854.00,0.4213
853.00,0.4199
852.00,0.4186
851.00,0.4172
850.00,0.4156
849.00,0.4137
848.00,0.4114
847.00,0.4089
846.00,0.4063
845.00,0.4036
844.00,0.4011
843.00,0.3992
842.00,0.3983
841.00,0.3988
840.00,0.4011
839.00,0.4056
838.00,0.4115
837.00,0.4176
836.00,0.4219
835.00,0.4233
834.00,0.4216
833.00,0.4180
832.00,0.4141
831.00,0.4113
830.00,0.4105
829.00,0.4118
828.00,0.4149
827.00,0.4196
826.00,0.4254
825.00,0.4316
824.00,0.4380
823.00,0.4448
822.00,0.4521
821.00,0.4594
820.00,0.4665
819.00,0.4730
818.00,0.4786
817.00,0.4828
816.00,0.4853
815.00,0.4859
814.00,0.4847
813.00,0.4817
812.00,0.4769
811.00,0.4709
810.00,0.4644
809.00,0.4581
808.00,0.4524
807.00,0.4475
806.00,0.4431
805.00,0.4387
804.00,0.4337
803.00,0.4281
802.00,0.4219
801.00,0.4157
800.00,0.4101
799.00,0.4056
798.00,0.4024
797.00,0.4002
796.00,0.3987
795.00,0.3977
794.00,0.3971
793.00,0.3971
792.00,0.3977
791.00,0.3992
790.00,0.4014
789.00,0.4039
788.00,0.4066
787.00,0.4096
786.00,0.4132
785.00,0.4174
784.00,0.4220
783.00,0.4265
782.00,0.4304
781.00,0.4333
780.00,0.4353
779.00,0.4370
778.00,0.4386
777.00,0.4401
776.00,0.4416
775.00,0.4433
774.00,0.4454
773.00,0.4476
772.00,0.4499
771.00,0.4526
770.00,0.4556
769.00,0.4589
768.00,0.4621
767.00,0.4649
766.00,0.4672
765.00,0.4686
764.00,0.4696
763.00,0.4709
762.00,0.4731
761.00,0.4763
760.00,0.4801
759.00,0.4841
758.00,0.4877
757.00,0.4907
756.00,0.4933
755.00,0.4961
754.00,0.4995
753.00,0.5036
752.00,0.5081
751.00,0.5127
750.00,0.5173
749.00,0.5219
748.00,0.5260
747.00,0.5296
746.00,0.5328
745.00,0.5362
744.00,0.5402
743.00,0.5451
742.00,0.5506
741.00,0.5559
740.00,0.5607
739.00,0.5648
738.00,0.5685
737.00,0.5719
736.00,0.5754
735.00,0.5793
734.00,0.5840
733.00,0.5900
732.00,0.5975
731.00,0.6072
730.00,0.6196
729.00,0.6348
728.00,0.6530
727.00,0.6745
726.00,0.6998
725.00,0.7283
724.00,0.7574
723.00,0.7817
722.00,0.7933
721.00,0.7847
720.00,0.7552
719.00,0.7122
718.00,0.6658
717.00,0.6231
716.00,0.5870
715.00,0.5581
714.00,0.5353
713.00,0.5170
712.00,0.5019
711.00,0.4895
710.00,0.4794
709.00,0.4712
708.00,0.4646
707.00,0.4592
706.00,0.4547
705.00,0.4505
704.00,0.4467
703.00,0.4436
702.00,0.4419
701.00,0.4412
700.00,0.4397
699.00,0.4349
698.00,0.4250
697.00,0.4106
696.00,0.3945
695.00,0.3798
694.00,0.3681
693.00,0.3595
692.00,0.3531
691.00,0.3483
690.00,0.3445
689.00,0.3414
688.00,0.3387
687.00,0.3365
686.00,0.3350
685.00,0.3339
684.00,0.3329
683.00,0.3321
682.00,0.3315
681.00,0.3312
680.00,0.3309
679.00,0.3308
678.00,0.3307
677.00,0.3307
676.00,0.3308
675.00,0.3308
674.00,0.3309
673.00,0.3312
672.00,0.3315
671.00,0.3320
670.00,0.3327
669.00,0.3331
668.00,0.3336
667.00,0.3343
666.00,0.3347
665.00,0.3348
664.00,0.3352
663.00,0.3361
662.00,0.3372
661.00,0.3382
660.00,0.3391
659.00,0.3401
658.00,0.3412
657.00,0.3424
656.00,0.3434
655.00,0.3443
654.00,0.3451
653.00,0.3461
652.00,0.3472
651.00,0.3485
650.00,0.3495
649.00,0.3503
648.00,0.3511
647.00,0.3520
646.00,0.3532
645.00,0.3544
644.00,0.3558
643.00,0.3574
642.00,0.3593
641.00,0.3610
640.00,0.3623
639.00,0.3632
638.00,0.3639
637.00,0.3645
636.00,0.3649
635.00,0.3654
634.00,0.3660
633.00,0.3666
632.00,0.3674
631.00,0.3683
630.00,0.3695
629.00,0.3709
628.00,0.3726
627.00,0.3748
626.00,0.3770
625.00,0.3791
624.00,0.3809
623.00,0.3828
622.00,0.3847
621.00,0.3867
620.00,0.3885
619.00,0.3902
618.00,0.3916
617.00,0.3922
616.00,0.3920
615.00,0.3913
614.00,0.3904
613.00,0.3893
612.00,0.3882
611.00,0.3875
610.00,0.3870
609.00,0.3861
608.00,0.3848
607.00,0.3834
606.00,0.3821
605.00,0.3809
604.00,0.3800
603.00,0.3797
602.00,0.3801
601.00,0.3808
600.00,0.3814
599.00,0.3819
598.00,0.3824
597.00,0.3828
596.00,0.3831
595.00,0.3835
594.00,0.3842
593.00,0.3855
592.00,0.3873
591.00,0.3894
590.00,0.3916
589.00,0.3934
588.00,0.3951
587.00,0.3972
586.00,0.3999
585.00,0.4028
584.00,0.4054
583.00,0.4079
582.00,0.4106
581.00,0.4135
580.00,0.4164
579.00,0.4192
578.00,0.4217
577.00,0.4238
576.00,0.4255
575.00,0.4268
574.00,0.4280
573.00,0.4291
572.00,0.4306
571.00,0.4329
570.00,0.4359
569.00,0.4388
568.00,0.4410
567.00,0.4423
566.00,0.4431
565.00,0.4436
564.00,0.4440
563.00,0.4446
562.00,0.4457
561.00,0.4472
560.00,0.4489
559.00,0.4504
558.00,0.4514
557.00,0.4521
556.00,0.4526
555.00,0.4535
554.00,0.4544
553.00,0.4550
552.00,0.4553
551.00,0.4557
550.00,0.4567
