Created as New Dataset,
cm-1,A
4000.00,0.3781
3999.00,0.3779
3998.00,0.3776
3997.00,0.3772
3996.00,0.3769
3995.00,0.3766
3994.00,0.3763
3993.00,0.3760
3992.00,0.3757
3991.00,0.3753
3990.00,0.3748
3989.00,0.3744
3988.00,0.3741
3987.00,0.3737
3986.00,0.3734
3985.00,0.3731
3984.00,0.3727
3983.00,0.3724
3982.00,0.3720
3981.00,0.3716
3980.00,0.3712
3979.00,0.3708
3978.00,0.3705
3977.00,0.3702
3976.00,0.3700
3975.00,0.3698
3974.00,0.3695
3973.00,0.3692
3972.00,0.3690
3971.00,0.3688
3970.00,0.3686
3969.00,0.3684
3968.00,0.3682
3967.00,0.3680
3966.00,0.3678
3965.00,0.3676
3964.00,0.3674
3963.00,0.3673
3962.00,0.3671
3961.00,0.3669
3960.00,0.3668
3959.00,0.3666
3958.00,0.3666
3957.00,0.3665
3956.00,0.3664
3955.00,0.3663
3954.00,0.3661
3953.00,0.3659
3952.00,0.3657
3951.00,0.3655
3950.00,0.3653
3949.00,0.3652
3948.00,0.3652
3947.00,0.3651
3946.00,0.3649
3945.00,0.3647
3944.00,0.3644
3943.00,0.3642
3942.00,0.3640
3941.00,0.3639
3940.00,0.3638
3939.00,0.3637
3938.00,0.3637
3937.00,0.3636
3936.00,0.3636
3935.00,0.3635
3934.00,0.3635
3933.00,0.3634
3932.00,0.3634
3931.00,0.3634
3930.00,0.3634
3929.00,0.3633
3928.00,0.3633
3927.00,0.3633
3926.00,0.3633
3925.00,0.3633
3924.00,0.3634
3923.00,0.3634
3922.00,0.3634
3921.00,0.3634
3920.00,0.3633
3919.00,0.3633
3918.00,0.3632
3917.00,0.3632
3916.00,0.3631
3915.00,0.3630
3914.00,0.3630
3913.00,0.3629
3912.00,0.3629
3911.00,0.3629
3910.00,0.3629
3909.00,0.3628
3908.00,0.3628
3907.00,0.3627
3906.00,0.3627
3905.00,0.3626
3904.00,0.3625
3903.00,0.3624
3902.00,0.3623
3901.00,0.3622
3900.00,0.3621
3899.00,0.3621
3898.00,0.3620
3897.00,0.3620
3896.00,0.3619
3895.00,0.3618
3894.00,0.3618
3893.00,0.3617
3892.00,0.3616
3891.00,0.3615
3890.00,0.3614
3889.00,0.3613
3888.00,0.3611
3887.00,0.3611
3886.00,0.3612
3885.00,0.3613
3884.00,0.3614
3883.00,0.3612
3882.00,0.3611
3881.00,0.3610
3880.00,0.3611
3879.00,0.3611
3878.00,0.3611
3877.00,0.3609
3876.00,0.3609
3875.00,0.3609
3874.00,0.3610
3873.00,0.3609
3872.00,0.3607
3871.00,0.3604
3870.00,0.3603
3869.00,0.3603
3868.00,0.3602
3867.00,0.3599
3866.00,0.3597
3865.00,0.3596
3864.00,0.3595
3863.00,0.3593
3862.00,0.3589
3861.00,0.3586
3860.00,0.3584
3859.00,0.3583
3858.00,0.3583
3857.00,0.3584
3856.00,0.3584
3855.00,0.3583
3854.00,0.3583
3853.00,0.3585
3852.00,0.3586
3851.00,0.3585
3850.00,0.3584
3849.00,0.3583
3848.00,0.3583
3847.00,0.3582
3846.00,0.3581
3845.00,0.3580
3844.00,0.3580
3843.00,0.3580
3842.00,0.3581
3841.00,0.3581
3840.00,0.3582
3839.00,0.3583
3838.00,0.3584
3837.00,0.3583
3836.00,0.3582
3835.00,0.3580
3834.00,0.3578
3833.00,0.3575
3832.00,0.3574
3831.00,0.3573
3830.00,0.3572
3829.00,0.3570
3828.00,0.3567
3827.00,0.3565
3826.00,0.3564
3825.00,0.3563
3824.00,0.3562
3823.00,0.3561
3822.00,0.3560
3821.00,0.3561
3820.00,0.3560
3819.00,0.3559
3818.00,0.3556
3817.00,0.3554
3816.00,0.3553
3815.00,0.3552
3814.00,0.3549
3813.00,0.3546
3812.00,0.3543
3811.00,0.3542
3810.00,0.3541
3809.00,0.3540
3808.00,0.3539
3807.00,0.3538
3806.00,0.3538
3805.00,0.3537
3804.00,0.3536
3803.00,0.3535
3802.00,0.3535
3801.00,0.3536
3800.00,0.3534
3799.00,0.3530
3798.00,0.3526
3797.00,0.3523
3796.00,0.3521
3795.00,0.3519
3794.00,0.3517
3793.00,0.3514
3792.00,0.3511
3791.00,0.3508
3790.00,0.3506
3789.00,0.3505
3788.00,0.3503
3787.00,0.3502
3786.00,0.3500
3785.00,0.3498
3784.00,0.3496
3783.00,0.3495
3782.00,0.3493
3781.00,0.3492
3780.00,0.3490
3779.00,0.3489
3778.00,0.3486
3777.00,0.3484
3776.00,0.3482
3775.00,0.3482
3774.00,0.3481
3773.00,0.3480
3772.00,0.3479
3771.00,0.3477
3770.00,0.3477
3769.00,0.3476
3768.00,0.3475
3767.00,0.3474
3766.00,0.3473
3765.00,0.3472
3764.00,0.3472
3763.00,0.3470
3762.00,0.3469
3761.00,0.3467
3760.00,0.3466
3759.00,0.3465
3758.00,0.3464
3757.00,0.3462
3756.00,0.3461
3755.00,0.3460
3754.00,0.3459
3753.00,0.3458
3752.00,0.3456
3751.00,0.3455
3750.00,0.3453
3749.00,0.3453
3748.00,0.3451
3747.00,0.3449
3746.00,0.3446
3745.00,0.3445
3744.00,0.3444
3743.00,0.3443
3742.00,0.3440
3741.00,0.3438
3740.00,0.3437
3739.00,0.3437
3738.00,0.3437
3737.00,0.3436
3736.00,0.3435
3735.00,0.3434
3734.00,0.3432
3733.00,0.3430
3732.00,0.3429
3731.00,0.3429
3730.00,0.3427
3729.00,0.3424
3728.00,0.3422
3727.00,0.3421
3726.00,0.3421
3725.00,0.3419
3724.00,0.3417
3723.00,0.3414
3722.00,0.3412
3721.00,0.3410
3720.00,0.3408
3719.00,0.3407
3718.00,0.3406
3717.00,0.3405
3716.00,0.3404
3715.00,0.3404
3714.00,0.3403
3713.00,0.3402
3712.00,0.3400
3711.00,0.3399
3710.00,0.3397
3709.00,0.3396
3708.00,0.3395
3707.00,0.3395
3706.00,0.3395
3705.00,0.3394
3704.00,0.3392
3703.00,0.3390
3702.00,0.3390
3701.00,0.3390
3700.00,0.3391
3699.00,0.3391
3698.00,0.3391
3697.00,0.3392
3696.00,0.3393
3695.00,0.3394
3694.00,0.3395
3693.00,0.3396
3692.00,0.3398
3691.00,0.3399
3690.00,0.3399
3689.00,0.3399
3688.00,0.3400
3687.00,0.3401
3686.00,0.3401
3685.00,0.3401
3684.00,0.3400
3683.00,0.3399
3682.00,0.3397
3681.00,0.3396
3680.00,0.3396
3679.00,0.3396
3678.00,0.3395
3677.00,0.3394
3676.00,0.3393
3675.00,0.3394
3674.00,0.3394
3673.00,0.3392
3672.00,0.3391
3671.00,0.3390
3670.00,0.3389
3669.00,0.3388
3668.00,0.3387
3667.00,0.3385
3666.00,0.3384
3665.00,0.3383
3664.00,0.3383
3663.00,0.3383
3662.00,0.3383
3661.00,0.3384
3660.00,0.3385
3659.00,0.3387
3658.00,0.3389
3657.00,0.3391
3656.00,0.3394
3655.00,0.3398
3654.00,0.3400
3653.00,0.3401
3652.00,0.3403
3651.00,0.3406
3650.00,0.3408
3649.00,0.3408
3648.00,0.3409
3647.00,0.3410
3646.00,0.3411
3645.00,0.3412
3644.00,0.3413
3643.00,0.3413
3642.00,0.3413
3641.00,0.3413
3640.00,0.3414
3639.00,0.3415
3638.00,0.3416
3637.00,0.3416
3636.00,0.3417
3635.00,0.3417
3634.00,0.3419
3633.00,0.3422
3632.00,0.3425
3631.00,0.3427
3630.00,0.3432
3629.00,0.3438
3628.00,0.3445
3627.00,0.3451
3626.00,0.3457
3625.00,0.3461
3624.00,0.3466
3623.00,0.3469
3622.00,0.3470
3621.00,0.3468
3620.00,0.3465
3619.00,0.3462
3618.00,0.3458
3617.00,0.3456
3616.00,0.3454
3615.00,0.3452
3614.00,0.3451
3613.00,0.3450
3612.00,0.3450
3611.00,0.3449
3610.00,0.3449
3609.00,0.3449
3608.00,0.3450
3607.00,0.3450
3606.00,0.3450
3605.00,0.3449
3604.00,0.3447
3603.00,0.3445
3602.00,0.3442
3601.00,0.3439
3600.00,0.3435
3599.00,0.3429
3598.00,0.3423
3597.00,0.3417
3596.00,0.3411
3595.00,0.3405
3594.00,0.3400
3593.00,0.3396
3592.00,0.3392
3591.00,0.3389
3590.00,0.3386
3589.00,0.3384
3588.00,0.3383
3587.00,0.3382
3586.00,0.3381
3585.00,0.3379
3584.00,0.3378
3583.00,0.3378
3582.00,0.3378
3581.00,0.3377
3580.00,0.3377
3579.00,0.3376
3578.00,0.3376
3577.00,0.3376
3576.00,0.3377
3575.00,0.3377
3574.00,0.3377
3573.00,0.3379
3572.00,0.3380
3571.00,0.3381
3570.00,0.3382
3569.00,0.3383
3568.00,0.3386
3567.00,0.3390
3566.00,0.3393
3565.00,0.3396
3564.00,0.3397
3563.00,0.3398
3562.00,0.3399
3561.00,0.3399
3560.00,0.3400
3559.00,0.3402
3558.00,0.3404
3557.00,0.3407
3556.00,0.3411
3555.00,0.3414
3554.00,0.3418
3553.00,0.3422
3552.00,0.3426
3551.00,0.3431
3550.00,0.3435
3549.00,0.3438
3548.00,0.3442
3547.00,0.3446
3546.00,0.3450
3545.00,0.3454
3544.00,0.3457
3543.00,0.3461
3542.00,0.3464
3541.00,0.3468
3540.00,0.3472
3539.00,0.3476
3538.00,0.3480
3537.00,0.3484
3536.00,0.3487
3535.00,0.3490
3534.00,0.3492
3533.00,0.3494
3532.00,0.3497
3531.00,0.3500
3530.00,0.3503
3529.00,0.3507
3528.00,0.3510
3527.00,0.3513
3526.00,0.3515
3525.00,0.3518
3524.00,0.3522
3523.00,0.3525
3522.00,0.3529
3521.00,0.3533
3520.00,0.3537
3519.00,0.3540
3518.00,0.3544
3517.00,0.3548
3516.00,0.3552
3515.00,0.3557
3514.00,0.3561
3513.00,0.3566
3512.00,0.3571
3511.00,0.3576
3510.00,0.3582
3509.00,0.3587
3508.00,0.3592
3507.00,0.3597
3506.00,0.3602
3505.00,0.3607
3504.00,0.3612
3503.00,0.3618
3502.00,0.3622
3501.00,0.3627
3500.00,0.3632
3499.00,0.3637
3498.00,0.3643
3497.00,0.3649
3496.00,0.3655
3495.00,0.3661
3494.00,0.3668
3493.00,0.3675
3492.00,0.3682
3491.00,0.3689
3490.00,0.3697
3489.00,0.3704
3488.00,0.3712
3487.00,0.3719
3486.00,0.3726
3485.00,0.3733
3484.00,0.3740
3483.00,0.3746
3482.00,0.3752
3481.00,0.3758
3480.00,0.3764
3479.00,0.3769
3478.00,0.3774
3477.00,0.3778
3476.00,0.3783
3475.00,0.3788
3474.00,0.3792
3473.00,0.3797
3472.00,0.3803
3471.00,0.3809
3470.00,0.3815
3469.00,0.3820
3468.00,0.3826
3467.00,0.3831
3466.00,0.3837
3465.00,0.3843
3464.00,0.3848
3463.00,0.3854
3462.00,0.3861
3461.00,0.3867
3460.00,0.3873
3459.00,0.3879
3458.00,0.3885
3457.00,0.3892
3456.00,0.3900
3455.00,0.3907
3454.00,0.3914
3453.00,0.3921
3452.00,0.3928
3451.00,0.3935
3450.00,0.3942
3449.00,0.3950
3448.00,0.3959
3447.00,0.3967
3446.00,0.3975
3445.00,0.3982
3444.00,0.3989
3443.00,0.3996
3442.00,0.4003
3441.00,0.4011
3440.00,0.4019
3439.00,0.4027
3438.00,0.4035
3437.00,0.4043
3436.00,0.4050
3435.00,0.4057
3434.00,0.4065
3433.00,0.4072
3432.00,0.4081
3431.00,0.4089
3430.00,0.4098
3429.00,0.4106
3428.00,0.4114
3427.00,0.4122
3426.00,0.4130
3425.00,0.4139
3424.00,0.4148
3423.00,0.4157
3422.00,0.4167
3421.00,0.4176
3420.00,0.4185
3419.00,0.4194
3418.00,0.4202
3417.00,0.4212
3416.00,0.4222
3415.00,0.4232
3414.00,0.4243
3413.00,0.4254
3412.00,0.4264
3411.00,0.4274
3410.00,0.4284
3409.00,0.4294
3408.00,0.4304
3407.00,0.4314
3406.00,0.4324
3405.00,0.4334
3404.00,0.4344
3403.00,0.4355
3402.00,0.4366
3401.00,0.4376
3400.00,0.4387
3399.00,0.4397
3398.00,0.4407
3397.00,0.4417
3396.00,0.4428
3395.00,0.4438
3394.00,0.4449
3393.00,0.4459
3392.00,0.4469
3391.00,0.4479
3390.00,0.4489
3389.00,0.4500
3388.00,0.4511
3387.00,0.4522
3386.00,0.4532
3385.00,0.4542
3384.00,0.4552
3383.00,0.4562
3382.00,0.4573
3381.00,0.4585
3380.00,0.4596
3379.00,0.4609
3378.00,0.4622
3377.00,0.4635
3376.00,0.4648
3375.00,0.4660
3374.00,0.4672
3373.00,0.4684
3372.00,0.4697
3371.00,0.4711
3370.00,0.4724
3369.00,0.4737
3368.00,0.4751
3367.00,0.4764
3366.00,0.4778
3365.00,0.4792
3364.00,0.4806
3363.00,0.4820
3362.00,0.4835
3361.00,0.4849
3360.00,0.4864
3359.00,0.4879
3358.00,0.4893
3357.00,0.4908
3356.00,0.4923
3355.00,0.4939
3354.00,0.4955
3353.00,0.4970
3352.00,0.4985
3351.00,0.5000
3350.00,0.5016
3349.00,0.5032
3348.00,0.5048
3347.00,0.5064
3346.00,0.5079
3345.00,0.5093
3344.00,0.5107
3343.00,0.5121
3342.00,0.5134
3341.00,0.5147
3340.00,0.5159
3339.00,0.5171
3338.00,0.5182
3337.00,0.5193
3336.00,0.5203
3335.00,0.5212
3334.00,0.5220
3333.00,0.5228
3332.00,0.5236
3331.00,0.5242
3330.00,0.5248
3329.00,0.5252
3328.00,0.5255
3327.00,0.5258
3326.00,0.5259
3325.00,0.5259
3324.00,0.5258
3323.00,0.5256
3322.00,0.5254
3321.00,0.5250
3320.00,0.5247
3319.00,0.5243
3318.00,0.5238
3317.00,0.5233
3316.00,0.5229
3315.00,0.5224
3314.00,0.5219
3313.00,0.5213
3312.00,0.5206
3311.00,0.5198
3310.00,0.5191
3309.00,0.5183
3308.00,0.5176
3307.00,0.5169
3306.00,0.5161
3305.00,0.5154
3304.00,0.5146
3303.00,0.5138
3302.00,0.5130
3301.00,0.5122
3300.00,0.5115
3299.00,0.5108
3298.00,0.5101
3297.00,0.5095
3296.00,0.5089
3295.00,0.5082
3294.00,0.5077
3293.00,0.5072
3292.00,0.5067
3291.00,0.5062
3290.00,0.5057
3289.00,0.5053
3288.00,0.5050
3287.00,0.5048
3286.00,0.5046
3285.00,0.5044
3284.00,0.5043
3283.00,0.5042
3282.00,0.5042
3281.00,0.5042
3280.00,0.5042
3279.00,0.5042
3278.00,0.5043
3277.00,0.5045
3276.00,0.5047
3275.00,0.5049
3274.00,0.5051
3273.00,0.5054
3272.00,0.5057
3271.00,0.5062
3270.00,0.5066
3269.00,0.5071
3268.00,0.5076
3267.00,0.5080
3266.00,0.5084
3265.00,0.5088
3264.00,0.5093
3263.00,0.5097
3262.00,0.5102
3261.00,0.5108
3260.00,0.5113
3259.00,0.5118
3258.00,0.5122
3257.00,0.5127
3256.00,0.5131
3255.00,0.5135
3254.00,0.5139
3253.00,0.5144
3252.00,0.5149
3251.00,0.5153
3250.00,0.5156
3249.00,0.5160
3248.00,0.5164
3247.00,0.5168
3246.00,0.5172
3245.00,0.5175
3244.00,0.5178
3243.00,0.5182
3242.00,0.5185
3241.00,0.5188
3240.00,0.5190
3239.00,0.5192
3238.00,0.5193
3237.00,0.5195
3236.00,0.5197
3235.00,0.5198
3234.00,0.5199
3233.00,0.5200
3232.00,0.5200
3231.00,0.5201
3230.00,0.5200
3229.00,0.5199
3228.00,0.5198
3227.00,0.5197
3226.00,0.5196
3225.00,0.5195
3224.00,0.5193
3223.00,0.5191
3222.00,0.5189
3221.00,0.5186
3220.00,0.5183
3219.00,0.5180
3218.00,0.5178
3217.00,0.5175
3216.00,0.5172
3215.00,0.5169
3214.00,0.5166
3213.00,0.5163
3212.00,0.5159
3211.00,0.5156
3210.00,0.5154
3209.00,0.5151
3208.00,0.5147
3207.00,0.5144
3206.00,0.5141
3205.00,0.5138
3204.00,0.5135
3203.00,0.5131
3202.00,0.5127
3201.00,0.5124
3200.00,0.5120
3199.00,0.5116
3198.00,0.5112
3197.00,0.5109
3196.00,0.5105
3195.00,0.5100
3194.00,0.5095
3193.00,0.5090
3192.00,0.5086
3191.00,0.5081
3190.00,0.5076
3189.00,0.5070
3188.00,0.5064
3187.00,0.5057
3186.00,0.5050
3185.00,0.5043
3184.00,0.5036
3183.00,0.5028
3182.00,0.5021
3181.00,0.5014
3180.00,0.5007
3179.00,0.4999
3178.00,0.4991
3177.00,0.4983
3176.00,0.4976
3175.00,0.4969
3174.00,0.4962
3173.00,0.4955
3172.00,0.4948
3171.00,0.4941
3170.00,0.4934
3169.00,0.4927
3168.00,0.4920
3167.00,0.4912
3166.00,0.4904
3165.00,0.4896
3164.00,0.4887
3163.00,0.4878
3162.00,0.4869
3161.00,0.4861
3160.00,0.4854
3159.00,0.4847
3158.00,0.4839
3157.00,0.4831
3156.00,0.4822
3155.00,0.4813
3154.00,0.4804
3153.00,0.4795
3152.00,0.4788
3151.00,0.4780
3150.00,0.4772
3149.00,0.4765
3148.00,0.4757
3147.00,0.4749
3146.00,0.4741
3145.00,0.4733
3144.00,0.4725
3143.00,0.4719
3142.00,0.4714
3141.00,0.4709
3140.00,0.4704
3139.00,0.4699
3138.00,0.4694
3137.00,0.4690
3136.00,0.4687
3135.00,0.4684
3134.00,0.4682
3133.00,0.4679
3132.00,0.4677
3131.00,0.4675
3130.00,0.4673
3129.00,0.4671
3128.00,0.4670
3127.00,0.4670
3126.00,0.4670
3125.00,0.4671
3124.00,0.4672
3123.00,0.4673
3122.00,0.4673
3121.00,0.4674
3120.00,0.4674
3119.00,0.4675
3118.00,0.4677
3117.00,0.4679
3116.00,0.4682
3115.00,0.4684
3114.00,0.4687
3113.00,0.4691
3112.00,0.4695
3111.00,0.4700
3110.00,0.4707
3109.00,0.4714
3108.00,0.4722
3107.00,0.4730
3106.00,0.4738
3105.00,0.4747
3104.00,0.4756
3103.00,0.4765
3102.00,0.4773
3101.00,0.4782
3100.00,0.4792
3099.00,0.4801
3098.00,0.4811
3097.00,0.4822
3096.00,0.4834
3095.00,0.4847
3094.00,0.4862
3093.00,0.4879
3092.00,0.4897
3091.00,0.4916
3090.00,0.4938
3089.00,0.4961
3088.00,0.4985
3087.00,0.5010
3086.00,0.5035
3085.00,0.5061
3084.00,0.5089
3083.00,0.5117
3082.00,0.5147
3081.00,0.5178
3080.00,0.5212
3079.00,0.5248
3078.00,0.5286
3077.00,0.5327
3076.00,0.5369
3075.00,0.5413
3074.00,0.5457
3073.00,0.5501
3072.00,0.5544
3071.00,0.5587
3070.00,0.5630
3069.00,0.5674
3068.00,0.5717
3067.00,0.5760
3066.00,0.5803
3065.00,0.5845
3064.00,0.5884
3063.00,0.5920
3062.00,0.5952
3061.00,0.5981
3060.00,0.6008
3059.00,0.6034
3058.00,0.6059
3057.00,0.6084
3056.00,0.6111
3055.00,0.6139
3054.00,0.6169
3053.00,0.6203
3052.00,0.6239
3051.00,0.6277
3050.00,0.6317
3049.00,0.6358
3048.00,0.6401
3047.00,0.6444
3046.00,0.6489
3045.00,0.6536
3044.00,0.6583
3043.00,0.6631
3042.00,0.6677
3041.00,0.6723
3040.00,0.6768
3039.00,0.6815
3038.00,0.6864
3037.00,0.6916
3036.00,0.6970
3035.00,0.7028
3034.00,0.7089
3033.00,0.7155
3032.00,0.7225
3031.00,0.7300
3030.00,0.7379
3029.00,0.7463
3028.00,0.7551
3027.00,0.7642
3026.00,0.7736
3025.00,0.7833
3024.00,0.7934
3023.00,0.8037
3022.00,0.8144
3021.00,0.8256
3020.00,0.8370
3019.00,0.8486
3018.00,0.8603
3017.00,0.8721
3016.00,0.8839
3015.00,0.8958
3014.00,0.9078
3013.00,0.9199
3012.00,0.9323
3011.00,0.9451
3010.00,0.9585
3009.00,0.9724
3008.00,0.9872
3007.00,1.0027
3006.00,1.0190
3005.00,1.0360
3004.00,1.0533
3003.00,1.0711
3002.00,1.0893
3001.00,1.1081
3000.00,1.1278
2999.00,1.1486
2998.00,1.1709
2997.00,1.1949
2996.00,1.2213
2995.00,1.2505
2994.00,1.2831
2993.00,1.3197
2992.00,1.3606
2991.00,1.4060
2990.00,1.4567
2989.00,1.5135
2988.00,1.5773
2987.00,1.6486
2986.00,1.7279
2985.00,1.8153
2984.00,1.9111
2983.00,2.0171
2982.00,2.1358
2981.00,2.2694
2980.00,2.4188
2979.00,2.5856
2978.00,2.7730
2977.00,2.9842
2976.00,3.2182
2975.00,3.4715
2974.00,3.7475
2973.00,4.1183
2972.00,4.6570
2971.00,4.6057
2970.00,4.3834
2969.00,4.4330
2968.00,4.6783
2967.00,4.4068
2966.00,4.2645
2965.00,4.1957
2964.00,4.0748
2963.00,3.9517
2962.00,3.9407
2961.00,4.1060
2960.00,4.2469
2959.00,4.2022
2958.00,4.1428
2957.00,4.1016
2956.00,4.1191
2955.00,4.1615
2954.00,4.2351
2953.00,4.3528
2952.00,4.4615
2951.00,4.5421
2950.00,4.4682
2949.00,4.2549
2948.00,4.0364
2947.00,3.9449
2946.00,3.9825
2945.00,4.1860
2944.00,4.4227
2943.00,4.6314
2942.00,4.7782
2941.00,4.4745
2940.00,4.2390
2939.00,4.0660
2938.00,4.0323
2937.00,3.9886
2936.00,3.9329
2935.00,3.9159
2934.00,3.9451
2933.00,4.0417
2932.00,4.0396
2931.00,3.8665
2930.00,3.7063
2929.00,3.6518
2928.00,3.6952
2927.00,3.7742
2926.00,3.8073
2925.00,3.7724
2924.00,3.7135
2923.00,3.6588
2922.00,3.6125
2921.00,3.6121
2920.00,3.6883
2919.00,3.9571
2918.00,4.2637
2917.00,4.2940
2916.00,4.3929
2915.00,4.0764
2914.00,3.8586
2913.00,3.6944
2912.00,3.7838
2911.00,4.0323
2910.00,4.1842
2909.00,4.3146
2908.00,4.2419
2907.00,4.1899
2906.00,4.1169
2905.00,3.9692
2904.00,3.9006
2903.00,3.9366
2902.00,4.1937
2901.00,4.4407
2900.00,4.0231
2899.00,3.7734
2898.00,3.7665
2897.00,4.0836
2896.00,4.2353
2895.00,3.9954
2894.00,3.8729
2893.00,3.9829
2892.00,4.2829
2891.00,4.3071
2890.00,4.1646
2889.00,4.0983
2888.00,4.2121
2887.00,4.3524
2886.00,4.2834
2885.00,4.2072
2884.00,4.2485
2883.00,4.3138
2882.00,4.2197
2881.00,4.0251
2880.00,3.8772
2879.00,3.8445
2878.00,3.9523
2877.00,4.1534
2876.00,4.2355
2875.00,4.1961
2874.00,4.1703
2873.00,4.1413
2872.00,3.9902
2871.00,3.8361
2870.00,3.7719
2869.00,3.7887
2868.00,3.8887
2867.00,4.0446
2866.00,4.1192
2865.00,4.0422
2864.00,3.9766
2863.00,4.0742
2862.00,4.2218
2861.00,4.0669
2860.00,3.9004
2859.00,3.8667
2858.00,4.0413
2857.00,4.3141
2856.00,4.2292
2855.00,4.0715
2854.00,4.0039
2853.00,4.0973
2852.00,4.0854
2851.00,3.9646
2850.00,3.9530
2849.00,4.0308
2848.00,4.0533
2847.00,3.9163
2846.00,3.7940
2845.00,3.7370
2844.00,3.7567
2843.00,3.8386
2842.00,4.0964
2841.00,4.6290
2840.00,4.1680
2839.00,3.7820
2838.00,3.4968
2837.00,3.2603
2836.00,3.0143
2835.00,2.7853
2834.00,2.5852
2833.00,2.4095
2832.00,2.2571
2831.00,2.1238
2830.00,2.0060
2829.00,1.9004
2828.00,1.8054
2827.00,1.7198
2826.00,1.6429
2825.00,1.5736
2824.00,1.5107
2823.00,1.4534
2822.00,1.4008
2821.00,1.3522
2820.00,1.3074
2819.00,1.2661
2818.00,1.2282
2817.00,1.1932
2816.00,1.1605
2815.00,1.1298
2814.00,1.1011
2813.00,1.0740
2812.00,1.0485
2811.00,1.0244
2810.00,1.0018
2809.00,0.9803
2808.00,0.9599
2807.00,0.9404
2806.00,0.9216
2805.00,0.9038
2804.00,0.8868
2803.00,0.8709
2802.00,0.8559
2801.00,0.8416
2800.00,0.8279
2799.00,0.8149
2798.00,0.8024
2797.00,0.7905
2796.00,0.7789
2795.00,0.7678
2794.00,0.7570
2793.00,0.7466
2792.00,0.7364
2791.00,0.7265
2790.00,0.7167
2789.00,0.7072
2788.00,0.6979
2787.00,0.6889
2786.00,0.6800
2785.00,0.6714
2784.00,0.6630
2783.00,0.6548
2782.00,0.6469
2781.00,0.6394
2780.00,0.6322
2779.00,0.6254
2778.00,0.6188
2777.00,0.6125
2776.00,0.6066
2775.00,0.6009
2774.00,0.5956
2773.00,0.5907
2772.00,0.5861
2771.00,0.5819
2770.00,0.5781
2769.00,0.5745
2768.00,0.5712
2767.00,0.5682
2766.00,0.5654
2765.00,0.5630
2764.00,0.5609
2763.00,0.5591
2762.00,0.5577
2761.00,0.5564
2760.00,0.5552
2759.00,0.5540
2758.00,0.5529
2757.00,0.5518
2756.00,0.5508
2755.00,0.5499
2754.00,0.5490
2753.00,0.5483
2752.00,0.5478
2751.00,0.5475
2750.00,0.5474
2749.00,0.5474
2748.00,0.5477
2747.00,0.5482
2746.00,0.5489
2745.00,0.5499
2744.00,0.5512
2743.00,0.5527
2742.00,0.5546
2741.00,0.5569
2740.00,0.5595
2739.00,0.5627
2738.00,0.5664
2737.00,0.5706
2736.00,0.5753
2735.00,0.5803
2734.00,0.5855
2733.00,0.5906
2732.00,0.5952
2731.00,0.5991
2730.00,0.6022
2729.00,0.6042
2728.00,0.6051
2727.00,0.6051
2726.00,0.6042
2725.00,0.6028
2724.00,0.6009
2723.00,0.5986
2722.00,0.5959
2721.00,0.5930
2720.00,0.5898
2719.00,0.5863
2718.00,0.5825
2717.00,0.5785
2716.00,0.5741
2715.00,0.5696
2714.00,0.5650
2713.00,0.5605
2712.00,0.5563
2711.00,0.5525
2710.00,0.5491
2709.00,0.5460
2708.00,0.5434
2707.00,0.5411
2706.00,0.5393
2705.00,0.5378
2704.00,0.5366
2703.00,0.5357
2702.00,0.5351
2701.00,0.5349
2700.00,0.5349
2699.00,0.5350
2698.00,0.5352
2697.00,0.5355
2696.00,0.5359
2695.00,0.5365
2694.00,0.5372
2693.00,0.5381
2692.00,0.5391
2691.00,0.5401
2690.00,0.5411
2689.00,0.5419
2688.00,0.5427
2687.00,0.5435
2686.00,0.5442
2685.00,0.5447
2684.00,0.5452
2683.00,0.5455
2682.00,0.5458
2681.00,0.5461
2680.00,0.5463
2679.00,0.5466
2678.00,0.5470
2677.00,0.5473
2676.00,0.5477
2675.00,0.5480
2674.00,0.5483
2673.00,0.5486
2672.00,0.5489
2671.00,0.5489
2670.00,0.5487
2669.00,0.5482
2668.00,0.5473
2667.00,0.5462
2666.00,0.5449
2665.00,0.5435
2664.00,0.5419
2663.00,0.5402
2662.00,0.5384
2661.00,0.5365
2660.00,0.5344
2659.00,0.5324
2658.00,0.5304
2657.00,0.5284
2656.00,0.5265
2655.00,0.5247
2654.00,0.5228
2653.00,0.5210
2652.00,0.5193
2651.00,0.5176
2650.00,0.5160
2649.00,0.5146
2648.00,0.5132
2647.00,0.5118
2646.00,0.5105
2645.00,0.5092
2644.00,0.5079
2643.00,0.5067
2642.00,0.5055
2641.00,0.5045
2640.00,0.5035
2639.00,0.5026
2638.00,0.5017
2637.00,0.5009
2636.00,0.5001
2635.00,0.4992
2634.00,0.4983
2633.00,0.4975
2632.00,0.4967
2631.00,0.4959
2630.00,0.4951
2629.00,0.4942
2628.00,0.4934
2627.00,0.4926
2626.00,0.4918
2625.00,0.4910
2624.00,0.4902
2623.00,0.4894
2622.00,0.4886
2621.00,0.4878
2620.00,0.4869
2619.00,0.4861
2618.00,0.4852
2617.00,0.4844
2616.00,0.4835
2615.00,0.4826
2614.00,0.4817
2613.00,0.4808
2612.00,0.4798
2611.00,0.4787
2610.00,0.4776
2609.00,0.4766
2608.00,0.4755
2607.00,0.4745
2606.00,0.4734
2605.00,0.4723
2604.00,0.4713
2603.00,0.4703
2602.00,0.4693
2601.00,0.4681
2600.00,0.4669
2599.00,0.4657
2598.00,0.4644
2597.00,0.4631
2596.00,0.4619
2595.00,0.4605
2594.00,0.4592
2593.00,0.4578
2592.00,0.4563
2591.00,0.4548
2590.00,0.4533
2589.00,0.4518
2588.00,0.4503
2587.00,0.4488
2586.00,0.4473
2585.00,0.4457
2584.00,0.4440
2583.00,0.4423
2582.00,0.4406
2581.00,0.4388
2580.00,0.4371
2579.00,0.4353
2578.00,0.4335
2577.00,0.4318
2576.00,0.4301
2575.00,0.4284
2574.00,0.4268
2573.00,0.4252
2572.00,0.4237
2571.00,0.4221
2570.00,0.4205
2569.00,0.4190
2568.00,0.4176
2567.00,0.4161
2566.00,0.4147
2565.00,0.4133
2564.00,0.4119
2563.00,0.4106
2562.00,0.4093
2561.00,0.4081
2560.00,0.4069
2559.00,0.4056
2558.00,0.4045
2557.00,0.4033
2556.00,0.4023
2555.00,0.4013
2554.00,0.4003
2553.00,0.3993
2552.00,0.3984
2551.00,0.3974
2550.00,0.3965
2549.00,0.3956
2548.00,0.3946
2547.00,0.3937
2546.00,0.3928
2545.00,0.3919
2544.00,0.3910
2543.00,0.3902
2542.00,0.3894
2541.00,0.3885
2540.00,0.3877
2539.00,0.3869
2538.00,0.3862
2537.00,0.3854
2536.00,0.3847
2535.00,0.3839
2534.00,0.3831
2533.00,0.3824
2532.00,0.3816
2531.00,0.3808
2530.00,0.3799
2529.00,0.3791
2528.00,0.3782
2527.00,0.3773
2526.00,0.3764
2525.00,0.3756
2524.00,0.3747
2523.00,0.3738
2522.00,0.3730
2521.00,0.3721
2520.00,0.3713
2519.00,0.3705
2518.00,0.3697
2517.00,0.3689
2516.00,0.3682
2515.00,0.3674
2514.00,0.3667
2513.00,0.3660
2512.00,0.3654
2511.00,0.3647
2510.00,0.3641
2509.00,0.3634
2508.00,0.3628
2507.00,0.3621
2506.00,0.3614
2505.00,0.3608
2504.00,0.3602
2503.00,0.3597
2502.00,0.3591
2501.00,0.3586
2500.00,0.3581
2499.00,0.3576
2498.00,0.3571
2497.00,0.3567
2496.00,0.3562
2495.00,0.3557
2494.00,0.3552
2493.00,0.3547
2492.00,0.3542
2491.00,0.3538
2490.00,0.3534
2489.00,0.3530
2488.00,0.3527
2487.00,0.3523
2486.00,0.3520
2485.00,0.3516
2484.00,0.3513
2483.00,0.3510
2482.00,0.3508
2481.00,0.3505
2480.00,0.3503
2479.00,0.3501
2478.00,0.3498
2477.00,0.3495
2476.00,0.3491
2475.00,0.3489
2474.00,0.3486
2473.00,0.3484
2472.00,0.3482
2471.00,0.3479
2470.00,0.3476
2469.00,0.3472
2468.00,0.3469
2467.00,0.3466
2466.00,0.3462
2465.00,0.3458
2464.00,0.3455
2463.00,0.3451
2462.00,0.3448
2461.00,0.3445
2460.00,0.3443
2459.00,0.3440
2458.00,0.3437
2457.00,0.3435
2456.00,0.3433
2455.00,0.3431
2454.00,0.3430
2453.00,0.3429
2452.00,0.3428
2451.00,0.3426
2450.00,0.3426
2449.00,0.3425
2448.00,0.3425
2447.00,0.3425
2446.00,0.3425
2445.00,0.3426
2444.00,0.3426
2443.00,0.3427
2442.00,0.3427
2441.00,0.3428
2440.00,0.3429
2439.00,0.3429
2438.00,0.3430
2437.00,0.3430
2436.00,0.3431
2435.00,0.3432
2434.00,0.3433
2433.00,0.3433
2432.00,0.3433
2431.00,0.3433
2430.00,0.3433
2429.00,0.3433
2428.00,0.3433
2427.00,0.3434
2426.00,0.3434
2425.00,0.3435
2424.00,0.3435
2423.00,0.3435
2422.00,0.3434
2421.00,0.3433
2420.00,0.3434
2419.00,0.3434
2418.00,0.3434
2417.00,0.3435
2416.00,0.3435
2415.00,0.3435
2414.00,0.3436
2413.00,0.3437
2412.00,0.3437
2411.00,0.3438
2410.00,0.3438
2409.00,0.3438
2408.00,0.3439
2407.00,0.3438
2406.00,0.3438
2405.00,0.3438
2404.00,0.3438
2403.00,0.3438
2402.00,0.3437
2401.00,0.3436
2400.00,0.3435
2399.00,0.3434
2398.00,0.3433
2397.00,0.3431
2396.00,0.3429
2395.00,0.3427
2394.00,0.3425
2393.00,0.3424
2392.00,0.3423
2391.00,0.3422
2390.00,0.3420
2389.00,0.3419
2388.00,0.3417
2387.00,0.3416
2386.00,0.3414
2385.00,0.3413
2384.00,0.3412
2383.00,0.3412
2382.00,0.3412
2381.00,0.3412
2380.00,0.3412
2379.00,0.3412
2378.00,0.3412
2377.00,0.3412
2376.00,0.3412
2375.00,0.3411
2374.00,0.3410
2373.00,0.3408
2372.00,0.3407
2371.00,0.3405
2370.00,0.3405
2369.00,0.3404
2368.00,0.3404
2367.00,0.3402
2366.00,0.3401
2365.00,0.3400
2364.00,0.3399
2363.00,0.3399
2362.00,0.3398
2361.00,0.3398
2360.00,0.3398
2359.00,0.3398
2358.00,0.3397
2357.00,0.3397
2356.00,0.3396
2355.00,0.3395
2354.00,0.3394
2353.00,0.3392
2352.00,0.3391
2351.00,0.3389
2350.00,0.3388
2349.00,0.3388
2348.00,0.3388
2347.00,0.3387
2346.00,0.3386
2345.00,0.3385
2344.00,0.3384
2343.00,0.3383
2342.00,0.3381
2341.00,0.3380
2340.00,0.3380
2339.00,0.3379
2338.00,0.3378
2337.00,0.3378
2336.00,0.3377
2335.00,0.3375
2334.00,0.3374
2333.00,0.3372
2332.00,0.3370
2331.00,0.3368
2330.00,0.3366
2329.00,0.3365
2328.00,0.3364
2327.00,0.3363
2326.00,0.3362
2325.00,0.3360
2324.00,0.3359
2323.00,0.3358
2322.00,0.3356
2321.00,0.3356
2320.00,0.3355
2319.00,0.3353
2318.00,0.3350
2317.00,0.3348
2316.00,0.3345
2315.00,0.3343
2314.00,0.3341
2313.00,0.3339
2312.00,0.3336
2311.00,0.3333
2310.00,0.3329
2309.00,0.3326
2308.00,0.3322
2307.00,0.3318
2306.00,0.3315
2305.00,0.3311
2304.00,0.3308
2303.00,0.3304
2302.00,0.3301
2301.00,0.3298
2300.00,0.3295
2299.00,0.3292
2298.00,0.3289
2297.00,0.3286
2296.00,0.3283
2295.00,0.3281
2294.00,0.3278
2293.00,0.3275
2292.00,0.3271
2291.00,0.3268
2290.00,0.3265
2289.00,0.3262
2288.00,0.3260
2287.00,0.3257
2286.00,0.3255
2285.00,0.3253
2284.00,0.3250
2283.00,0.3248
2282.00,0.3246
2281.00,0.3243
2280.00,0.3240
2279.00,0.3237
2278.00,0.3235
2277.00,0.3232
2276.00,0.3230
2275.00,0.3228
2274.00,0.3226
2273.00,0.3223
2272.00,0.3221
2271.00,0.3218
2270.00,0.3216
2269.00,0.3214
2268.00,0.3212
2267.00,0.3209
2266.00,0.3206
2265.00,0.3203
2264.00,0.3201
2263.00,0.3198
2262.00,0.3196
2261.00,0.3194
2260.00,0.3191
2259.00,0.3188
2258.00,0.3186
2257.00,0.3183
2256.00,0.3179
2255.00,0.3176
2254.00,0.3173
2253.00,0.3171
2252.00,0.3168
2251.00,0.3166
2250.00,0.3164
2249.00,0.3163
2248.00,0.3162
2247.00,0.3160
2246.00,0.3159
2245.00,0.3158
2244.00,0.3157
2243.00,0.3156
2242.00,0.3155
2241.00,0.3154
2240.00,0.3152
2239.00,0.3151
2238.00,0.3150
2237.00,0.3150
2236.00,0.3149
2235.00,0.3148
2234.00,0.3146
2233.00,0.3145
2232.00,0.3143
2231.00,0.3142
2230.00,0.3140
2229.00,0.3139
2228.00,0.3137
2227.00,0.3135
2226.00,0.3133
2225.00,0.3131
2224.00,0.3130
2223.00,0.3128
2222.00,0.3126
2221.00,0.3125
2220.00,0.3123
2219.00,0.3122
2218.00,0.3120
2217.00,0.3119
2216.00,0.3118
2215.00,0.3117
2214.00,0.3117
2213.00,0.3117
2212.00,0.3117
2211.00,0.3117
2210.00,0.3116
2209.00,0.3117
2208.00,0.3117
2207.00,0.3117
2206.00,0.3118
2205.00,0.3119
2204.00,0.3119
2203.00,0.3119
2202.00,0.3119
2201.00,0.3120
2200.00,0.3121
2199.00,0.3121
2198.00,0.3122
2197.00,0.3122
2196.00,0.3122
2195.00,0.3121
2194.00,0.3121
2193.00,0.3121
2192.00,0.3121
2191.00,0.3121
2190.00,0.3120
2189.00,0.3119
2188.00,0.3119
2187.00,0.3118
2186.00,0.3118
2185.00,0.3117
2184.00,0.3116
2183.00,0.3114
2182.00,0.3113
2181.00,0.3111
2180.00,0.3109
2179.00,0.3107
2178.00,0.3105
2177.00,0.3104
2176.00,0.3103
2175.00,0.3102
2174.00,0.3101
2173.00,0.3101
2172.00,0.3100
2171.00,0.3099
2170.00,0.3099
2169.00,0.3099
2168.00,0.3100
2167.00,0.3101
2166.00,0.3101
2165.00,0.3099
2164.00,0.3098
2163.00,0.3096
2162.00,0.3094
2161.00,0.3093
2160.00,0.3092
2159.00,0.3091
2158.00,0.3090
2157.00,0.3089
2156.00,0.3087
2155.00,0.3085
2154.00,0.3083
2153.00,0.3081
2152.00,0.3079
2151.00,0.3077
2150.00,0.3074
2149.00,0.3071
2148.00,0.3067
2147.00,0.3064
2146.00,0.3059
2145.00,0.3054
2144.00,0.3049
2143.00,0.3044
2142.00,0.3038
2141.00,0.3033
2140.00,0.3029
2139.00,0.3025
2138.00,0.3022
2137.00,0.3020
2136.00,0.3018
2135.00,0.3016
2134.00,0.3015
2133.00,0.3014
2132.00,0.3013
2131.00,0.3012
2130.00,0.3012
2129.00,0.3011
2128.00,0.3011
2127.00,0.3009
2126.00,0.3008
2125.00,0.3007
2124.00,0.3006
2123.00,0.3006
2122.00,0.3005
2121.00,0.3005
2120.00,0.3004
2119.00,0.3003
2118.00,0.3001
2117.00,0.3000
2116.00,0.2998
2115.00,0.2997
2114.00,0.2996
2113.00,0.2994
2112.00,0.2993
2111.00,0.2992
2110.00,0.2990
2109.00,0.2987
2108.00,0.2985
2107.00,0.2984
2106.00,0.2982
2105.00,0.2981
2104.00,0.2980
2103.00,0.2979
2102.00,0.2978
2101.00,0.2977
2100.00,0.2976
2099.00,0.2975
2098.00,0.2975
2097.00,0.2975
2096.00,0.2975
2095.00,0.2976
2094.00,0.2976
2093.00,0.2976
2092.00,0.2977
2091.00,0.2977
2090.00,0.2977
2089.00,0.2978
2088.00,0.2979
2087.00,0.2979
2086.00,0.2979
2085.00,0.2980
2084.00,0.2981
2083.00,0.2981
2082.00,0.2981
2081.00,0.2981
2080.00,0.2981
2079.00,0.2981
2078.00,0.2981
2077.00,0.2981
2076.00,0.2980
2075.00,0.2980
2074.00,0.2980
2073.00,0.2980
2072.00,0.2980
2071.00,0.2979
2070.00,0.2979
2069.00,0.2979
2068.00,0.2980
2067.00,0.2980
2066.00,0.2980
2065.00,0.2981
2064.00,0.2983
2063.00,0.2984
2062.00,0.2985
2061.00,0.2985
2060.00,0.2986
2059.00,0.2986
2058.00,0.2987
2057.00,0.2989
2056.00,0.2991
2055.00,0.2992
2054.00,0.2993
2053.00,0.2995
2052.00,0.2996
2051.00,0.2999
2050.00,0.3001
2049.00,0.3003
2048.00,0.3006
2047.00,0.3008
2046.00,0.3010
2045.00,0.3012
2044.00,0.3014
2043.00,0.3015
2042.00,0.3017
2041.00,0.3018
2040.00,0.3019
2039.00,0.3020
2038.00,0.3020
2037.00,0.3021
2036.00,0.3022
2035.00,0.3023
2034.00,0.3023
2033.00,0.3023
2032.00,0.3023
2031.00,0.3022
2030.00,0.3021
2029.00,0.3020
2028.00,0.3020
2027.00,0.3019
2026.00,0.3017
2025.00,0.3016
2024.00,0.3014
2023.00,0.3011
2022.00,0.3008
2021.00,0.3005
2020.00,0.3001
2019.00,0.2997
2018.00,0.2992
2017.00,0.2987
2016.00,0.2982
2015.00,0.2977
2014.00,0.2972
2013.00,0.2967
2012.00,0.2962
2011.00,0.2958
2010.00,0.2953
2009.00,0.2950
2008.00,0.2947
2007.00,0.2944
2006.00,0.2942
2005.00,0.2940
2004.00,0.2938
2003.00,0.2936
2002.00,0.2934
2001.00,0.2932
2000.00,0.2931
1999.00,0.2930
1998.00,0.2929
1997.00,0.2929
1996.00,0.2928
1995.00,0.2927
1994.00,0.2925
1993.00,0.2923
1992.00,0.2921
1991.00,0.2920
1990.00,0.2920
1989.00,0.2919
1988.00,0.2918
1987.00,0.2917
1986.00,0.2916
1985.00,0.2915
1984.00,0.2913
1983.00,0.2912
1982.00,0.2911
1981.00,0.2910
1980.00,0.2910
1979.00,0.2910
1978.00,0.2910
1977.00,0.2910
1976.00,0.2910
1975.00,0.2909
1974.00,0.2909
1973.00,0.2910
1972.00,0.2910
1971.00,0.2911
1970.00,0.2911
1969.00,0.2912
1968.00,0.2912
1967.00,0.2913
1966.00,0.2914
1965.00,0.2915
1964.00,0.2916
1963.00,0.2917
1962.00,0.2918
1961.00,0.2920
1960.00,0.2921
1959.00,0.2923
1958.00,0.2924
1957.00,0.2926
1956.00,0.2927
1955.00,0.2929
1954.00,0.2930
1953.00,0.2931
1952.00,0.2931
1951.00,0.2931
1950.00,0.2931
1949.00,0.2932
1948.00,0.2932
1947.00,0.2933
1946.00,0.2934
1945.00,0.2936
1944.00,0.2938
1943.00,0.2941
1942.00,0.2946
1941.00,0.2951
1940.00,0.2957
1939.00,0.2961
1938.00,0.2963
1937.00,0.2964
1936.00,0.2964
1935.00,0.2962
1934.00,0.2961
1933.00,0.2960
1932.00,0.2960
1931.00,0.2961
1930.00,0.2962
1929.00,0.2964
1928.00,0.2966
1927.00,0.2967
1926.00,0.2968
1925.00,0.2970
1924.00,0.2972
1923.00,0.2975
1922.00,0.2979
1921.00,0.2984
1920.00,0.2988
1919.00,0.2992
1918.00,0.2995
1917.00,0.3000
1916.00,0.3004
1915.00,0.3006
1914.00,0.3007
1913.00,0.3006
1912.00,0.3005
1911.00,0.3005
1910.00,0.3004
1909.00,0.3005
1908.00,0.3005
1907.00,0.3005
1906.00,0.3004
1905.00,0.3003
1904.00,0.3003
1903.00,0.3002
1902.00,0.3002
1901.00,0.3003
1900.00,0.3004
1899.00,0.3005
1898.00,0.3006
1897.00,0.3007
1896.00,0.3009
1895.00,0.3011
1894.00,0.3013
1893.00,0.3016
1892.00,0.3018
1891.00,0.3019
1890.00,0.3020
1889.00,0.3023
1888.00,0.3026
1887.00,0.3028
1886.00,0.3029
1885.00,0.3030
1884.00,0.3030
1883.00,0.3030
1882.00,0.3030
1881.00,0.3030
1880.00,0.3030
1879.00,0.3030
1878.00,0.3028
1877.00,0.3027
1876.00,0.3026
1875.00,0.3024
1874.00,0.3021
1873.00,0.3018
1872.00,0.3015
1871.00,0.3011
1870.00,0.3007
1869.00,0.3005
1868.00,0.3004
1867.00,0.3003
1866.00,0.3001
1865.00,0.2999
1864.00,0.2996
1863.00,0.2993
1862.00,0.2989
1861.00,0.2987
1860.00,0.2985
1859.00,0.2983
1858.00,0.2981
1857.00,0.2979
1856.00,0.2978
1855.00,0.2977
1854.00,0.2975
1853.00,0.2974
1852.00,0.2974
1851.00,0.2973
1850.00,0.2972
1849.00,0.2971
1848.00,0.2971
1847.00,0.2971
1846.00,0.2969
1845.00,0.2968
1844.00,0.2968
1843.00,0.2970
1842.00,0.2971
1841.00,0.2972
1840.00,0.2971
1839.00,0.2968
1838.00,0.2966
1837.00,0.2964
1836.00,0.2963
1835.00,0.2963
1834.00,0.2962
1833.00,0.2961
1832.00,0.2959
1831.00,0.2956
1830.00,0.2954
1829.00,0.2954
1828.00,0.2954
1827.00,0.2953
1826.00,0.2950
1825.00,0.2949
1824.00,0.2949
1823.00,0.2950
1822.00,0.2950
1821.00,0.2950
1820.00,0.2951
1819.00,0.2950
1818.00,0.2950
1817.00,0.2951
1816.00,0.2953
1815.00,0.2954
1814.00,0.2955
1813.00,0.2957
1812.00,0.2959
1811.00,0.2962
1810.00,0.2966
1809.00,0.2970
1808.00,0.2974
1807.00,0.2978
1806.00,0.2982
1805.00,0.2985
1804.00,0.2989
1803.00,0.2993
1802.00,0.2997
1801.00,0.3003
1800.00,0.3010
1799.00,0.3017
1798.00,0.3022
1797.00,0.3027
1796.00,0.3031
1795.00,0.3034
1794.00,0.3036
1793.00,0.3038
1792.00,0.3041
1791.00,0.3045
1790.00,0.3049
1789.00,0.3053
1788.00,0.3056
1787.00,0.3058
1786.00,0.3059
1785.00,0.3061
1784.00,0.3065
1783.00,0.3069
1782.00,0.3072
1781.00,0.3076
1780.00,0.3081
1779.00,0.3087
1778.00,0.3092
1777.00,0.3097
1776.00,0.3102
1775.00,0.3108
1774.00,0.3113
1773.00,0.3120
1772.00,0.3129
1771.00,0.3139
1770.00,0.3147
1769.00,0.3154
1768.00,0.3164
1767.00,0.3174
1766.00,0.3185
1765.00,0.3195
1764.00,0.3206
1763.00,0.3218
1762.00,0.3233
1761.00,0.3251
1760.00,0.3271
1759.00,0.3289
1758.00,0.3310
1757.00,0.3335
1756.00,0.3365
1755.00,0.3395
1754.00,0.3424
1753.00,0.3452
1752.00,0.3485
1751.00,0.3520
1750.00,0.3555
1749.00,0.3589
1748.00,0.3619
1747.00,0.3644
1746.00,0.3664
1745.00,0.3682
1744.00,0.3697
1743.00,0.3709
1742.00,0.3717
1741.00,0.3722
1740.00,0.3724
1739.00,0.3724
1738.00,0.3721
1737.00,0.3715
1736.00,0.3707
1735.00,0.3694
1734.00,0.3683
1733.00,0.3677
1732.00,0.3673
1731.00,0.3668
1730.00,0.3663
1729.00,0.3663
1728.00,0.3666
1727.00,0.3672
1726.00,0.3681
1725.00,0.3694
1724.00,0.3713
1723.00,0.3736
1722.00,0.3762
1721.00,0.3793
1720.00,0.3829
1719.00,0.3877
1718.00,0.3944
1717.00,0.4030
1716.00,0.4126
1715.00,0.4226
1714.00,0.4334
1713.00,0.4447
1712.00,0.4557
1711.00,0.4661
1710.00,0.4755
1709.00,0.4827
1708.00,0.4871
1707.00,0.4883
1706.00,0.4864
1705.00,0.4817
1704.00,0.4754
1703.00,0.4683
1702.00,0.4596
1701.00,0.4477
1700.00,0.4343
1699.00,0.4235
1698.00,0.4160
1697.00,0.4091
1696.00,0.4015
1695.00,0.3943
1694.00,0.3889
1693.00,0.3848
1692.00,0.3813
1691.00,0.3780
1690.00,0.3750
1689.00,0.3726
1688.00,0.3708
1687.00,0.3693
1686.00,0.3677
1685.00,0.3660
1684.00,0.3643
1683.00,0.3631
1682.00,0.3621
1681.00,0.3613
1680.00,0.3603
1679.00,0.3594
1678.00,0.3586
1677.00,0.3578
1676.00,0.3571
1675.00,0.3566
1674.00,0.3564
1673.00,0.3563
1672.00,0.3560
1671.00,0.3557
1670.00,0.3554
1669.00,0.3554
1668.00,0.3555
1667.00,0.3556
1666.00,0.3556
1665.00,0.3557
1664.00,0.3557
1663.00,0.3558
1662.00,0.3561
1661.00,0.3566
1660.00,0.3572
1659.00,0.3576
1658.00,0.3579
1657.00,0.3584
1656.00,0.3590
1655.00,0.3594
1654.00,0.3602
1653.00,0.3619
1652.00,0.3636
1651.00,0.3646
1650.00,0.3649
1649.00,0.3653
1648.00,0.3660
1647.00,0.3672
1646.00,0.3687
1645.00,0.3704
1644.00,0.3718
1643.00,0.3730
1642.00,0.3742
1641.00,0.3756
1640.00,0.3771
1639.00,0.3786
1638.00,0.3801
1637.00,0.3820
1636.00,0.3846
1635.00,0.3873
1634.00,0.3898
1633.00,0.3921
1632.00,0.3942
1631.00,0.3961
1630.00,0.3981
1629.00,0.4006
1628.00,0.4035
1627.00,0.4063
1626.00,0.4092
1625.00,0.4125
1624.00,0.4165
1623.00,0.4211
1622.00,0.4263
1621.00,0.4318
1620.00,0.4376
1619.00,0.4439
1618.00,0.4517
1617.00,0.4620
1616.00,0.4739
1615.00,0.4849
1614.00,0.4947
1613.00,0.5043
1612.00,0.5144
1611.00,0.5247
1610.00,0.5349
1609.00,0.5450
1608.00,0.5550
1607.00,0.5638
1606.00,0.5714
1605.00,0.5784
1604.00,0.5853
1603.00,0.5919
1602.00,0.5982
1601.00,0.6052
1600.00,0.6131
1599.00,0.6219
1598.00,0.6318
1597.00,0.6443
1596.00,0.6606
1595.00,0.6810
1594.00,0.7061
1593.00,0.7378
1592.00,0.7782
1591.00,0.8287
1590.00,0.8919
1589.00,0.9723
1588.00,1.0752
1587.00,1.2041
1586.00,1.3610
1585.00,1.5514
1584.00,1.7827
1583.00,2.0400
1582.00,2.2447
1581.00,2.3059
1580.00,2.2329
1579.00,2.0566
1578.00,1.8194
1577.00,1.5816
1576.00,1.3820
1575.00,1.2345
1574.00,1.1331
1573.00,1.0626
1572.00,1.0100
1571.00,0.9680
1570.00,0.9370
1569.00,0.9217
1568.00,0.9241
1567.00,0.9424
1566.00,0.9771
1565.00,1.0315
1564.00,1.1036
1563.00,1.1826
1562.00,1.2541
1561.00,1.3069
1560.00,1.3116
1559.00,1.2309
1558.00,1.1119
1557.00,1.0146
1556.00,0.9369
1555.00,0.8643
1554.00,0.7976
1553.00,0.7435
1552.00,0.7029
1551.00,0.6703
1550.00,0.6424
1549.00,0.6196
1548.00,0.6025
1547.00,0.5891
1546.00,0.5775
1545.00,0.5675
1544.00,0.5594
1543.00,0.5529
1542.00,0.5472
1541.00,0.5420
1540.00,0.5368
1539.00,0.5318
1538.00,0.5274
1537.00,0.5241
1536.00,0.5212
1535.00,0.5182
1534.00,0.5151
1533.00,0.5130
1532.00,0.5125
1531.00,0.5129
1530.00,0.5137
1529.00,0.5147
1528.00,0.5158
1527.00,0.5162
1526.00,0.5158
1525.00,0.5153
1524.00,0.5150
1523.00,0.5151
1522.00,0.5157
1521.00,0.5175
1520.00,0.5203
1519.00,0.5231
1518.00,0.5261
1517.00,0.5298
1516.00,0.5335
1515.00,0.5360
1514.00,0.5372
1513.00,0.5379
1512.00,0.5388
1511.00,0.5399
1510.00,0.5418
1509.00,0.5452
1508.00,0.5513
1507.00,0.5609
1506.00,0.5729
1505.00,0.5847
1504.00,0.5947
1503.00,0.6029
1502.00,0.6104
1501.00,0.6179
1500.00,0.6253
1499.00,0.6322
1498.00,0.6395
1497.00,0.6488
1496.00,0.6599
1495.00,0.6710
1494.00,0.6815
1493.00,0.6924
1492.00,0.7046
1491.00,0.7186
1490.00,0.7349
1489.00,0.7535
1488.00,0.7734
1487.00,0.7942
1486.00,0.8171
1485.00,0.8438
1484.00,0.8745
1483.00,0.9100
1482.00,0.9523
1481.00,1.0027
1480.00,1.0593
1479.00,1.1206
1478.00,1.1901
1477.00,1.2732
1476.00,1.3711
1475.00,1.4834
1474.00,1.6192
1473.00,1.7994
1472.00,2.0354
1471.00,2.3097
1470.00,2.6014
1469.00,2.9241
1468.00,3.2817
1467.00,3.5476
1466.00,3.7322
1465.00,4.1112
1464.00,4.3465
1463.00,4.1524
1462.00,4.1099
1461.00,4.1746
1460.00,4.1102
1459.00,3.7726
1458.00,3.7075
1457.00,4.0939
1456.00,4.2232
1455.00,4.1967
1454.00,3.9909
1453.00,3.9303
1452.00,3.8789
1451.00,3.6335
1450.00,3.5413
1449.00,3.5601
1448.00,3.4322
1447.00,3.1907
1446.00,3.0249
1445.00,2.8968
1444.00,2.7348
1443.00,2.5587
1442.00,2.4113
1441.00,2.2915
1440.00,2.1792
1439.00,2.0646
1438.00,1.9459
1437.00,1.8216
1436.00,1.6995
1435.00,1.5922
1434.00,1.5000
1433.00,1.4144
1432.00,1.3297
1431.00,1.2478
1430.00,1.1737
1429.00,1.1102
1428.00,1.0585
1427.00,1.0176
1426.00,0.9845
1425.00,0.9563
1424.00,0.9327
1423.00,0.9146
1422.00,0.9013
1421.00,0.8900
1420.00,0.8791
1419.00,0.8689
1418.00,0.8601
1417.00,0.8530
1416.00,0.8473
1415.00,0.8430
1414.00,0.8399
1413.00,0.8375
1412.00,0.8359
1411.00,0.8350
1410.00,0.8338
1409.00,0.8312
1408.00,0.8262
1407.00,0.8187
1406.00,0.8080
1405.00,0.7943
1404.00,0.7795
1403.00,0.7655
1402.00,0.7531
1401.00,0.7417
1400.00,0.7314
1399.00,0.7233
1398.00,0.7179
1397.00,0.7151
1396.00,0.7149
1395.00,0.7184
1394.00,0.7258
1393.00,0.7378
1392.00,0.7556
1391.00,0.7815
1390.00,0.8176
1389.00,0.8671
1388.00,0.9341
1387.00,1.0197
1386.00,1.1181
1385.00,1.2217
1384.00,1.3285
1383.00,1.4427
1382.00,1.5689
1381.00,1.7107
1380.00,1.8706
1379.00,2.0377
1378.00,2.1718
1377.00,2.2207
1376.00,2.1681
1375.00,2.0367
1374.00,1.8701
1373.00,1.7117
1372.00,1.5818
1371.00,1.4814
1370.00,1.4073
1369.00,1.3575
1368.00,1.3275
1367.00,1.3064
1366.00,1.2789
1365.00,1.2338
1364.00,1.1710
1363.00,1.1006
1362.00,1.0352
1361.00,0.9823
1360.00,0.9425
1359.00,0.9132
1358.00,0.8918
1357.00,0.8766
1356.00,0.8664
1355.00,0.8601
1354.00,0.8566
1353.00,0.8545
1352.00,0.8530
1351.00,0.8512
1350.00,0.8488
1349.00,0.8459
1348.00,0.8427
1347.00,0.8396
1346.00,0.8368
1345.00,0.8345
1344.00,0.8325
1343.00,0.8306
1342.00,0.8279
1341.00,0.8235
1340.00,0.8169
1339.00,0.8081
1338.00,0.7971
1337.00,0.7843
1336.00,0.7702
1335.00,0.7556
1334.00,0.7414
1333.00,0.7282
1332.00,0.7166
1331.00,0.7068
1330.00,0.6990
1329.00,0.6929
1328.00,0.6884
1327.00,0.6855
1326.00,0.6839
1325.00,0.6833
1324.00,0.6832
1323.00,0.6835
1322.00,0.6839
1321.00,0.6844
1320.00,0.6848
1319.00,0.6854
1318.00,0.6865
1317.00,0.6881
1316.00,0.6903
1315.00,0.6931
1314.00,0.6966
1313.00,0.7006
1312.00,0.7047
1311.00,0.7089
1310.00,0.7126
1309.00,0.7158
1308.00,0.7184
1307.00,0.7204
1306.00,0.7216
1305.00,0.7214
1304.00,0.7197
1303.00,0.7167
1302.00,0.7126
1301.00,0.7078
1300.00,0.7026
1299.00,0.6971
1298.00,0.6914
1297.00,0.6856
1296.00,0.6799
1295.00,0.6748
1294.00,0.6703
1293.00,0.6663
1292.00,0.6626
1291.00,0.6590
1290.00,0.6555
1289.00,0.6520
1288.00,0.6486
1287.00,0.6452
1286.00,0.6417
1285.00,0.6378
1284.00,0.6337
1283.00,0.6297
1282.00,0.6261
1281.00,0.6230
1280.00,0.6204
1279.00,0.6182
1278.00,0.6161
1277.00,0.6139
1276.00,0.6116
1275.00,0.6093
1274.00,0.6073
1273.00,0.6056
1272.00,0.6042
1271.00,0.6035
1270.00,0.6030
1269.00,0.6024
1268.00,0.6011
1267.00,0.5986
1266.00,0.5950
1265.00,0.5906
1264.00,0.5863
1263.00,0.5829
1262.00,0.5803
1261.00,0.5784
1260.00,0.5769
1259.00,0.5756
1258.00,0.5743
1257.00,0.5727
1256.00,0.5709
1255.00,0.5691
1254.00,0.5676
1253.00,0.5662
1252.00,0.5649
1251.00,0.5637
1250.00,0.5623
1249.00,0.5608
1248.00,0.5591
1247.00,0.5572
1246.00,0.5551
1245.00,0.5524
1244.00,0.5493
1243.00,0.5460
1242.00,0.5426
1241.00,0.5393
1240.00,0.5363
1239.00,0.5335
1238.00,0.5312
1237.00,0.5292
1236.00,0.5276
1235.00,0.5266
1234.00,0.5261
1233.00,0.5260
1232.00,0.5265
1231.00,0.5274
1230.00,0.5284
1229.00,0.5287
1228.00,0.5280
1227.00,0.5262
1226.00,0.5235
1225.00,0.5203
1224.00,0.5170
1223.00,0.5141
1222.00,0.5118
1221.00,0.5100
1220.00,0.5087
1219.00,0.5078
1218.00,0.5075
1217.00,0.5076
1216.00,0.5081
1215.00,0.5090
1214.00,0.5100
1213.00,0.5106
1212.00,0.5104
1211.00,0.5096
1210.00,0.5084
1209.00,0.5068
1208.00,0.5052
1207.00,0.5036
1206.00,0.5020
1205.00,0.5004
1204.00,0.4988
1203.00,0.4975
1202.00,0.4964
1201.00,0.4955
1200.00,0.4949
1199.00,0.4947
1198.00,0.4947
1197.00,0.4945
1196.00,0.4939
1195.00,0.4931
1194.00,0.4923
1193.00,0.4915
1192.00,0.4908
1191.00,0.4902
1190.00,0.4898
1189.00,0.4893
1188.00,0.4889
1187.00,0.4884
1186.00,0.4881
1185.00,0.4877
1184.00,0.4873
1183.00,0.4871
1182.00,0.4870
1181.00,0.4871
1180.00,0.4876
1179.00,0.4884
1178.00,0.4897
1177.00,0.4912
1176.00,0.4932
1175.00,0.4960
1174.00,0.4997
1173.00,0.5041
1172.00,0.5088
1171.00,0.5132
1170.00,0.5164
1169.00,0.5179
1168.00,0.5177
1167.00,0.5166
1166.00,0.5151
1165.00,0.5137
1164.00,0.5127
1163.00,0.5124
1162.00,0.5129
1161.00,0.5138
1160.00,0.5152
1159.00,0.5169
1158.00,0.5185
1157.00,0.5197
1156.00,0.5203
1155.00,0.5203
1154.00,0.5195
1153.00,0.5182
1152.00,0.5163
1151.00,0.5143
1150.00,0.5122
1149.00,0.5099
1148.00,0.5076
1147.00,0.5054
1146.00,0.5037
1145.00,0.5026
1144.00,0.5020
1143.00,0.5023
1142.00,0.5036
1141.00,0.5059
1140.00,0.5094
1139.00,0.5140
1138.00,0.5199
1137.00,0.5269
1136.00,0.5350
1135.00,0.5436
1134.00,0.5510
1133.00,0.5554
1132.00,0.5552
1131.00,0.5505
1130.00,0.5426
1129.00,0.5339
1128.00,0.5261
1127.00,0.5201
1126.00,0.5161
1125.00,0.5134
1124.00,0.5114
1123.00,0.5099
1122.00,0.5084
1121.00,0.5069
1120.00,0.5059
1119.00,0.5059
1118.00,0.5072
1117.00,0.5100
1116.00,0.5137
1115.00,0.5175
1114.00,0.5199
1113.00,0.5194
1112.00,0.5156
1111.00,0.5095
1110.00,0.5027
1109.00,0.4965
1108.00,0.4916
1107.00,0.4881
1106.00,0.4859
1105.00,0.4846
1104.00,0.4839
1103.00,0.4835
1102.00,0.4832
1101.00,0.4825
1100.00,0.4816
1099.00,0.4805
1098.00,0.4795
1097.00,0.4786
1096.00,0.4779
1095.00,0.4774
1094.00,0.4773
1093.00,0.4775
1092.00,0.4779
1091.00,0.4785
1090.00,0.4796
1089.00,0.4812
1088.00,0.4835
1087.00,0.4867
1086.00,0.4908
1085.00,0.4958
1084.00,0.5017
1083.00,0.5085
1082.00,0.5160
1081.00,0.5240
1080.00,0.5320
1079.00,0.5392
1078.00,0.5446
1077.00,0.5474
1076.00,0.5470
1075.00,0.5438
1074.00,0.5384
1073.00,0.5319
1072.00,0.5254
1071.00,0.5197
1070.00,0.5151
1069.00,0.5116
1068.00,0.5089
1067.00,0.5070
1066.00,0.5057
1065.00,0.5048
1064.00,0.5041
1063.00,0.5037
1062.00,0.5037
1061.00,0.5040
1060.00,0.5045
1059.00,0.5048
1058.00,0.5049
1057.00,0.5045
1056.00,0.5037
1055.00,0.5029
1054.00,0.5022
1053.00,0.5018
1052.00,0.5019
1051.00,0.5026
1050.00,0.5040
1049.00,0.5059
1048.00,0.5080
1047.00,0.5100
1046.00,0.5114
1045.00,0.5121
1044.00,0.5121
1043.00,0.5116
1042.00,0.5111
1041.00,0.5106
1040.00,0.5103
1039.00,0.5101
1038.00,0.5097
1037.00,0.5093
1036.00,0.5090
1035.00,0.5093
1034.00,0.5102
1033.00,0.5119
1032.00,0.5140
1031.00,0.5163
1030.00,0.5182
1029.00,0.5191
1028.00,0.5189
1027.00,0.5173
1026.00,0.5142
1025.00,0.5095
1024.00,0.5039
1023.00,0.4979
1022.00,0.4922
1021.00,0.4870
1020.00,0.4823
1019.00,0.4782
1018.00,0.4748
1017.00,0.4717
1016.00,0.4689
1015.00,0.4664
1014.00,0.4644
1013.00,0.4627
1012.00,0.4613
1011.00,0.4602
1010.00,0.4595
1009.00,0.4594
1008.00,0.4598
1007.00,0.4607
1006.00,0.4620
1005.00,0.4634
1004.00,0.4649
1003.00,0.4666
1002.00,0.4684
1001.00,0.4702
1000.00,0.4719
999.00,0.4731
998.00,0.4735
997.00,0.4731
996.00,0.4718
995.00,0.4698
994.00,0.4673
993.00,0.4644
992.00,0.4613
991.00,0.4581
990.00,0.4550
989.00,0.4522
988.00,0.4498
987.00,0.4483
986.00,0.4478
985.00,0.4482
984.00,0.4493
983.00,0.4509
982.00,0.4530
981.00,0.4551
980.00,0.4574
979.00,0.4597
978.00,0.4619
977.00,0.4638
976.00,0.4652
975.00,0.4662
974.00,0.4667
973.00,0.4668
972.00,0.4668
971.00,0.4667
970.00,0.4665
969.00,0.4662
968.00,0.4658
967.00,0.4655
966.00,0.4650
965.00,0.4644
964.00,0.4634
963.00,0.4623
962.00,0.4611
961.00,0.4598
960.00,0.4587
959.00,0.4579
958.00,0.4572
957.00,0.4566
956.00,0.4560
955.00,0.4556
954.00,0.4552
953.00,0.4546
952.00,0.4538
951.00,0.4529
950.00,0.4523
949.00,0.4518
948.00,0.4517
947.00,0.4520
946.00,0.4529
945.00,0.4541
944.00,0.4556
943.00,0.4572
942.00,0.4588
941.00,0.4603
940.00,0.4615
939.00,0.4624
938.00,0.4627
937.00,0.4624
936.00,0.4615
935.00,0.4601
934.00,0.4584
933.00,0.4562
932.00,0.4537
931.00,0.4512
930.00,0.4490
929.00,0.4474
928.00,0.4466
927.00,0.4469
926.00,0.4485
925.00,0.4514
924.00,0.4557
923.00,0.4609
922.00,0.4660
921.00,0.4694
920.00,0.4697
919.00,0.4661
918.00,0.4595
917.00,0.4509
916.00,0.4421
915.00,0.4342
914.00,0.4275
913.00,0.4222
912.00,0.4179
911.00,0.4147
910.00,0.4123
909.00,0.4105
908.00,0.4091
907.00,0.4082
906.00,0.4076
905.00,0.4072
904.00,0.4072
903.00,0.4077
902.00,0.4089
901.00,0.4109
900.00,0.4135
899.00,0.4166
898.00,0.4200
897.00,0.4234
896.00,0.4269
895.00,0.4306
894.00,0.4346
893.00,0.4387
892.00,0.4427
891.00,0.4464
890.00,0.4494
889.00,0.4513
888.00,0.4517
887.00,0.4507
886.00,0.4489
885.00,0.4468
884.00,0.4450
883.00,0.4442
882.00,0.4444
881.00,0.4455
880.00,0.4471
879.00,0.4488
878.00,0.4499
877.00,0.4503
876.00,0.4499
875.00,0.4492
874.00,0.4488
873.00,0.4485
872.00,0.4486
871.00,0.4491
870.00,0.4501
869.00,0.4515
868.00,0.4534
867.00,0.4561
866.00,0.4598
865.00,0.4641
864.00,0.4684
863.00,0.4718
862.00,0.4732
861.00,0.4716
860.00,0.4670
859.00,0.4602
858.00,0.4530
857.00,0.4465
856.00,0.4414
855.00,0.4377
854.00,0.4351
853.00,0.4330
852.00,0.4314
851.00,0.4299
850.00,0.4284
849.00,0.4264
848.00,0.4238
847.00,0.4209
846.00,0.4180
845.00,0.4152
844.00,0.4127
843.00,0.4108
842.00,0.4101
841.00,0.4111
840.00,0.4141
839.00,0.4194
838.00,0.4264
837.00,0.4335
836.00,0.4384
835.00,0.4397
834.00,0.4373
833.00,0.4327
832.00,0.4278
831.00,0.4246
830.00,0.4236
829.00,0.4248
828.00,0.4276
827.00,0.4316
826.00,0.4365
825.00,0.4419
824.00,0.4479
823.00,0.4545
822.00,0.4616
821.00,0.4686
820.00,0.4752
819.00,0.4815
818.00,0.4870
817.00,0.4914
816.00,0.4940
815.00,0.4944
814.00,0.4925
813.00,0.4887
812.00,0.4834
811.00,0.4775
810.00,0.4715
809.00,0.4656
808.00,0.4601
807.00,0.4551
806.00,0.4506
805.00,0.4459
804.00,0.4406
803.00,0.4348
802.00,0.4289
801.00,0.4234
800.00,0.4186
799.00,0.4148
798.00,0.4118
797.00,0.4098
796.00,0.4084
795.00,0.4077
794.00,0.4076
793.00,0.4081
792.00,0.4093
791.00,0.4113
790.00,0.4140
789.00,0.4169
788.00,0.4198
787.00,0.4228
786.00,0.4262
785.00,0.4303
784.00,0.4348
783.00,0.4390
782.00,0.4425
781.00,0.4449
780.00,0.4469
779.00,0.4488
778.00,0.4508
777.00,0.4528
776.00,0.4546
775.00,0.4562
774.00,0.4579
773.00,0.4600
772.00,0.4625
771.00,0.4654
770.00,0.4684
769.00,0.4715
768.00,0.4745
767.00,0.4775
766.00,0.4801
765.00,0.4822
764.00,0.4840
763.00,0.4860
762.00,0.4886
761.00,0.4919
760.00,0.4958
759.00,0.5002
758.00,0.5042
757.00,0.5074
756.00,0.5100
755.00,0.5126
754.00,0.5156
753.00,0.5194
752.00,0.5237
751.00,0.5285
750.00,0.5333
749.00,0.5377
748.00,0.5417
747.00,0.5457
746.00,0.5497
745.00,0.5539
744.00,0.5586
743.00,0.5637
742.00,0.5692
741.00,0.5747
740.00,0.5796
739.00,0.5839
738.00,0.5877
737.00,0.5912
736.00,0.5949
735.00,0.5994
734.00,0.6049
733.00,0.6115
732.00,0.6193
731.00,0.6291
730.00,0.6415
729.00,0.6570
728.00,0.6758
727.00,0.6984
726.00,0.7252
725.00,0.7550
724.00,0.7850
723.00,0.8096
722.00,0.8208
721.00,0.8115
720.00,0.7812
719.00,0.7375
718.00,0.6905
717.00,0.6473
716.00,0.6111
715.00,0.5822
714.00,0.5593
713.00,0.5406
712.00,0.5250
711.00,0.5123
710.00,0.5020
709.00,0.4937
708.00,0.4868
707.00,0.4810
706.00,0.4763
705.00,0.4722
704.00,0.4685
703.00,0.4656
702.00,0.4639
701.00,0.4629
700.00,0.4612
699.00,0.4565
698.00,0.4470
697.00,0.4331
696.00,0.4171
695.00,0.4020
694.00,0.3898
693.00,0.3805
692.00,0.3737
691.00,0.3686
690.00,0.3647
689.00,0.3617
688.00,0.3591
687.00,0.3571
686.00,0.3556
685.00,0.3544
684.00,0.3534
683.00,0.3526
682.00,0.3521
681.00,0.3517
680.00,0.3514
679.00,0.3513
678.00,0.3511
677.00,0.3510
676.00,0.3512
675.00,0.3515
674.00,0.3519
673.00,0.3521
672.00,0.3522
671.00,0.3525
670.00,0.3529
669.00,0.3530
668.00,0.3529
667.00,0.3528
666.00,0.3534
665.00,0.3545
664.00,0.3557
663.00,0.3568
662.00,0.3577
661.00,0.3584
660.00,0.3590
659.00,0.3597
658.00,0.3608
657.00,0.3621
656.00,0.3633
655.00,0.3646
654.00,0.3657
653.00,0.3667
652.00,0.3674
651.00,0.3681
650.00,0.3688
649.00,0.3695
648.00,0.3702
647.00,0.3712
646.00,0.3725
645.00,0.3738
644.00,0.3753
643.00,0.3769
642.00,0.3786
641.00,0.3802
640.00,0.3815
639.00,0.3826
638.00,0.3835
637.00,0.3841
636.00,0.3846
635.00,0.3852
634.00,0.3859
633.00,0.3865
632.00,0.3871
631.00,0.3881
630.00,0.3895
629.00,0.3909
628.00,0.3923
627.00,0.3940
626.00,0.3960
625.00,0.3981
624.00,0.4001
623.00,0.4020
622.00,0.4039
621.00,0.4056
620.00,0.4070
619.00,0.4081
618.00,0.4090
617.00,0.4097
616.00,0.4101
615.00,0.4102
614.00,0.4099
613.00,0.4090
612.00,0.4075
611.00,0.4059
610.00,0.4044
609.00,0.4032
608.00,0.4020
607.00,0.4010
606.00,0.4001
605.00,0.3992
604.00,0.3982
603.00,0.3972
602.00,0.3966
601.00,0.3966
600.00,0.3970
599.00,0.3976
598.00,0.3981
597.00,0.3989
596.00,0.3999
595.00,0.4013
594.00,0.4028
593.00,0.4043
592.00,0.4059
591.00,0.4080
590.00,0.4103
589.00,0.4126
588.00,0.4148
587.00,0.4171
586.00,0.4195
585.00,0.4218
584.00,0.4243
583.00,0.4270
582.00,0.4302
581.00,0.4336
580.00,0.4368
579.00,0.4396
578.00,0.4420
577.00,0.4440
576.00,0.4456
575.00,0.4473
574.00,0.4491
573.00,0.4511
572.00,0.4531
571.00,0.4548
570.00,0.4565
569.00,0.4581
568.00,0.4596
567.00,0.4608
566.00,0.4618
565.00,0.4626
564.00,0.4635
563.00,0.4646
562.00,0.4660
561.00,0.4673
560.00,0.4685
559.00,0.4697
558.00,0.4710
557.00,0.4723
556.00,0.4735
555.00,0.4746
554.00,0.4753
553.00,0.4758
552.00,0.4765
551.00,0.4775
550.00,0.4788
