Created as New Dataset,
cm-1,A
4000.00,0.3896
3999.00,0.3893
3998.00,0.3890
3997.00,0.3886
3996.00,0.3883
3995.00,0.3879
3994.00,0.3875
3993.00,0.3872
3992.00,0.3869
3991.00,0.3865
3990.00,0.3861
3989.00,0.3856
3988.00,0.3852
3987.00,0.3849
3986.00,0.3846
3985.00,0.3843
3984.00,0.3839
3983.00,0.3835
3982.00,0.3831
3981.00,0.3827
3980.00,0.3824
3979.00,0.3821
3978.00,0.3819
3977.00,0.3816
3976.00,0.3813
3975.00,0.3810
3974.00,0.3807
3973.00,0.3805
3972.00,0.3803
3971.00,0.3801
3970.00,0.3799
3969.00,0.3797
3968.00,0.3796
3967.00,0.3795
3966.00,0.3793
3965.00,0.3792
3964.00,0.3790
3963.00,0.3788
3962.00,0.3786
3961.00,0.3785
3960.00,0.3783
3959.00,0.3782
3958.00,0.3781
3957.00,0.3780
3956.00,0.3778
3955.00,0.3776
3954.00,0.3774
3953.00,0.3772
3952.00,0.3770
3951.00,0.3768
3950.00,0.3767
3949.00,0.3765
3948.00,0.3763
3947.00,0.3761
3946.00,0.3759
3945.00,0.3756
3944.00,0.3754
3943.00,0.3753
3942.00,0.3752
3941.00,0.3751
3940.00,0.3750
3939.00,0.3749
3938.00,0.3748
3937.00,0.3748
3936.00,0.3748
3935.00,0.3747
3934.00,0.3746
3933.00,0.3745
3932.00,0.3745
3931.00,0.3746
3930.00,0.3747
3929.00,0.3747
3928.00,0.3748
3927.00,0.3748
3926.00,0.3748
3925.00,0.3749
3924.00,0.3749
3923.00,0.3749
3922.00,0.3748
3921.00,0.3748
3920.00,0.3747
3919.00,0.3747
3918.00,0.3747
3917.00,0.3747
3916.00,0.3746
3915.00,0.3745
3914.00,0.3743
3913.00,0.3741
3912.00,0.3740
3911.00,0.3739
3910.00,0.3739
3909.00,0.3737
3908.00,0.3736
3907.00,0.3735
3906.00,0.3734
3905.00,0.3734
3904.00,0.3735
3903.00,0.3736
3902.00,0.3737
3901.00,0.3736
3900.00,0.3734
3899.00,0.3734
3898.00,0.3734
3897.00,0.3733
3896.00,0.3733
3895.00,0.3732
3894.00,0.3730
3893.00,0.3729
3892.00,0.3728
3891.00,0.3727
3890.00,0.3728
3889.00,0.3728
3888.00,0.3727
3887.00,0.3726
3886.00,0.3727
3885.00,0.3728
3884.00,0.3729
3883.00,0.3728
3882.00,0.3726
3881.00,0.3724
3880.00,0.3725
3879.00,0.3725
3878.00,0.3724
3877.00,0.3722
3876.00,0.3720
3875.00,0.3718
3874.00,0.3718
3873.00,0.3718
3872.00,0.3716
3871.00,0.3712
3870.00,0.3709
3869.00,0.3709
3868.00,0.3709
3867.00,0.3706
3866.00,0.3703
3865.00,0.3701
3864.00,0.3700
3863.00,0.3699
3862.00,0.3698
3861.00,0.3697
3860.00,0.3697
3859.00,0.3697
3858.00,0.3698
3857.00,0.3698
3856.00,0.3697
3855.00,0.3695
3854.00,0.3695
3853.00,0.3696
3852.00,0.3698
3851.00,0.3698
3850.00,0.3697
3849.00,0.3695
3848.00,0.3695
3847.00,0.3695
3846.00,0.3695
3845.00,0.3694
3844.00,0.3694
3843.00,0.3693
3842.00,0.3693
3841.00,0.3692
3840.00,0.3692
3839.00,0.3691
3838.00,0.3691
3837.00,0.3690
3836.00,0.3688
3835.00,0.3686
3834.00,0.3684
3833.00,0.3683
3832.00,0.3681
3831.00,0.3680
3830.00,0.3678
3829.00,0.3676
3828.00,0.3673
3827.00,0.3672
3826.00,0.3672
3825.00,0.3672
3824.00,0.3672
3823.00,0.3670
3822.00,0.3669
3821.00,0.3670
3820.00,0.3671
3819.00,0.3671
3818.00,0.3668
3817.00,0.3666
3816.00,0.3666
3815.00,0.3666
3814.00,0.3664
3813.00,0.3661
3812.00,0.3658
3811.00,0.3656
3810.00,0.3655
3809.00,0.3654
3808.00,0.3651
3807.00,0.3650
3806.00,0.3650
3805.00,0.3649
3804.00,0.3648
3803.00,0.3645
3802.00,0.3643
3801.00,0.3642
3800.00,0.3641
3799.00,0.3638
3798.00,0.3633
3797.00,0.3630
3796.00,0.3628
3795.00,0.3626
3794.00,0.3622
3793.00,0.3618
3792.00,0.3615
3791.00,0.3613
3790.00,0.3612
3789.00,0.3611
3788.00,0.3611
3787.00,0.3609
3786.00,0.3608
3785.00,0.3606
3784.00,0.3605
3783.00,0.3604
3782.00,0.3603
3781.00,0.3601
3780.00,0.3600
3779.00,0.3600
3778.00,0.3600
3777.00,0.3599
3776.00,0.3597
3775.00,0.3596
3774.00,0.3594
3773.00,0.3593
3772.00,0.3591
3771.00,0.3589
3770.00,0.3588
3769.00,0.3588
3768.00,0.3587
3767.00,0.3585
3766.00,0.3584
3765.00,0.3583
3764.00,0.3582
3763.00,0.3581
3762.00,0.3578
3761.00,0.3575
3760.00,0.3573
3759.00,0.3570
3758.00,0.3568
3757.00,0.3567
3756.00,0.3566
3755.00,0.3565
3754.00,0.3565
3753.00,0.3563
3752.00,0.3562
3751.00,0.3560
3750.00,0.3558
3749.00,0.3558
3748.00,0.3558
3747.00,0.3558
3746.00,0.3555
3745.00,0.3554
3744.00,0.3554
3743.00,0.3553
3742.00,0.3551
3741.00,0.3548
3740.00,0.3546
3739.00,0.3546
3738.00,0.3547
3737.00,0.3546
3736.00,0.3546
3735.00,0.3546
3734.00,0.3544
3733.00,0.3542
3732.00,0.3540
3731.00,0.3539
3730.00,0.3538
3729.00,0.3535
3728.00,0.3532
3727.00,0.3529
3726.00,0.3527
3725.00,0.3526
3724.00,0.3524
3723.00,0.3521
3722.00,0.3520
3721.00,0.3518
3720.00,0.3516
3719.00,0.3514
3718.00,0.3512
3717.00,0.3511
3716.00,0.3510
3715.00,0.3508
3714.00,0.3507
3713.00,0.3507
3712.00,0.3507
3711.00,0.3508
3710.00,0.3508
3709.00,0.3507
3708.00,0.3506
3707.00,0.3505
3706.00,0.3506
3705.00,0.3506
3704.00,0.3506
3703.00,0.3505
3702.00,0.3504
3701.00,0.3504
3700.00,0.3504
3699.00,0.3504
3698.00,0.3504
3697.00,0.3503
3696.00,0.3504
3695.00,0.3505
3694.00,0.3505
3693.00,0.3506
3692.00,0.3507
3691.00,0.3508
3690.00,0.3507
3689.00,0.3506
3688.00,0.3505
3687.00,0.3504
3686.00,0.3502
3685.00,0.3501
3684.00,0.3500
3683.00,0.3499
3682.00,0.3498
3681.00,0.3497
3680.00,0.3496
3679.00,0.3495
3678.00,0.3494
3677.00,0.3492
3676.00,0.3491
3675.00,0.3492
3674.00,0.3494
3673.00,0.3494
3672.00,0.3492
3671.00,0.3490
3670.00,0.3491
3669.00,0.3491
3668.00,0.3491
3667.00,0.3490
3666.00,0.3489
3665.00,0.3488
3664.00,0.3489
3663.00,0.3490
3662.00,0.3490
3661.00,0.3491
3660.00,0.3493
3659.00,0.3493
3658.00,0.3494
3657.00,0.3494
3656.00,0.3496
3655.00,0.3499
3654.00,0.3501
3653.00,0.3502
3652.00,0.3503
3651.00,0.3504
3650.00,0.3506
3649.00,0.3508
3648.00,0.3508
3647.00,0.3508
3646.00,0.3508
3645.00,0.3508
3644.00,0.3508
3643.00,0.3507
3642.00,0.3507
3641.00,0.3507
3640.00,0.3507
3639.00,0.3507
3638.00,0.3508
3637.00,0.3509
3636.00,0.3511
3635.00,0.3513
3634.00,0.3515
3633.00,0.3518
3632.00,0.3521
3631.00,0.3523
3630.00,0.3525
3629.00,0.3530
3628.00,0.3537
3627.00,0.3542
3626.00,0.3546
3625.00,0.3549
3624.00,0.3553
3623.00,0.3556
3622.00,0.3556
3621.00,0.3555
3620.00,0.3552
3619.00,0.3550
3618.00,0.3547
3617.00,0.3545
3616.00,0.3542
3615.00,0.3540
3614.00,0.3539
3613.00,0.3538
3612.00,0.3537
3611.00,0.3536
3610.00,0.3535
3609.00,0.3534
3608.00,0.3534
3607.00,0.3534
3606.00,0.3532
3605.00,0.3531
3604.00,0.3529
3603.00,0.3528
3602.00,0.3525
3601.00,0.3522
3600.00,0.3518
3599.00,0.3512
3598.00,0.3506
3597.00,0.3500
3596.00,0.3495
3595.00,0.3489
3594.00,0.3484
3593.00,0.3480
3592.00,0.3477
3591.00,0.3474
3590.00,0.3471
3589.00,0.3469
3588.00,0.3467
3587.00,0.3466
3586.00,0.3464
3585.00,0.3463
3584.00,0.3462
3583.00,0.3460
3582.00,0.3460
3581.00,0.3459
3580.00,0.3459
3579.00,0.3458
3578.00,0.3457
3577.00,0.3456
3576.00,0.3456
3575.00,0.3456
3574.00,0.3456
3573.00,0.3456
3572.00,0.3456
3571.00,0.3457
3570.00,0.3458
3569.00,0.3459
3568.00,0.3460
3567.00,0.3462
3566.00,0.3465
3565.00,0.3466
3564.00,0.3468
3563.00,0.3470
3562.00,0.3473
3561.00,0.3475
3560.00,0.3476
3559.00,0.3478
3558.00,0.3480
3557.00,0.3482
3556.00,0.3485
3555.00,0.3488
3554.00,0.3491
3553.00,0.3494
3552.00,0.3497
3551.00,0.3501
3550.00,0.3505
3549.00,0.3509
3548.00,0.3513
3547.00,0.3517
3546.00,0.3520
3545.00,0.3524
3544.00,0.3527
3543.00,0.3529
3542.00,0.3532
3541.00,0.3535
3540.00,0.3538
3539.00,0.3541
3538.00,0.3543
3537.00,0.3545
3536.00,0.3548
3535.00,0.3550
3534.00,0.3553
3533.00,0.3555
3532.00,0.3558
3531.00,0.3560
3530.00,0.3563
3529.00,0.3565
3528.00,0.3568
3527.00,0.3571
3526.00,0.3574
3525.00,0.3576
3524.00,0.3579
3523.00,0.3582
3522.00,0.3585
3521.00,0.3589
3520.00,0.3593
3519.00,0.3596
3518.00,0.3599
3517.00,0.3603
3516.00,0.3606
3515.00,0.3609
3514.00,0.3612
3513.00,0.3617
3512.00,0.3621
3511.00,0.3625
3510.00,0.3629
3509.00,0.3634
3508.00,0.3638
3507.00,0.3643
3506.00,0.3647
3505.00,0.3652
3504.00,0.3657
3503.00,0.3661
3502.00,0.3666
3501.00,0.3670
3500.00,0.3675
3499.00,0.3680
3498.00,0.3686
3497.00,0.3692
3496.00,0.3698
3495.00,0.3704
3494.00,0.3711
3493.00,0.3717
3492.00,0.3724
3491.00,0.3730
3490.00,0.3737
3489.00,0.3743
3488.00,0.3750
3487.00,0.3757
3486.00,0.3764
3485.00,0.3770
3484.00,0.3776
3483.00,0.3782
3482.00,0.3787
3481.00,0.3791
3480.00,0.3795
3479.00,0.3800
3478.00,0.3804
3477.00,0.3809
3476.00,0.3813
3475.00,0.3818
3474.00,0.3822
3473.00,0.3826
3472.00,0.3830
3471.00,0.3834
3470.00,0.3839
3469.00,0.3844
3468.00,0.3848
3467.00,0.3853
3466.00,0.3858
3465.00,0.3862
3464.00,0.3867
3463.00,0.3872
3462.00,0.3878
3461.00,0.3884
3460.00,0.3889
3459.00,0.3895
3458.00,0.3901
3457.00,0.3908
3456.00,0.3915
3455.00,0.3922
3454.00,0.3928
3453.00,0.3934
3452.00,0.3940
3451.00,0.3947
3450.00,0.3953
3449.00,0.3960
3448.00,0.3967
3447.00,0.3974
3446.00,0.3981
3445.00,0.3987
3444.00,0.3994
3443.00,0.4000
3442.00,0.4007
3441.00,0.4014
3440.00,0.4021
3439.00,0.4027
3438.00,0.4034
3437.00,0.4041
3436.00,0.4048
3435.00,0.4055
3434.00,0.4062
3433.00,0.4069
3432.00,0.4075
3431.00,0.4082
3430.00,0.4089
3429.00,0.4096
3428.00,0.4103
3427.00,0.4110
3426.00,0.4118
3425.00,0.4126
3424.00,0.4135
3423.00,0.4144
3422.00,0.4152
3421.00,0.4161
3420.00,0.4170
3419.00,0.4179
3418.00,0.4187
3417.00,0.4196
3416.00,0.4205
3415.00,0.4214
3414.00,0.4223
3413.00,0.4232
3412.00,0.4241
3411.00,0.4250
3410.00,0.4259
3409.00,0.4268
3408.00,0.4277
3407.00,0.4286
3406.00,0.4295
3405.00,0.4304
3404.00,0.4313
3403.00,0.4323
3402.00,0.4332
3401.00,0.4342
3400.00,0.4352
3399.00,0.4362
3398.00,0.4371
3397.00,0.4380
3396.00,0.4389
3395.00,0.4399
3394.00,0.4409
3393.00,0.4420
3392.00,0.4430
3391.00,0.4441
3390.00,0.4452
3389.00,0.4462
3388.00,0.4473
3387.00,0.4484
3386.00,0.4495
3385.00,0.4506
3384.00,0.4518
3383.00,0.4529
3382.00,0.4540
3381.00,0.4551
3380.00,0.4562
3379.00,0.4573
3378.00,0.4585
3377.00,0.4598
3376.00,0.4610
3375.00,0.4622
3374.00,0.4634
3373.00,0.4647
3372.00,0.4660
3371.00,0.4673
3370.00,0.4687
3369.00,0.4700
3368.00,0.4713
3367.00,0.4726
3366.00,0.4739
3365.00,0.4752
3364.00,0.4766
3363.00,0.4781
3362.00,0.4796
3361.00,0.4811
3360.00,0.4826
3359.00,0.4841
3358.00,0.4856
3357.00,0.4871
3356.00,0.4887
3355.00,0.4902
3354.00,0.4918
3353.00,0.4934
3352.00,0.4950
3351.00,0.4966
3350.00,0.4981
3349.00,0.4997
3348.00,0.5012
3347.00,0.5027
3346.00,0.5043
3345.00,0.5058
3344.00,0.5072
3343.00,0.5085
3342.00,0.5097
3341.00,0.5109
3340.00,0.5121
3339.00,0.5132
3338.00,0.5143
3337.00,0.5153
3336.00,0.5163
3335.00,0.5171
3334.00,0.5179
3333.00,0.5186
3332.00,0.5191
3331.00,0.5195
3330.00,0.5199
3329.00,0.5203
3328.00,0.5207
3327.00,0.5210
3326.00,0.5212
3325.00,0.5211
3324.00,0.5210
3323.00,0.5207
3322.00,0.5205
3321.00,0.5203
3320.00,0.5201
3319.00,0.5197
3318.00,0.5193
3317.00,0.5188
3316.00,0.5182
3315.00,0.5176
3314.00,0.5170
3313.00,0.5164
3312.00,0.5157
3311.00,0.5151
3310.00,0.5143
3309.00,0.5136
3308.00,0.5128
3307.00,0.5120
3306.00,0.5112
3305.00,0.5104
3304.00,0.5095
3303.00,0.5087
3302.00,0.5079
3301.00,0.5071
3300.00,0.5063
3299.00,0.5056
3298.00,0.5049
3297.00,0.5043
3296.00,0.5038
3295.00,0.5033
3294.00,0.5027
3293.00,0.5022
3292.00,0.5017
3291.00,0.5013
3290.00,0.5010
3289.00,0.5006
3288.00,0.5003
3287.00,0.5000
3286.00,0.4997
3285.00,0.4996
3284.00,0.4996
3283.00,0.4996
3282.00,0.4997
3281.00,0.4997
3280.00,0.4998
3279.00,0.5000
3278.00,0.5003
3277.00,0.5006
3276.00,0.5010
3275.00,0.5013
3274.00,0.5015
3273.00,0.5018
3272.00,0.5021
3271.00,0.5024
3270.00,0.5027
3269.00,0.5031
3268.00,0.5035
3267.00,0.5040
3266.00,0.5044
3265.00,0.5048
3264.00,0.5052
3263.00,0.5056
3262.00,0.5061
3261.00,0.5066
3260.00,0.5071
3259.00,0.5077
3258.00,0.5082
3257.00,0.5087
3256.00,0.5092
3255.00,0.5097
3254.00,0.5101
3253.00,0.5107
3252.00,0.5113
3251.00,0.5118
3250.00,0.5123
3249.00,0.5129
3248.00,0.5133
3247.00,0.5138
3246.00,0.5142
3245.00,0.5147
3244.00,0.5151
3243.00,0.5154
3242.00,0.5156
3241.00,0.5158
3240.00,0.5160
3239.00,0.5163
3238.00,0.5165
3237.00,0.5168
3236.00,0.5170
3235.00,0.5172
3234.00,0.5174
3233.00,0.5175
3232.00,0.5175
3231.00,0.5175
3230.00,0.5174
3229.00,0.5172
3228.00,0.5171
3227.00,0.5171
3226.00,0.5170
3225.00,0.5169
3224.00,0.5168
3223.00,0.5167
3222.00,0.5165
3221.00,0.5163
3220.00,0.5162
3219.00,0.5161
3218.00,0.5159
3217.00,0.5157
3216.00,0.5155
3215.00,0.5152
3214.00,0.5151
3213.00,0.5150
3212.00,0.5148
3211.00,0.5146
3210.00,0.5143
3209.00,0.5140
3208.00,0.5138
3207.00,0.5136
3206.00,0.5135
3205.00,0.5133
3204.00,0.5132
3203.00,0.5130
3202.00,0.5127
3201.00,0.5123
3200.00,0.5120
3199.00,0.5116
3198.00,0.5113
3197.00,0.5110
3196.00,0.5107
3195.00,0.5104
3194.00,0.5100
3193.00,0.5096
3192.00,0.5092
3191.00,0.5087
3190.00,0.5082
3189.00,0.5077
3188.00,0.5072
3187.00,0.5066
3186.00,0.5060
3185.00,0.5055
3184.00,0.5049
3183.00,0.5044
3182.00,0.5038
3181.00,0.5033
3180.00,0.5028
3179.00,0.5023
3178.00,0.5016
3177.00,0.5010
3176.00,0.5003
3175.00,0.4996
3174.00,0.4990
3173.00,0.4983
3172.00,0.4977
3171.00,0.4969
3170.00,0.4962
3169.00,0.4955
3168.00,0.4948
3167.00,0.4941
3166.00,0.4933
3165.00,0.4925
3164.00,0.4917
3163.00,0.4909
3162.00,0.4902
3161.00,0.4894
3160.00,0.4887
3159.00,0.4880
3158.00,0.4872
3157.00,0.4863
3156.00,0.4856
3155.00,0.4848
3154.00,0.4841
3153.00,0.4833
3152.00,0.4826
3151.00,0.4819
3150.00,0.4812
3149.00,0.4805
3148.00,0.4799
3147.00,0.4792
3146.00,0.4785
3145.00,0.4779
3144.00,0.4774
3143.00,0.4770
3142.00,0.4766
3141.00,0.4762
3140.00,0.4759
3139.00,0.4754
3138.00,0.4750
3137.00,0.4746
3136.00,0.4742
3135.00,0.4738
3134.00,0.4735
3133.00,0.4732
3132.00,0.4729
3131.00,0.4727
3130.00,0.4725
3129.00,0.4724
3128.00,0.4723
3127.00,0.4722
3126.00,0.4721
3125.00,0.4721
3124.00,0.4721
3123.00,0.4723
3122.00,0.4724
3121.00,0.4726
3120.00,0.4728
3119.00,0.4730
3118.00,0.4733
3117.00,0.4736
3116.00,0.4740
3115.00,0.4743
3114.00,0.4747
3113.00,0.4752
3112.00,0.4757
3111.00,0.4763
3110.00,0.4771
3109.00,0.4779
3108.00,0.4788
3107.00,0.4796
3106.00,0.4805
3105.00,0.4814
3104.00,0.4822
3103.00,0.4831
3102.00,0.4839
3101.00,0.4848
3100.00,0.4857
3099.00,0.4867
3098.00,0.4877
3097.00,0.4888
3096.00,0.4900
3095.00,0.4913
3094.00,0.4927
3093.00,0.4944
3092.00,0.4962
3091.00,0.4982
3090.00,0.5004
3089.00,0.5028
3088.00,0.5053
3087.00,0.5079
3086.00,0.5106
3085.00,0.5134
3084.00,0.5163
3083.00,0.5193
3082.00,0.5225
3081.00,0.5259
3080.00,0.5294
3079.00,0.5332
3078.00,0.5371
3077.00,0.5412
3076.00,0.5455
3075.00,0.5498
3074.00,0.5543
3073.00,0.5587
3072.00,0.5632
3071.00,0.5676
3070.00,0.5719
3069.00,0.5762
3068.00,0.5806
3067.00,0.5848
3066.00,0.5890
3065.00,0.5931
3064.00,0.5970
3063.00,0.6007
3062.00,0.6040
3061.00,0.6070
3060.00,0.6098
3059.00,0.6123
3058.00,0.6149
3057.00,0.6177
3056.00,0.6206
3055.00,0.6237
3054.00,0.6270
3053.00,0.6305
3052.00,0.6342
3051.00,0.6382
3050.00,0.6423
3049.00,0.6466
3048.00,0.6510
3047.00,0.6556
3046.00,0.6603
3045.00,0.6651
3044.00,0.6698
3043.00,0.6744
3042.00,0.6790
3041.00,0.6836
3040.00,0.6882
3039.00,0.6928
3038.00,0.6976
3037.00,0.7026
3036.00,0.7080
3035.00,0.7139
3034.00,0.7203
3033.00,0.7271
3032.00,0.7344
3031.00,0.7421
3030.00,0.7503
3029.00,0.7589
3028.00,0.7679
3027.00,0.7772
3026.00,0.7868
3025.00,0.7968
3024.00,0.8070
3023.00,0.8176
3022.00,0.8285
3021.00,0.8398
3020.00,0.8512
3019.00,0.8629
3018.00,0.8746
3017.00,0.8865
3016.00,0.8985
3015.00,0.9106
3014.00,0.9229
3013.00,0.9356
3012.00,0.9486
3011.00,0.9619
3010.00,0.9757
3009.00,0.9900
3008.00,1.0048
3007.00,1.0204
3006.00,1.0367
3005.00,1.0536
3004.00,1.0710
3003.00,1.0887
3002.00,1.1069
3001.00,1.1258
3000.00,1.1455
2999.00,1.1665
2998.00,1.1892
2997.00,1.2138
2996.00,1.2407
2995.00,1.2706
2994.00,1.3040
2993.00,1.3412
2992.00,1.3825
2991.00,1.4284
2990.00,1.4795
2989.00,1.5367
2988.00,1.6008
2987.00,1.6727
2986.00,1.7529
2985.00,1.8418
2984.00,1.9398
2983.00,2.0476
2982.00,2.1663
2981.00,2.2978
2980.00,2.4433
2979.00,2.6037
2978.00,2.7762
2977.00,2.9502
2976.00,3.1092
2975.00,3.2431
2974.00,3.3609
2973.00,3.4797
2972.00,3.6018
2971.00,3.7228
2970.00,3.8288
2969.00,3.9029
2968.00,3.9525
2967.00,3.9502
2966.00,3.9618
2965.00,3.9810
2964.00,3.9021
2963.00,3.8320
2962.00,3.8602
2961.00,4.0677
2960.00,4.4692
2959.00,4.7868
2958.00,4.6139
2957.00,4.3481
2956.00,4.1108
2955.00,3.9623
2954.00,3.8711
2953.00,3.8324
2952.00,3.8533
2951.00,3.9455
2950.00,4.1176
2949.00,4.1720
2948.00,4.0662
2947.00,4.0216
2946.00,4.0808
2945.00,4.1416
2944.00,4.1540
2943.00,4.2074
2942.00,4.3129
2941.00,4.3150
2940.00,4.1881
2939.00,4.0271
2938.00,3.9143
2937.00,3.9044
2936.00,3.9014
2935.00,3.7885
2934.00,3.6926
2933.00,3.7059
2932.00,3.9123
2931.00,4.3576
2930.00,4.6792
2929.00,4.6636
2928.00,4.3872
2927.00,4.2567
2926.00,4.1351
2925.00,4.0667
2924.00,4.0342
2923.00,3.9386
2922.00,3.8996
2921.00,3.9771
2920.00,4.0867
2919.00,4.0813
2918.00,4.0307
2917.00,3.9982
2916.00,3.9635
2915.00,3.9341
2914.00,4.0274
2913.00,4.3050
2912.00,4.5187
2911.00,4.4868
2910.00,4.3085
2909.00,4.1532
2908.00,4.0690
2907.00,4.1153
2906.00,4.3033
2905.00,4.4328
2904.00,4.4535
2903.00,4.3140
2902.00,4.0719
2901.00,3.9178
2900.00,3.8990
2899.00,4.0150
2898.00,4.1672
2897.00,4.2337
2896.00,4.2933
2895.00,4.2944
2894.00,4.1974
2893.00,4.0868
2892.00,4.0570
2891.00,4.1236
2890.00,4.1679
2889.00,4.2045
2888.00,4.1204
2887.00,3.9393
2886.00,3.7971
2885.00,3.7271
2884.00,3.7106
2883.00,3.7291
2882.00,3.8374
2881.00,3.9981
2880.00,3.9743
2879.00,3.8594
2878.00,3.8301
2877.00,4.0017
2876.00,4.3638
2875.00,4.5633
2874.00,4.6303
2873.00,4.5055
2872.00,4.3226
2871.00,4.0218
2870.00,3.8358
2869.00,3.7669
2868.00,3.7412
2867.00,3.7473
2866.00,3.7586
2865.00,3.7722
2864.00,3.8051
2863.00,3.8860
2862.00,3.9987
2861.00,3.9841
2860.00,3.8224
2859.00,3.6730
2858.00,3.6213
2857.00,3.6651
2856.00,3.8396
2855.00,4.2467
2854.00,4.5160
2853.00,4.1844
2852.00,3.9436
2851.00,3.9274
2850.00,4.0047
2849.00,4.0891
2848.00,4.1569
2847.00,4.0715
2846.00,3.9423
2845.00,3.8619
2844.00,3.8467
2843.00,3.8690
2842.00,3.8999
2841.00,3.9006
2840.00,3.8555
2839.00,3.7493
2838.00,3.5325
2837.00,3.2572
2836.00,3.0022
2835.00,2.7883
2834.00,2.6054
2833.00,2.4418
2832.00,2.2931
2831.00,2.1583
2830.00,2.0369
2829.00,1.9280
2828.00,1.8307
2827.00,1.7440
2826.00,1.6663
2825.00,1.5960
2824.00,1.5322
2823.00,1.4742
2822.00,1.4212
2821.00,1.3723
2820.00,1.3271
2819.00,1.2852
2818.00,1.2467
2817.00,1.2112
2816.00,1.1783
2815.00,1.1477
2814.00,1.1188
2813.00,1.0913
2812.00,1.0653
2811.00,1.0407
2810.00,1.0174
2809.00,0.9955
2808.00,0.9746
2807.00,0.9548
2806.00,0.9360
2805.00,0.9180
2804.00,0.9011
2803.00,0.8851
2802.00,0.8700
2801.00,0.8556
2800.00,0.8418
2799.00,0.8286
2798.00,0.8160
2797.00,0.8040
2796.00,0.7925
2795.00,0.7813
2794.00,0.7704
2793.00,0.7597
2792.00,0.7494
2791.00,0.7394
2790.00,0.7296
2789.00,0.7200
2788.00,0.7106
2787.00,0.7014
2786.00,0.6925
2785.00,0.6838
2784.00,0.6753
2783.00,0.6670
2782.00,0.6591
2781.00,0.6514
2780.00,0.6441
2779.00,0.6372
2778.00,0.6306
2777.00,0.6243
2776.00,0.6182
2775.00,0.6125
2774.00,0.6071
2773.00,0.6020
2772.00,0.5973
2771.00,0.5929
2770.00,0.5889
2769.00,0.5853
2768.00,0.5821
2767.00,0.5792
2766.00,0.5766
2765.00,0.5744
2764.00,0.5724
2763.00,0.5706
2762.00,0.5691
2761.00,0.5678
2760.00,0.5666
2759.00,0.5654
2758.00,0.5643
2757.00,0.5632
2756.00,0.5621
2755.00,0.5610
2754.00,0.5601
2753.00,0.5594
2752.00,0.5588
2751.00,0.5585
2750.00,0.5583
2749.00,0.5583
2748.00,0.5585
2747.00,0.5590
2746.00,0.5597
2745.00,0.5607
2744.00,0.5620
2743.00,0.5636
2742.00,0.5656
2741.00,0.5680
2740.00,0.5708
2739.00,0.5742
2738.00,0.5780
2737.00,0.5824
2736.00,0.5872
2735.00,0.5923
2734.00,0.5976
2733.00,0.6029
2732.00,0.6077
2731.00,0.6118
2730.00,0.6149
2729.00,0.6169
2728.00,0.6178
2727.00,0.6177
2726.00,0.6168
2725.00,0.6153
2724.00,0.6134
2723.00,0.6111
2722.00,0.6084
2721.00,0.6054
2720.00,0.6021
2719.00,0.5985
2718.00,0.5946
2717.00,0.5903
2716.00,0.5859
2715.00,0.5813
2714.00,0.5767
2713.00,0.5722
2712.00,0.5680
2711.00,0.5641
2710.00,0.5607
2709.00,0.5577
2708.00,0.5551
2707.00,0.5529
2706.00,0.5511
2705.00,0.5496
2704.00,0.5485
2703.00,0.5476
2702.00,0.5470
2701.00,0.5466
2700.00,0.5466
2699.00,0.5467
2698.00,0.5469
2697.00,0.5473
2696.00,0.5478
2695.00,0.5484
2694.00,0.5490
2693.00,0.5498
2692.00,0.5507
2691.00,0.5516
2690.00,0.5524
2689.00,0.5532
2688.00,0.5540
2687.00,0.5547
2686.00,0.5553
2685.00,0.5558
2684.00,0.5562
2683.00,0.5566
2682.00,0.5570
2681.00,0.5573
2680.00,0.5576
2679.00,0.5579
2678.00,0.5583
2677.00,0.5587
2676.00,0.5591
2675.00,0.5595
2674.00,0.5598
2673.00,0.5601
2672.00,0.5604
2671.00,0.5605
2670.00,0.5604
2669.00,0.5600
2668.00,0.5592
2667.00,0.5582
2666.00,0.5569
2665.00,0.5554
2664.00,0.5537
2663.00,0.5519
2662.00,0.5500
2661.00,0.5481
2660.00,0.5461
2659.00,0.5441
2658.00,0.5420
2657.00,0.5399
2656.00,0.5378
2655.00,0.5358
2654.00,0.5338
2653.00,0.5319
2652.00,0.5302
2651.00,0.5285
2650.00,0.5269
2649.00,0.5254
2648.00,0.5239
2647.00,0.5225
2646.00,0.5212
2645.00,0.5199
2644.00,0.5187
2643.00,0.5176
2642.00,0.5165
2641.00,0.5155
2640.00,0.5146
2639.00,0.5137
2638.00,0.5129
2637.00,0.5121
2636.00,0.5113
2635.00,0.5106
2634.00,0.5098
2633.00,0.5091
2632.00,0.5084
2631.00,0.5076
2630.00,0.5068
2629.00,0.5060
2628.00,0.5052
2627.00,0.5044
2626.00,0.5035
2625.00,0.5026
2624.00,0.5017
2623.00,0.5008
2622.00,0.4999
2621.00,0.4989
2620.00,0.4979
2619.00,0.4969
2618.00,0.4959
2617.00,0.4950
2616.00,0.4940
2615.00,0.4931
2614.00,0.4922
2613.00,0.4912
2612.00,0.4902
2611.00,0.4892
2610.00,0.4882
2609.00,0.4873
2608.00,0.4863
2607.00,0.4853
2606.00,0.4844
2605.00,0.4835
2604.00,0.4826
2603.00,0.4817
2602.00,0.4807
2601.00,0.4797
2600.00,0.4785
2599.00,0.4773
2598.00,0.4761
2597.00,0.4748
2596.00,0.4735
2595.00,0.4722
2594.00,0.4707
2593.00,0.4693
2592.00,0.4678
2591.00,0.4662
2590.00,0.4646
2589.00,0.4630
2588.00,0.4614
2587.00,0.4598
2586.00,0.4581
2585.00,0.4564
2584.00,0.4547
2583.00,0.4528
2582.00,0.4510
2581.00,0.4491
2580.00,0.4472
2579.00,0.4454
2578.00,0.4435
2577.00,0.4418
2576.00,0.4400
2575.00,0.4384
2574.00,0.4368
2573.00,0.4353
2572.00,0.4339
2571.00,0.4325
2570.00,0.4311
2569.00,0.4298
2568.00,0.4284
2567.00,0.4271
2566.00,0.4257
2565.00,0.4244
2564.00,0.4232
2563.00,0.4220
2562.00,0.4207
2561.00,0.4195
2560.00,0.4182
2559.00,0.4170
2558.00,0.4158
2557.00,0.4147
2556.00,0.4136
2555.00,0.4124
2554.00,0.4112
2553.00,0.4099
2552.00,0.4087
2551.00,0.4075
2550.00,0.4064
2549.00,0.4054
2548.00,0.4044
2547.00,0.4033
2546.00,0.4023
2545.00,0.4014
2544.00,0.4005
2543.00,0.3996
2542.00,0.3988
2541.00,0.3979
2540.00,0.3970
2539.00,0.3963
2538.00,0.3955
2537.00,0.3949
2536.00,0.3944
2535.00,0.3939
2534.00,0.3933
2533.00,0.3927
2532.00,0.3921
2531.00,0.3915
2530.00,0.3908
2529.00,0.3901
2528.00,0.3894
2527.00,0.3886
2526.00,0.3877
2525.00,0.3868
2524.00,0.3858
2523.00,0.3849
2522.00,0.3840
2521.00,0.3831
2520.00,0.3822
2519.00,0.3813
2518.00,0.3803
2517.00,0.3793
2516.00,0.3784
2515.00,0.3774
2514.00,0.3765
2513.00,0.3756
2512.00,0.3748
2511.00,0.3739
2510.00,0.3731
2509.00,0.3724
2508.00,0.3717
2507.00,0.3710
2506.00,0.3704
2505.00,0.3699
2504.00,0.3694
2503.00,0.3689
2502.00,0.3685
2501.00,0.3680
2500.00,0.3677
2499.00,0.3673
2498.00,0.3670
2497.00,0.3667
2496.00,0.3664
2495.00,0.3661
2494.00,0.3659
2493.00,0.3656
2492.00,0.3653
2491.00,0.3649
2490.00,0.3646
2489.00,0.3642
2488.00,0.3639
2487.00,0.3635
2486.00,0.3632
2485.00,0.3628
2484.00,0.3625
2483.00,0.3621
2482.00,0.3616
2481.00,0.3612
2480.00,0.3608
2479.00,0.3603
2478.00,0.3598
2477.00,0.3593
2476.00,0.3589
2475.00,0.3585
2474.00,0.3581
2473.00,0.3577
2472.00,0.3573
2471.00,0.3570
2470.00,0.3567
2469.00,0.3564
2468.00,0.3562
2467.00,0.3560
2466.00,0.3558
2465.00,0.3556
2464.00,0.3554
2463.00,0.3553
2462.00,0.3551
2461.00,0.3549
2460.00,0.3548
2459.00,0.3548
2458.00,0.3547
2457.00,0.3546
2456.00,0.3545
2455.00,0.3545
2454.00,0.3544
2453.00,0.3543
2452.00,0.3543
2451.00,0.3542
2450.00,0.3542
2449.00,0.3541
2448.00,0.3540
2447.00,0.3538
2446.00,0.3537
2445.00,0.3536
2444.00,0.3535
2443.00,0.3534
2442.00,0.3533
2441.00,0.3533
2440.00,0.3532
2439.00,0.3532
2438.00,0.3531
2437.00,0.3530
2436.00,0.3530
2435.00,0.3530
2434.00,0.3529
2433.00,0.3530
2432.00,0.3530
2431.00,0.3532
2430.00,0.3533
2429.00,0.3534
2428.00,0.3535
2427.00,0.3536
2426.00,0.3536
2425.00,0.3538
2424.00,0.3540
2423.00,0.3542
2422.00,0.3545
2421.00,0.3546
2420.00,0.3548
2419.00,0.3548
2418.00,0.3549
2417.00,0.3549
2416.00,0.3550
2415.00,0.3550
2414.00,0.3551
2413.00,0.3552
2412.00,0.3552
2411.00,0.3552
2410.00,0.3552
2409.00,0.3551
2408.00,0.3550
2407.00,0.3548
2406.00,0.3546
2405.00,0.3544
2404.00,0.3543
2403.00,0.3541
2402.00,0.3539
2401.00,0.3537
2400.00,0.3536
2399.00,0.3534
2398.00,0.3532
2397.00,0.3530
2396.00,0.3529
2395.00,0.3528
2394.00,0.3527
2393.00,0.3526
2392.00,0.3525
2391.00,0.3523
2390.00,0.3523
2389.00,0.3522
2388.00,0.3523
2387.00,0.3522
2386.00,0.3522
2385.00,0.3522
2384.00,0.3522
2383.00,0.3523
2382.00,0.3523
2381.00,0.3523
2380.00,0.3524
2379.00,0.3524
2378.00,0.3524
2377.00,0.3524
2376.00,0.3524
2375.00,0.3523
2374.00,0.3522
2373.00,0.3521
2372.00,0.3520
2371.00,0.3518
2370.00,0.3516
2369.00,0.3515
2368.00,0.3515
2367.00,0.3514
2366.00,0.3514
2365.00,0.3515
2364.00,0.3515
2363.00,0.3514
2362.00,0.3514
2361.00,0.3514
2360.00,0.3514
2359.00,0.3513
2358.00,0.3511
2357.00,0.3511
2356.00,0.3510
2355.00,0.3510
2354.00,0.3509
2353.00,0.3508
2352.00,0.3507
2351.00,0.3506
2350.00,0.3505
2349.00,0.3504
2348.00,0.3502
2347.00,0.3502
2346.00,0.3501
2345.00,0.3501
2344.00,0.3499
2343.00,0.3497
2342.00,0.3496
2341.00,0.3496
2340.00,0.3496
2339.00,0.3495
2338.00,0.3495
2337.00,0.3494
2336.00,0.3493
2335.00,0.3491
2334.00,0.3489
2333.00,0.3488
2332.00,0.3486
2331.00,0.3484
2330.00,0.3481
2329.00,0.3478
2328.00,0.3476
2327.00,0.3473
2326.00,0.3470
2325.00,0.3468
2324.00,0.3465
2323.00,0.3463
2322.00,0.3460
2321.00,0.3458
2320.00,0.3456
2319.00,0.3453
2318.00,0.3451
2317.00,0.3449
2316.00,0.3447
2315.00,0.3446
2314.00,0.3444
2313.00,0.3441
2312.00,0.3439
2311.00,0.3435
2310.00,0.3432
2309.00,0.3428
2308.00,0.3425
2307.00,0.3422
2306.00,0.3419
2305.00,0.3417
2304.00,0.3414
2303.00,0.3411
2302.00,0.3409
2301.00,0.3406
2300.00,0.3404
2299.00,0.3402
2298.00,0.3399
2297.00,0.3396
2296.00,0.3393
2295.00,0.3390
2294.00,0.3387
2293.00,0.3384
2292.00,0.3380
2291.00,0.3377
2290.00,0.3374
2289.00,0.3371
2288.00,0.3368
2287.00,0.3365
2286.00,0.3363
2285.00,0.3360
2284.00,0.3358
2283.00,0.3355
2282.00,0.3351
2281.00,0.3348
2280.00,0.3345
2279.00,0.3342
2278.00,0.3338
2277.00,0.3335
2276.00,0.3332
2275.00,0.3328
2274.00,0.3325
2273.00,0.3323
2272.00,0.3322
2271.00,0.3320
2270.00,0.3318
2269.00,0.3316
2268.00,0.3314
2267.00,0.3313
2266.00,0.3311
2265.00,0.3310
2264.00,0.3309
2263.00,0.3307
2262.00,0.3305
2261.00,0.3303
2260.00,0.3301
2259.00,0.3299
2258.00,0.3297
2257.00,0.3295
2256.00,0.3293
2255.00,0.3290
2254.00,0.3287
2253.00,0.3284
2252.00,0.3282
2251.00,0.3280
2250.00,0.3277
2249.00,0.3275
2248.00,0.3272
2247.00,0.3270
2246.00,0.3268
2245.00,0.3266
2244.00,0.3264
2243.00,0.3261
2242.00,0.3259
2241.00,0.3256
2240.00,0.3254
2239.00,0.3251
2238.00,0.3249
2237.00,0.3247
2236.00,0.3245
2235.00,0.3244
2234.00,0.3243
2233.00,0.3243
2232.00,0.3242
2231.00,0.3240
2230.00,0.3239
2229.00,0.3238
2228.00,0.3238
2227.00,0.3238
2226.00,0.3238
2225.00,0.3237
2224.00,0.3237
2223.00,0.3237
2222.00,0.3236
2221.00,0.3236
2220.00,0.3236
2219.00,0.3236
2218.00,0.3235
2217.00,0.3234
2216.00,0.3233
2215.00,0.3232
2214.00,0.3232
2213.00,0.3231
2212.00,0.3231
2211.00,0.3230
2210.00,0.3229
2209.00,0.3228
2208.00,0.3227
2207.00,0.3226
2206.00,0.3226
2205.00,0.3225
2204.00,0.3224
2203.00,0.3222
2202.00,0.3221
2201.00,0.3220
2200.00,0.3219
2199.00,0.3218
2198.00,0.3218
2197.00,0.3218
2196.00,0.3219
2195.00,0.3219
2194.00,0.3220
2193.00,0.3221
2192.00,0.3221
2191.00,0.3221
2190.00,0.3222
2189.00,0.3222
2188.00,0.3222
2187.00,0.3223
2186.00,0.3224
2185.00,0.3225
2184.00,0.3225
2183.00,0.3224
2182.00,0.3223
2181.00,0.3223
2180.00,0.3223
2179.00,0.3222
2178.00,0.3221
2177.00,0.3220
2176.00,0.3219
2175.00,0.3217
2174.00,0.3215
2173.00,0.3214
2172.00,0.3212
2171.00,0.3210
2170.00,0.3208
2169.00,0.3206
2168.00,0.3204
2167.00,0.3202
2166.00,0.3200
2165.00,0.3198
2164.00,0.3196
2163.00,0.3194
2162.00,0.3192
2161.00,0.3190
2160.00,0.3188
2159.00,0.3187
2158.00,0.3185
2157.00,0.3184
2156.00,0.3183
2155.00,0.3181
2154.00,0.3180
2153.00,0.3179
2152.00,0.3179
2151.00,0.3177
2150.00,0.3176
2149.00,0.3173
2148.00,0.3171
2147.00,0.3168
2146.00,0.3165
2145.00,0.3163
2144.00,0.3160
2143.00,0.3157
2142.00,0.3154
2141.00,0.3150
2140.00,0.3146
2139.00,0.3142
2138.00,0.3139
2137.00,0.3135
2136.00,0.3132
2135.00,0.3129
2134.00,0.3126
2133.00,0.3123
2132.00,0.3121
2131.00,0.3118
2130.00,0.3115
2129.00,0.3112
2128.00,0.3110
2127.00,0.3108
2126.00,0.3105
2125.00,0.3103
2124.00,0.3102
2123.00,0.3100
2122.00,0.3099
2121.00,0.3098
2120.00,0.3097
2119.00,0.3097
2118.00,0.3096
2117.00,0.3095
2116.00,0.3094
2115.00,0.3094
2114.00,0.3094
2113.00,0.3094
2112.00,0.3094
2111.00,0.3094
2110.00,0.3093
2109.00,0.3093
2108.00,0.3093
2107.00,0.3093
2106.00,0.3093
2105.00,0.3093
2104.00,0.3092
2103.00,0.3091
2102.00,0.3090
2101.00,0.3090
2100.00,0.3089
2099.00,0.3088
2098.00,0.3087
2097.00,0.3086
2096.00,0.3085
2095.00,0.3084
2094.00,0.3082
2093.00,0.3081
2092.00,0.3079
2091.00,0.3078
2090.00,0.3077
2089.00,0.3077
2088.00,0.3077
2087.00,0.3077
2086.00,0.3076
2085.00,0.3075
2084.00,0.3074
2083.00,0.3074
2082.00,0.3074
2081.00,0.3075
2080.00,0.3076
2079.00,0.3077
2078.00,0.3077
2077.00,0.3077
2076.00,0.3077
2075.00,0.3078
2074.00,0.3078
2073.00,0.3079
2072.00,0.3081
2071.00,0.3082
2070.00,0.3084
2069.00,0.3085
2068.00,0.3086
2067.00,0.3087
2066.00,0.3087
2065.00,0.3087
2064.00,0.3089
2063.00,0.3090
2062.00,0.3092
2061.00,0.3093
2060.00,0.3095
2059.00,0.3095
2058.00,0.3096
2057.00,0.3096
2056.00,0.3097
2055.00,0.3098
2054.00,0.3098
2053.00,0.3099
2052.00,0.3099
2051.00,0.3100
2050.00,0.3101
2049.00,0.3103
2048.00,0.3104
2047.00,0.3106
2046.00,0.3107
2045.00,0.3109
2044.00,0.3110
2043.00,0.3111
2042.00,0.3112
2041.00,0.3113
2040.00,0.3115
2039.00,0.3117
2038.00,0.3118
2037.00,0.3120
2036.00,0.3121
2035.00,0.3121
2034.00,0.3122
2033.00,0.3123
2032.00,0.3125
2031.00,0.3126
2030.00,0.3126
2029.00,0.3126
2028.00,0.3126
2027.00,0.3124
2026.00,0.3123
2025.00,0.3121
2024.00,0.3119
2023.00,0.3117
2022.00,0.3114
2021.00,0.3110
2020.00,0.3105
2019.00,0.3099
2018.00,0.3092
2017.00,0.3087
2016.00,0.3082
2015.00,0.3078
2014.00,0.3073
2013.00,0.3068
2012.00,0.3062
2011.00,0.3057
2010.00,0.3052
2009.00,0.3048
2008.00,0.3045
2007.00,0.3042
2006.00,0.3039
2005.00,0.3036
2004.00,0.3035
2003.00,0.3033
2002.00,0.3031
2001.00,0.3030
2000.00,0.3029
1999.00,0.3028
1998.00,0.3027
1997.00,0.3026
1996.00,0.3026
1995.00,0.3024
1994.00,0.3021
1993.00,0.3019
1992.00,0.3018
1991.00,0.3017
1990.00,0.3018
1989.00,0.3018
1988.00,0.3018
1987.00,0.3019
1986.00,0.3019
1985.00,0.3019
1984.00,0.3018
1983.00,0.3018
1982.00,0.3017
1981.00,0.3016
1980.00,0.3016
1979.00,0.3016
1978.00,0.3015
1977.00,0.3015
1976.00,0.3015
1975.00,0.3015
1974.00,0.3014
1973.00,0.3014
1972.00,0.3014
1971.00,0.3013
1970.00,0.3012
1969.00,0.3011
1968.00,0.3010
1967.00,0.3009
1966.00,0.3010
1965.00,0.3012
1964.00,0.3014
1963.00,0.3015
1962.00,0.3016
1961.00,0.3017
1960.00,0.3019
1959.00,0.3020
1958.00,0.3021
1957.00,0.3022
1956.00,0.3023
1955.00,0.3024
1954.00,0.3026
1953.00,0.3028
1952.00,0.3030
1951.00,0.3031
1950.00,0.3031
1949.00,0.3031
1948.00,0.3032
1947.00,0.3033
1946.00,0.3035
1945.00,0.3036
1944.00,0.3038
1943.00,0.3042
1942.00,0.3047
1941.00,0.3056
1940.00,0.3063
1939.00,0.3069
1938.00,0.3071
1937.00,0.3072
1936.00,0.3071
1935.00,0.3069
1934.00,0.3067
1933.00,0.3065
1932.00,0.3065
1931.00,0.3065
1930.00,0.3065
1929.00,0.3065
1928.00,0.3066
1927.00,0.3066
1926.00,0.3066
1925.00,0.3066
1924.00,0.3065
1923.00,0.3066
1922.00,0.3070
1921.00,0.3076
1920.00,0.3082
1919.00,0.3087
1918.00,0.3091
1917.00,0.3095
1916.00,0.3099
1915.00,0.3101
1914.00,0.3102
1913.00,0.3103
1912.00,0.3102
1911.00,0.3101
1910.00,0.3100
1909.00,0.3100
1908.00,0.3102
1907.00,0.3104
1906.00,0.3106
1905.00,0.3108
1904.00,0.3109
1903.00,0.3110
1902.00,0.3110
1901.00,0.3111
1900.00,0.3113
1899.00,0.3114
1898.00,0.3115
1897.00,0.3115
1896.00,0.3115
1895.00,0.3116
1894.00,0.3117
1893.00,0.3120
1892.00,0.3121
1891.00,0.3121
1890.00,0.3120
1889.00,0.3121
1888.00,0.3123
1887.00,0.3125
1886.00,0.3126
1885.00,0.3126
1884.00,0.3127
1883.00,0.3127
1882.00,0.3127
1881.00,0.3127
1880.00,0.3126
1879.00,0.3125
1878.00,0.3123
1877.00,0.3122
1876.00,0.3121
1875.00,0.3119
1874.00,0.3118
1873.00,0.3116
1872.00,0.3113
1871.00,0.3109
1870.00,0.3104
1869.00,0.3100
1868.00,0.3100
1867.00,0.3101
1866.00,0.3102
1865.00,0.3103
1864.00,0.3103
1863.00,0.3101
1862.00,0.3098
1861.00,0.3095
1860.00,0.3093
1859.00,0.3091
1858.00,0.3089
1857.00,0.3088
1856.00,0.3086
1855.00,0.3084
1854.00,0.3081
1853.00,0.3079
1852.00,0.3077
1851.00,0.3075
1850.00,0.3071
1849.00,0.3067
1848.00,0.3064
1847.00,0.3062
1846.00,0.3061
1845.00,0.3060
1844.00,0.3059
1843.00,0.3059
1842.00,0.3060
1841.00,0.3060
1840.00,0.3059
1839.00,0.3057
1838.00,0.3055
1837.00,0.3053
1836.00,0.3053
1835.00,0.3054
1834.00,0.3055
1833.00,0.3055
1832.00,0.3055
1831.00,0.3053
1830.00,0.3052
1829.00,0.3052
1828.00,0.3054
1827.00,0.3053
1826.00,0.3051
1825.00,0.3050
1824.00,0.3052
1823.00,0.3054
1822.00,0.3056
1821.00,0.3057
1820.00,0.3057
1819.00,0.3056
1818.00,0.3055
1817.00,0.3055
1816.00,0.3057
1815.00,0.3059
1814.00,0.3059
1813.00,0.3057
1812.00,0.3057
1811.00,0.3057
1810.00,0.3058
1809.00,0.3061
1808.00,0.3064
1807.00,0.3067
1806.00,0.3070
1805.00,0.3073
1804.00,0.3075
1803.00,0.3076
1802.00,0.3078
1801.00,0.3084
1800.00,0.3093
1799.00,0.3101
1798.00,0.3106
1797.00,0.3110
1796.00,0.3114
1795.00,0.3119
1794.00,0.3123
1793.00,0.3127
1792.00,0.3131
1791.00,0.3136
1790.00,0.3143
1789.00,0.3149
1788.00,0.3155
1787.00,0.3157
1786.00,0.3158
1785.00,0.3161
1784.00,0.3166
1783.00,0.3170
1782.00,0.3173
1781.00,0.3175
1780.00,0.3178
1779.00,0.3183
1778.00,0.3188
1777.00,0.3193
1776.00,0.3198
1775.00,0.3203
1774.00,0.3207
1773.00,0.3213
1772.00,0.3221
1771.00,0.3229
1770.00,0.3235
1769.00,0.3240
1768.00,0.3248
1767.00,0.3258
1766.00,0.3270
1765.00,0.3282
1764.00,0.3293
1763.00,0.3304
1762.00,0.3317
1761.00,0.3334
1760.00,0.3352
1759.00,0.3371
1758.00,0.3391
1757.00,0.3417
1756.00,0.3447
1755.00,0.3476
1754.00,0.3503
1753.00,0.3529
1752.00,0.3557
1751.00,0.3588
1750.00,0.3619
1749.00,0.3652
1748.00,0.3682
1747.00,0.3708
1746.00,0.3728
1745.00,0.3745
1744.00,0.3758
1743.00,0.3770
1742.00,0.3781
1741.00,0.3789
1740.00,0.3792
1739.00,0.3791
1738.00,0.3786
1737.00,0.3781
1736.00,0.3772
1735.00,0.3757
1734.00,0.3740
1733.00,0.3728
1732.00,0.3722
1731.00,0.3717
1730.00,0.3713
1729.00,0.3714
1728.00,0.3718
1727.00,0.3723
1726.00,0.3730
1725.00,0.3741
1724.00,0.3756
1723.00,0.3777
1722.00,0.3803
1721.00,0.3835
1720.00,0.3871
1719.00,0.3914
1718.00,0.3972
1717.00,0.4050
1716.00,0.4142
1715.00,0.4244
1714.00,0.4353
1713.00,0.4464
1712.00,0.4571
1711.00,0.4672
1710.00,0.4763
1709.00,0.4834
1708.00,0.4877
1707.00,0.4888
1706.00,0.4870
1705.00,0.4824
1704.00,0.4765
1703.00,0.4701
1702.00,0.4628
1701.00,0.4525
1700.00,0.4399
1699.00,0.4288
1698.00,0.4204
1697.00,0.4131
1696.00,0.4059
1695.00,0.3995
1694.00,0.3945
1693.00,0.3907
1692.00,0.3873
1691.00,0.3837
1690.00,0.3804
1689.00,0.3777
1688.00,0.3758
1687.00,0.3742
1686.00,0.3727
1685.00,0.3709
1684.00,0.3692
1683.00,0.3680
1682.00,0.3671
1681.00,0.3662
1680.00,0.3655
1679.00,0.3651
1678.00,0.3650
1677.00,0.3650
1676.00,0.3649
1675.00,0.3645
1674.00,0.3642
1673.00,0.3639
1672.00,0.3636
1671.00,0.3633
1670.00,0.3631
1669.00,0.3632
1668.00,0.3634
1667.00,0.3634
1666.00,0.3635
1665.00,0.3636
1664.00,0.3638
1663.00,0.3638
1662.00,0.3638
1661.00,0.3640
1660.00,0.3642
1659.00,0.3643
1658.00,0.3644
1657.00,0.3647
1656.00,0.3651
1655.00,0.3655
1654.00,0.3659
1653.00,0.3672
1652.00,0.3686
1651.00,0.3693
1650.00,0.3696
1649.00,0.3699
1648.00,0.3704
1647.00,0.3714
1646.00,0.3729
1645.00,0.3747
1644.00,0.3762
1643.00,0.3774
1642.00,0.3786
1641.00,0.3801
1640.00,0.3819
1639.00,0.3836
1638.00,0.3853
1637.00,0.3874
1636.00,0.3902
1635.00,0.3932
1634.00,0.3957
1633.00,0.3978
1632.00,0.3997
1631.00,0.4016
1630.00,0.4039
1629.00,0.4066
1628.00,0.4096
1627.00,0.4125
1626.00,0.4154
1625.00,0.4188
1624.00,0.4227
1623.00,0.4272
1622.00,0.4322
1621.00,0.4376
1620.00,0.4434
1619.00,0.4498
1618.00,0.4576
1617.00,0.4678
1616.00,0.4796
1615.00,0.4908
1614.00,0.5008
1613.00,0.5106
1612.00,0.5208
1611.00,0.5312
1610.00,0.5413
1609.00,0.5514
1608.00,0.5611
1607.00,0.5699
1606.00,0.5772
1605.00,0.5839
1604.00,0.5903
1603.00,0.5961
1602.00,0.6017
1601.00,0.6078
1600.00,0.6148
1599.00,0.6224
1598.00,0.6310
1597.00,0.6419
1596.00,0.6562
1595.00,0.6743
1594.00,0.6966
1593.00,0.7251
1592.00,0.7615
1591.00,0.8070
1590.00,0.8637
1589.00,0.9356
1588.00,1.0276
1587.00,1.1431
1586.00,1.2848
1585.00,1.4587
1584.00,1.6714
1583.00,1.9110
1582.00,2.1159
1581.00,2.2021
1580.00,2.1521
1579.00,1.9930
1578.00,1.7716
1577.00,1.5455
1576.00,1.3532
1575.00,1.2101
1574.00,1.1114
1573.00,1.0427
1572.00,0.9916
1571.00,0.9511
1570.00,0.9210
1569.00,0.9058
1568.00,0.9073
1567.00,0.9243
1566.00,0.9572
1565.00,1.0090
1564.00,1.0775
1563.00,1.1522
1562.00,1.2196
1561.00,1.2680
1560.00,1.2703
1559.00,1.1952
1558.00,1.0857
1557.00,0.9940
1556.00,0.9196
1555.00,0.8507
1554.00,0.7877
1553.00,0.7367
1552.00,0.6980
1551.00,0.6670
1550.00,0.6408
1549.00,0.6197
1548.00,0.6038
1547.00,0.5912
1546.00,0.5799
1545.00,0.5699
1544.00,0.5620
1543.00,0.5558
1542.00,0.5504
1541.00,0.5451
1540.00,0.5399
1539.00,0.5352
1538.00,0.5312
1537.00,0.5280
1536.00,0.5253
1535.00,0.5223
1534.00,0.5191
1533.00,0.5168
1532.00,0.5160
1531.00,0.5162
1530.00,0.5168
1529.00,0.5177
1528.00,0.5186
1527.00,0.5189
1526.00,0.5188
1525.00,0.5188
1524.00,0.5190
1523.00,0.5191
1522.00,0.5196
1521.00,0.5214
1520.00,0.5246
1519.00,0.5280
1518.00,0.5314
1517.00,0.5352
1516.00,0.5390
1515.00,0.5417
1514.00,0.5431
1513.00,0.5439
1512.00,0.5444
1511.00,0.5451
1510.00,0.5463
1509.00,0.5491
1508.00,0.5546
1507.00,0.5644
1506.00,0.5779
1505.00,0.5910
1504.00,0.6014
1503.00,0.6097
1502.00,0.6173
1501.00,0.6250
1500.00,0.6326
1499.00,0.6395
1498.00,0.6466
1497.00,0.6555
1496.00,0.6662
1495.00,0.6772
1494.00,0.6879
1493.00,0.6991
1492.00,0.7114
1491.00,0.7249
1490.00,0.7402
1489.00,0.7581
1488.00,0.7779
1487.00,0.7989
1486.00,0.8224
1485.00,0.8495
1484.00,0.8807
1483.00,0.9165
1482.00,0.9590
1481.00,1.0094
1480.00,1.0665
1479.00,1.1288
1478.00,1.1994
1477.00,1.2835
1476.00,1.3822
1475.00,1.4952
1474.00,1.6318
1473.00,1.8115
1472.00,2.0448
1471.00,2.3165
1470.00,2.6110
1469.00,2.9539
1468.00,3.3723
1467.00,3.8228
1466.00,4.4693
1465.00,4.0873
1464.00,3.9192
1463.00,4.0793
1462.00,3.9706
1461.00,4.1425
1460.00,4.3235
1459.00,3.8711
1458.00,3.6350
1457.00,3.6369
1456.00,3.7877
1455.00,3.8468
1454.00,3.8755
1453.00,3.9619
1452.00,3.9610
1451.00,4.0247
1450.00,3.7893
1449.00,3.6189
1448.00,3.4123
1447.00,3.1627
1446.00,2.9985
1445.00,2.8712
1444.00,2.7195
1443.00,2.5536
1442.00,2.4099
1441.00,2.2881
1440.00,2.1716
1439.00,2.0537
1438.00,1.9343
1437.00,1.8123
1436.00,1.6939
1435.00,1.5889
1434.00,1.4972
1433.00,1.4109
1432.00,1.3255
1431.00,1.2434
1430.00,1.1695
1429.00,1.1063
1428.00,1.0544
1427.00,1.0132
1426.00,0.9796
1425.00,0.9513
1424.00,0.9277
1423.00,0.9098
1422.00,0.8964
1421.00,0.8850
1420.00,0.8737
1419.00,0.8630
1418.00,0.8541
1417.00,0.8470
1416.00,0.8414
1415.00,0.8372
1414.00,0.8339
1413.00,0.8314
1412.00,0.8295
1411.00,0.8283
1410.00,0.8269
1409.00,0.8241
1408.00,0.8192
1407.00,0.8119
1406.00,0.8017
1405.00,0.7889
1404.00,0.7752
1403.00,0.7627
1402.00,0.7516
1401.00,0.7413
1400.00,0.7320
1399.00,0.7246
1398.00,0.7197
1397.00,0.7173
1396.00,0.7178
1395.00,0.7221
1394.00,0.7307
1393.00,0.7439
1392.00,0.7629
1391.00,0.7898
1390.00,0.8270
1389.00,0.8778
1388.00,0.9462
1387.00,1.0337
1386.00,1.1351
1385.00,1.2422
1384.00,1.3524
1383.00,1.4689
1382.00,1.5959
1381.00,1.7368
1380.00,1.8948
1379.00,2.0609
1378.00,2.1974
1377.00,2.2505
1376.00,2.1999
1375.00,2.0698
1374.00,1.9046
1373.00,1.7458
1372.00,1.6133
1371.00,1.5094
1370.00,1.4326
1369.00,1.3812
1368.00,1.3505
1367.00,1.3290
1366.00,1.3009
1365.00,1.2550
1364.00,1.1911
1363.00,1.1194
1362.00,1.0528
1361.00,0.9988
1360.00,0.9580
1359.00,0.9280
1358.00,0.9059
1357.00,0.8900
1356.00,0.8791
1355.00,0.8723
1354.00,0.8685
1353.00,0.8665
1352.00,0.8649
1351.00,0.8630
1350.00,0.8603
1349.00,0.8570
1348.00,0.8536
1347.00,0.8506
1346.00,0.8481
1345.00,0.8461
1344.00,0.8442
1343.00,0.8422
1342.00,0.8390
1341.00,0.8339
1340.00,0.8265
1339.00,0.8171
1338.00,0.8061
1337.00,0.7937
1336.00,0.7802
1335.00,0.7662
1334.00,0.7525
1333.00,0.7395
1332.00,0.7279
1331.00,0.7181
1330.00,0.7103
1329.00,0.7042
1328.00,0.6997
1327.00,0.6967
1326.00,0.6949
1325.00,0.6942
1324.00,0.6942
1323.00,0.6947
1322.00,0.6952
1321.00,0.6956
1320.00,0.6960
1319.00,0.6969
1318.00,0.6983
1317.00,0.7003
1316.00,0.7026
1315.00,0.7053
1314.00,0.7085
1313.00,0.7124
1312.00,0.7166
1311.00,0.7209
1310.00,0.7246
1309.00,0.7277
1308.00,0.7302
1307.00,0.7320
1306.00,0.7329
1305.00,0.7326
1304.00,0.7308
1303.00,0.7278
1302.00,0.7237
1301.00,0.7188
1300.00,0.7135
1299.00,0.7079
1298.00,0.7022
1297.00,0.6964
1296.00,0.6909
1295.00,0.6857
1294.00,0.6810
1293.00,0.6766
1292.00,0.6724
1291.00,0.6685
1290.00,0.6649
1289.00,0.6614
1288.00,0.6581
1287.00,0.6547
1286.00,0.6513
1285.00,0.6477
1284.00,0.6439
1283.00,0.6400
1282.00,0.6365
1281.00,0.6336
1280.00,0.6311
1279.00,0.6290
1278.00,0.6270
1277.00,0.6247
1276.00,0.6223
1275.00,0.6200
1274.00,0.6181
1273.00,0.6166
1272.00,0.6154
1271.00,0.6146
1270.00,0.6141
1269.00,0.6135
1268.00,0.6122
1267.00,0.6097
1266.00,0.6061
1265.00,0.6016
1264.00,0.5972
1263.00,0.5934
1262.00,0.5906
1261.00,0.5884
1260.00,0.5866
1259.00,0.5850
1258.00,0.5835
1257.00,0.5817
1256.00,0.5798
1255.00,0.5779
1254.00,0.5762
1253.00,0.5748
1252.00,0.5735
1251.00,0.5723
1250.00,0.5710
1249.00,0.5696
1248.00,0.5678
1247.00,0.5659
1246.00,0.5638
1245.00,0.5614
1244.00,0.5587
1243.00,0.5557
1242.00,0.5526
1241.00,0.5494
1240.00,0.5462
1239.00,0.5434
1238.00,0.5410
1237.00,0.5390
1236.00,0.5374
1235.00,0.5363
1234.00,0.5357
1233.00,0.5354
1232.00,0.5355
1231.00,0.5360
1230.00,0.5365
1229.00,0.5366
1228.00,0.5356
1227.00,0.5334
1226.00,0.5304
1225.00,0.5270
1224.00,0.5235
1223.00,0.5206
1222.00,0.5182
1221.00,0.5164
1220.00,0.5151
1219.00,0.5144
1218.00,0.5143
1217.00,0.5147
1216.00,0.5156
1215.00,0.5166
1214.00,0.5176
1213.00,0.5180
1212.00,0.5178
1211.00,0.5172
1210.00,0.5164
1209.00,0.5152
1208.00,0.5138
1207.00,0.5122
1206.00,0.5105
1205.00,0.5089
1204.00,0.5074
1203.00,0.5063
1202.00,0.5054
1201.00,0.5047
1200.00,0.5041
1199.00,0.5038
1198.00,0.5036
1197.00,0.5032
1196.00,0.5025
1195.00,0.5016
1194.00,0.5008
1193.00,0.5001
1192.00,0.4995
1191.00,0.4990
1190.00,0.4985
1189.00,0.4979
1188.00,0.4973
1187.00,0.4967
1186.00,0.4963
1185.00,0.4959
1184.00,0.4955
1183.00,0.4953
1182.00,0.4953
1181.00,0.4955
1180.00,0.4958
1179.00,0.4965
1178.00,0.4977
1177.00,0.4994
1176.00,0.5017
1175.00,0.5048
1174.00,0.5087
1173.00,0.5133
1172.00,0.5181
1171.00,0.5226
1170.00,0.5260
1169.00,0.5277
1168.00,0.5277
1167.00,0.5267
1166.00,0.5252
1165.00,0.5240
1164.00,0.5232
1163.00,0.5232
1162.00,0.5238
1161.00,0.5250
1160.00,0.5265
1159.00,0.5281
1158.00,0.5296
1157.00,0.5308
1156.00,0.5312
1155.00,0.5311
1154.00,0.5302
1153.00,0.5286
1152.00,0.5265
1151.00,0.5240
1150.00,0.5213
1149.00,0.5188
1148.00,0.5163
1147.00,0.5142
1146.00,0.5124
1145.00,0.5110
1144.00,0.5101
1143.00,0.5100
1142.00,0.5110
1141.00,0.5130
1140.00,0.5162
1139.00,0.5205
1138.00,0.5260
1137.00,0.5325
1136.00,0.5399
1135.00,0.5479
1134.00,0.5550
1133.00,0.5594
1132.00,0.5594
1131.00,0.5549
1130.00,0.5474
1129.00,0.5391
1128.00,0.5316
1127.00,0.5258
1126.00,0.5218
1125.00,0.5191
1124.00,0.5173
1123.00,0.5158
1122.00,0.5143
1121.00,0.5127
1120.00,0.5115
1119.00,0.5112
1118.00,0.5123
1117.00,0.5148
1116.00,0.5184
1115.00,0.5219
1114.00,0.5239
1113.00,0.5230
1112.00,0.5188
1111.00,0.5124
1110.00,0.5055
1109.00,0.4994
1108.00,0.4948
1107.00,0.4916
1106.00,0.4895
1105.00,0.4881
1104.00,0.4873
1103.00,0.4869
1102.00,0.4866
1101.00,0.4862
1100.00,0.4854
1099.00,0.4844
1098.00,0.4833
1097.00,0.4824
1096.00,0.4818
1095.00,0.4815
1094.00,0.4817
1093.00,0.4821
1092.00,0.4829
1091.00,0.4839
1090.00,0.4853
1089.00,0.4871
1088.00,0.4894
1087.00,0.4925
1086.00,0.4965
1085.00,0.5012
1084.00,0.5067
1083.00,0.5131
1082.00,0.5203
1081.00,0.5279
1080.00,0.5355
1079.00,0.5424
1078.00,0.5478
1077.00,0.5506
1076.00,0.5503
1075.00,0.5471
1074.00,0.5418
1073.00,0.5355
1072.00,0.5291
1071.00,0.5235
1070.00,0.5189
1069.00,0.5154
1068.00,0.5127
1067.00,0.5106
1066.00,0.5091
1065.00,0.5082
1064.00,0.5076
1063.00,0.5074
1062.00,0.5075
1061.00,0.5079
1060.00,0.5084
1059.00,0.5086
1058.00,0.5084
1057.00,0.5080
1056.00,0.5075
1055.00,0.5070
1054.00,0.5065
1053.00,0.5061
1052.00,0.5060
1051.00,0.5067
1050.00,0.5082
1049.00,0.5102
1048.00,0.5122
1047.00,0.5140
1046.00,0.5155
1045.00,0.5165
1044.00,0.5169
1043.00,0.5168
1042.00,0.5164
1041.00,0.5160
1040.00,0.5156
1039.00,0.5152
1038.00,0.5147
1037.00,0.5141
1036.00,0.5137
1035.00,0.5138
1034.00,0.5146
1033.00,0.5160
1032.00,0.5177
1031.00,0.5195
1030.00,0.5211
1029.00,0.5220
1028.00,0.5219
1027.00,0.5202
1026.00,0.5170
1025.00,0.5123
1024.00,0.5067
1023.00,0.5010
1022.00,0.4957
1021.00,0.4908
1020.00,0.4866
1019.00,0.4830
1018.00,0.4799
1017.00,0.4770
1016.00,0.4744
1015.00,0.4723
1014.00,0.4706
1013.00,0.4691
1012.00,0.4679
1011.00,0.4672
1010.00,0.4668
1009.00,0.4667
1008.00,0.4669
1007.00,0.4676
1006.00,0.4687
1005.00,0.4701
1004.00,0.4717
1003.00,0.4735
1002.00,0.4753
1001.00,0.4769
1000.00,0.4781
999.00,0.4788
998.00,0.4788
997.00,0.4780
996.00,0.4764
995.00,0.4743
994.00,0.4719
993.00,0.4691
992.00,0.4662
991.00,0.4632
990.00,0.4603
989.00,0.4576
988.00,0.4556
987.00,0.4543
986.00,0.4538
985.00,0.4542
984.00,0.4552
983.00,0.4568
982.00,0.4590
981.00,0.4614
980.00,0.4639
979.00,0.4664
978.00,0.4687
977.00,0.4709
976.00,0.4727
975.00,0.4741
974.00,0.4751
973.00,0.4756
972.00,0.4757
971.00,0.4758
970.00,0.4760
969.00,0.4762
968.00,0.4762
967.00,0.4761
966.00,0.4757
965.00,0.4750
964.00,0.4738
963.00,0.4725
962.00,0.4710
961.00,0.4696
960.00,0.4682
959.00,0.4671
958.00,0.4662
957.00,0.4657
956.00,0.4652
955.00,0.4648
954.00,0.4643
953.00,0.4635
952.00,0.4625
951.00,0.4615
950.00,0.4607
949.00,0.4603
948.00,0.4602
947.00,0.4605
946.00,0.4611
945.00,0.4621
944.00,0.4633
943.00,0.4649
942.00,0.4665
941.00,0.4680
940.00,0.4692
939.00,0.4701
938.00,0.4706
937.00,0.4705
936.00,0.4697
935.00,0.4684
934.00,0.4667
933.00,0.4644
932.00,0.4619
931.00,0.4594
930.00,0.4574
929.00,0.4558
928.00,0.4548
927.00,0.4548
926.00,0.4562
925.00,0.4591
924.00,0.4633
923.00,0.4684
922.00,0.4733
921.00,0.4765
920.00,0.4766
919.00,0.4732
918.00,0.4669
917.00,0.4589
916.00,0.4505
915.00,0.4428
914.00,0.4363
913.00,0.4311
912.00,0.4272
911.00,0.4242
910.00,0.4220
909.00,0.4202
908.00,0.4186
907.00,0.4175
906.00,0.4168
905.00,0.4166
904.00,0.4167
903.00,0.4174
902.00,0.4186
901.00,0.4202
900.00,0.4222
899.00,0.4247
898.00,0.4279
897.00,0.4316
896.00,0.4355
895.00,0.4395
894.00,0.4437
893.00,0.4479
892.00,0.4519
891.00,0.4556
890.00,0.4585
889.00,0.4600
888.00,0.4600
887.00,0.4587
886.00,0.4565
885.00,0.4544
884.00,0.4529
883.00,0.4524
882.00,0.4528
881.00,0.4539
880.00,0.4556
879.00,0.4571
878.00,0.4579
877.00,0.4578
876.00,0.4570
875.00,0.4563
874.00,0.4562
873.00,0.4565
872.00,0.4570
871.00,0.4577
870.00,0.4586
869.00,0.4599
868.00,0.4618
867.00,0.4645
866.00,0.4679
865.00,0.4718
864.00,0.4756
863.00,0.4786
862.00,0.4796
861.00,0.4777
860.00,0.4729
859.00,0.4662
858.00,0.4592
857.00,0.4530
856.00,0.4482
855.00,0.4449
854.00,0.4427
853.00,0.4412
852.00,0.4398
851.00,0.4386
850.00,0.4373
849.00,0.4357
848.00,0.4336
847.00,0.4311
846.00,0.4283
845.00,0.4256
844.00,0.4232
843.00,0.4214
842.00,0.4207
841.00,0.4214
840.00,0.4241
839.00,0.4288
838.00,0.4351
837.00,0.4416
836.00,0.4463
835.00,0.4478
834.00,0.4458
833.00,0.4415
832.00,0.4370
831.00,0.4340
830.00,0.4332
829.00,0.4344
828.00,0.4372
827.00,0.4410
826.00,0.4458
825.00,0.4512
824.00,0.4573
823.00,0.4640
822.00,0.4710
821.00,0.4782
820.00,0.4853
819.00,0.4919
818.00,0.4976
817.00,0.5019
816.00,0.5045
815.00,0.5051
814.00,0.5037
813.00,0.5002
812.00,0.4950
811.00,0.4888
810.00,0.4824
809.00,0.4765
808.00,0.4712
807.00,0.4665
806.00,0.4621
805.00,0.4576
804.00,0.4526
803.00,0.4471
802.00,0.4411
801.00,0.4351
800.00,0.4295
799.00,0.4250
798.00,0.4217
797.00,0.4196
796.00,0.4183
795.00,0.4176
794.00,0.4173
793.00,0.4174
792.00,0.4181
791.00,0.4196
790.00,0.4218
789.00,0.4244
788.00,0.4271
787.00,0.4303
786.00,0.4341
785.00,0.4385
784.00,0.4434
783.00,0.4482
782.00,0.4522
781.00,0.4550
780.00,0.4570
779.00,0.4586
778.00,0.4601
777.00,0.4618
776.00,0.4636
775.00,0.4657
774.00,0.4679
773.00,0.4702
772.00,0.4726
771.00,0.4753
770.00,0.4785
769.00,0.4818
768.00,0.4849
767.00,0.4878
766.00,0.4902
765.00,0.4920
764.00,0.4935
763.00,0.4955
762.00,0.4983
761.00,0.5021
760.00,0.5061
759.00,0.5101
758.00,0.5137
757.00,0.5165
756.00,0.5187
755.00,0.5210
754.00,0.5240
753.00,0.5276
752.00,0.5316
751.00,0.5359
750.00,0.5403
749.00,0.5447
748.00,0.5491
747.00,0.5532
746.00,0.5572
745.00,0.5610
744.00,0.5652
743.00,0.5701
742.00,0.5757
741.00,0.5812
740.00,0.5861
739.00,0.5903
738.00,0.5942
737.00,0.5980
736.00,0.6020
735.00,0.6065
734.00,0.6118
733.00,0.6181
732.00,0.6259
731.00,0.6356
730.00,0.6476
729.00,0.6622
728.00,0.6801
727.00,0.7017
726.00,0.7271
725.00,0.7557
724.00,0.7848
723.00,0.8091
722.00,0.8208
721.00,0.8125
720.00,0.7834
719.00,0.7408
718.00,0.6944
717.00,0.6513
716.00,0.6147
715.00,0.5852
714.00,0.5620
713.00,0.5435
712.00,0.5285
711.00,0.5162
710.00,0.5062
709.00,0.4981
708.00,0.4913
707.00,0.4858
706.00,0.4811
705.00,0.4770
704.00,0.4732
703.00,0.4702
702.00,0.4684
701.00,0.4675
700.00,0.4656
699.00,0.4605
698.00,0.4505
697.00,0.4361
696.00,0.4201
695.00,0.4052
694.00,0.3931
693.00,0.3840
692.00,0.3774
691.00,0.3727
690.00,0.3694
689.00,0.3668
688.00,0.3647
687.00,0.3629
686.00,0.3614
685.00,0.3599
684.00,0.3586
683.00,0.3578
682.00,0.3576
681.00,0.3576
680.00,0.3576
679.00,0.3576
678.00,0.3577
677.00,0.3578
676.00,0.3577
675.00,0.3576
674.00,0.3574
673.00,0.3571
672.00,0.3567
671.00,0.3565
670.00,0.3570
669.00,0.3580
668.00,0.3587
667.00,0.3588
666.00,0.3589
665.00,0.3592
664.00,0.3596
663.00,0.3602
662.00,0.3610
661.00,0.3620
660.00,0.3631
659.00,0.3643
658.00,0.3657
657.00,0.3669
656.00,0.3679
655.00,0.3687
654.00,0.3694
653.00,0.3702
652.00,0.3711
651.00,0.3723
650.00,0.3736
649.00,0.3748
648.00,0.3758
647.00,0.3768
646.00,0.3781
645.00,0.3795
644.00,0.3811
643.00,0.3826
642.00,0.3840
641.00,0.3854
640.00,0.3866
639.00,0.3878
638.00,0.3887
637.00,0.3892
636.00,0.3895
635.00,0.3896
634.00,0.3896
633.00,0.3899
632.00,0.3905
631.00,0.3915
630.00,0.3928
629.00,0.3942
628.00,0.3957
627.00,0.3975
626.00,0.3995
625.00,0.4015
624.00,0.4036
623.00,0.4059
622.00,0.4082
621.00,0.4104
620.00,0.4121
619.00,0.4133
618.00,0.4141
617.00,0.4146
616.00,0.4147
615.00,0.4145
614.00,0.4142
613.00,0.4137
612.00,0.4130
611.00,0.4119
610.00,0.4106
609.00,0.4091
608.00,0.4077
607.00,0.4065
606.00,0.4056
605.00,0.4049
604.00,0.4044
603.00,0.4041
602.00,0.4042
601.00,0.4043
600.00,0.4044
599.00,0.4045
598.00,0.4047
597.00,0.4051
596.00,0.4059
595.00,0.4071
594.00,0.4087
593.00,0.4105
592.00,0.4124
591.00,0.4143
590.00,0.4160
589.00,0.4179
588.00,0.4200
587.00,0.4225
586.00,0.4251
585.00,0.4274
584.00,0.4298
583.00,0.4323
582.00,0.4351
581.00,0.4379
580.00,0.4409
579.00,0.4439
578.00,0.4466
577.00,0.4486
576.00,0.4504
575.00,0.4525
574.00,0.4547
573.00,0.4568
572.00,0.4589
571.00,0.4611
570.00,0.4632
569.00,0.4647
568.00,0.4657
567.00,0.4668
566.00,0.4685
565.00,0.4705
564.00,0.4721
563.00,0.4732
562.00,0.4739
561.00,0.4745
560.00,0.4753
559.00,0.4762
558.00,0.4772
557.00,0.4784
556.00,0.4795
555.00,0.4805
554.00,0.4813
553.00,0.4817
552.00,0.4823
551.00,0.4832
550.00,0.4842
