Created as New Dataset,
cm-1,A
4000.00,0.2959
3999.00,0.2955
3998.00,0.2952
3997.00,0.2948
3996.00,0.2945
3995.00,0.2942
3994.00,0.2939
3993.00,0.2936
3992.00,0.2934
3991.00,0.2931
3990.00,0.2927
3989.00,0.2923
3988.00,0.2920
3987.00,0.2916
3986.00,0.2912
3985.00,0.2909
3984.00,0.2906
3983.00,0.2903
3982.00,0.2899
3981.00,0.2896
3980.00,0.2893
3979.00,0.2889
3978.00,0.2886
3977.00,0.2883
3976.00,0.2880
3975.00,0.2877
3974.00,0.2875
3973.00,0.2872
3972.00,0.2869
3971.00,0.2866
3970.00,0.2864
3969.00,0.2861
3968.00,0.2859
3967.00,0.2857
3966.00,0.2855
3965.00,0.2853
3964.00,0.2851
3963.00,0.2849
3962.00,0.2848
3961.00,0.2846
3960.00,0.2845
3959.00,0.2844
3958.00,0.2842
3957.00,0.2841
3956.00,0.2839
3955.00,0.2837
3954.00,0.2836
3953.00,0.2835
3952.00,0.2834
3951.00,0.2833
3950.00,0.2833
3949.00,0.2832
3948.00,0.2831
3947.00,0.2830
3946.00,0.2830
3945.00,0.2829
3944.00,0.2828
3943.00,0.2827
3942.00,0.2825
3941.00,0.2823
3940.00,0.2821
3939.00,0.2821
3938.00,0.2820
3937.00,0.2819
3936.00,0.2817
3935.00,0.2817
3934.00,0.2817
3933.00,0.2817
3932.00,0.2816
3931.00,0.2816
3930.00,0.2816
3929.00,0.2816
3928.00,0.2816
3927.00,0.2816
3926.00,0.2815
3925.00,0.2814
3924.00,0.2814
3923.00,0.2813
3922.00,0.2814
3921.00,0.2815
3920.00,0.2815
3919.00,0.2815
3918.00,0.2816
3917.00,0.2816
3916.00,0.2815
3915.00,0.2814
3914.00,0.2813
3913.00,0.2812
3912.00,0.2810
3911.00,0.2808
3910.00,0.2806
3909.00,0.2804
3908.00,0.2804
3907.00,0.2805
3906.00,0.2808
3905.00,0.2810
3904.00,0.2813
3903.00,0.2815
3902.00,0.2819
3901.00,0.2823
3900.00,0.2826
3899.00,0.2825
3898.00,0.2821
3897.00,0.2816
3896.00,0.2812
3895.00,0.2809
3894.00,0.2807
3893.00,0.2806
3892.00,0.2805
3891.00,0.2803
3890.00,0.2801
3889.00,0.2800
3888.00,0.2802
3887.00,0.2804
3886.00,0.2803
3885.00,0.2801
3884.00,0.2798
3883.00,0.2798
3882.00,0.2802
3881.00,0.2806
3880.00,0.2806
3879.00,0.2802
3878.00,0.2798
3877.00,0.2797
3876.00,0.2796
3875.00,0.2796
3874.00,0.2794
3873.00,0.2792
3872.00,0.2792
3871.00,0.2795
3870.00,0.2797
3869.00,0.2796
3868.00,0.2795
3867.00,0.2795
3866.00,0.2795
3865.00,0.2795
3864.00,0.2792
3863.00,0.2789
3862.00,0.2786
3861.00,0.2784
3860.00,0.2781
3859.00,0.2778
3858.00,0.2777
3857.00,0.2777
3856.00,0.2777
3855.00,0.2779
3854.00,0.2781
3853.00,0.2782
3852.00,0.2782
3851.00,0.2783
3850.00,0.2785
3849.00,0.2785
3848.00,0.2782
3847.00,0.2776
3846.00,0.2771
3845.00,0.2766
3844.00,0.2764
3843.00,0.2763
3842.00,0.2764
3841.00,0.2766
3840.00,0.2770
3839.00,0.2773
3838.00,0.2775
3837.00,0.2776
3836.00,0.2777
3835.00,0.2778
3834.00,0.2779
3833.00,0.2778
3832.00,0.2774
3831.00,0.2769
3830.00,0.2763
3829.00,0.2759
3828.00,0.2757
3827.00,0.2755
3826.00,0.2752
3825.00,0.2751
3824.00,0.2751
3823.00,0.2753
3822.00,0.2756
3821.00,0.2757
3820.00,0.2756
3819.00,0.2754
3818.00,0.2755
3817.00,0.2756
3816.00,0.2753
3815.00,0.2747
3814.00,0.2740
3813.00,0.2736
3812.00,0.2735
3811.00,0.2732
3810.00,0.2728
3809.00,0.2724
3808.00,0.2721
3807.00,0.2720
3806.00,0.2718
3805.00,0.2718
3804.00,0.2721
3803.00,0.2724
3802.00,0.2726
3801.00,0.2723
3800.00,0.2719
3799.00,0.2717
3798.00,0.2719
3797.00,0.2720
3796.00,0.2718
3795.00,0.2712
3794.00,0.2706
3793.00,0.2701
3792.00,0.2697
3791.00,0.2693
3790.00,0.2689
3789.00,0.2686
3788.00,0.2683
3787.00,0.2681
3786.00,0.2680
3785.00,0.2679
3784.00,0.2678
3783.00,0.2677
3782.00,0.2677
3781.00,0.2677
3780.00,0.2677
3779.00,0.2675
3778.00,0.2673
3777.00,0.2670
3776.00,0.2669
3775.00,0.2668
3774.00,0.2665
3773.00,0.2663
3772.00,0.2662
3771.00,0.2662
3770.00,0.2662
3769.00,0.2661
3768.00,0.2661
3767.00,0.2662
3766.00,0.2663
3765.00,0.2662
3764.00,0.2659
3763.00,0.2656
3762.00,0.2655
3761.00,0.2654
3760.00,0.2652
3759.00,0.2650
3758.00,0.2649
3757.00,0.2647
3756.00,0.2646
3755.00,0.2645
3754.00,0.2644
3753.00,0.2643
3752.00,0.2643
3751.00,0.2644
3750.00,0.2648
3749.00,0.2651
3748.00,0.2654
3747.00,0.2658
3746.00,0.2662
3745.00,0.2662
3744.00,0.2656
3743.00,0.2646
3742.00,0.2640
3741.00,0.2640
3740.00,0.2640
3739.00,0.2637
3738.00,0.2633
3737.00,0.2631
3736.00,0.2631
3735.00,0.2634
3734.00,0.2637
3733.00,0.2639
3732.00,0.2637
3731.00,0.2632
3730.00,0.2626
3729.00,0.2621
3728.00,0.2618
3727.00,0.2614
3726.00,0.2609
3725.00,0.2605
3724.00,0.2602
3723.00,0.2602
3722.00,0.2601
3721.00,0.2600
3720.00,0.2598
3719.00,0.2595
3718.00,0.2592
3717.00,0.2589
3716.00,0.2586
3715.00,0.2584
3714.00,0.2583
3713.00,0.2584
3712.00,0.2586
3711.00,0.2589
3710.00,0.2592
3709.00,0.2594
3708.00,0.2594
3707.00,0.2591
3706.00,0.2588
3705.00,0.2585
3704.00,0.2583
3703.00,0.2582
3702.00,0.2580
3701.00,0.2579
3700.00,0.2577
3699.00,0.2577
3698.00,0.2577
3697.00,0.2577
3696.00,0.2575
3695.00,0.2574
3694.00,0.2574
3693.00,0.2576
3692.00,0.2580
3691.00,0.2583
3690.00,0.2587
3689.00,0.2589
3688.00,0.2589
3687.00,0.2588
3686.00,0.2587
3685.00,0.2586
3684.00,0.2584
3683.00,0.2579
3682.00,0.2575
3681.00,0.2571
3680.00,0.2570
3679.00,0.2569
3678.00,0.2570
3677.00,0.2573
3676.00,0.2578
3675.00,0.2583
3674.00,0.2585
3673.00,0.2588
3672.00,0.2592
3671.00,0.2595
3670.00,0.2593
3669.00,0.2588
3668.00,0.2583
3667.00,0.2581
3666.00,0.2579
3665.00,0.2576
3664.00,0.2572
3663.00,0.2568
3662.00,0.2566
3661.00,0.2565
3660.00,0.2566
3659.00,0.2567
3658.00,0.2571
3657.00,0.2574
3656.00,0.2576
3655.00,0.2577
3654.00,0.2580
3653.00,0.2585
3652.00,0.2590
3651.00,0.2594
3650.00,0.2597
3649.00,0.2602
3648.00,0.2607
3647.00,0.2612
3646.00,0.2613
3645.00,0.2611
3644.00,0.2607
3643.00,0.2602
3642.00,0.2596
3641.00,0.2592
3640.00,0.2589
3639.00,0.2588
3638.00,0.2588
3637.00,0.2589
3636.00,0.2591
3635.00,0.2593
3634.00,0.2596
3633.00,0.2599
3632.00,0.2604
3631.00,0.2610
3630.00,0.2617
3629.00,0.2625
3628.00,0.2631
3627.00,0.2634
3626.00,0.2638
3625.00,0.2641
3624.00,0.2642
3623.00,0.2641
3622.00,0.2639
3621.00,0.2638
3620.00,0.2639
3619.00,0.2639
3618.00,0.2639
3617.00,0.2639
3616.00,0.2638
3615.00,0.2638
3614.00,0.2637
3613.00,0.2635
3612.00,0.2634
3611.00,0.2634
3610.00,0.2634
3609.00,0.2635
3608.00,0.2635
3607.00,0.2634
3606.00,0.2632
3605.00,0.2629
3604.00,0.2625
3603.00,0.2621
3602.00,0.2615
3601.00,0.2609
3600.00,0.2603
3599.00,0.2598
3598.00,0.2594
3597.00,0.2591
3596.00,0.2587
3595.00,0.2584
3594.00,0.2579
3593.00,0.2574
3592.00,0.2570
3591.00,0.2568
3590.00,0.2566
3589.00,0.2567
3588.00,0.2567
3587.00,0.2568
3586.00,0.2568
3585.00,0.2568
3584.00,0.2567
3583.00,0.2565
3582.00,0.2563
3581.00,0.2559
3580.00,0.2557
3579.00,0.2555
3578.00,0.2554
3577.00,0.2554
3576.00,0.2554
3575.00,0.2554
3574.00,0.2554
3573.00,0.2554
3572.00,0.2555
3571.00,0.2556
3570.00,0.2557
3569.00,0.2560
3568.00,0.2564
3567.00,0.2569
3566.00,0.2574
3565.00,0.2579
3564.00,0.2581
3563.00,0.2583
3562.00,0.2583
3561.00,0.2583
3560.00,0.2583
3559.00,0.2584
3558.00,0.2586
3557.00,0.2588
3556.00,0.2591
3555.00,0.2594
3554.00,0.2598
3553.00,0.2602
3552.00,0.2607
3551.00,0.2610
3550.00,0.2614
3549.00,0.2618
3548.00,0.2623
3547.00,0.2628
3546.00,0.2634
3545.00,0.2640
3544.00,0.2644
3543.00,0.2648
3542.00,0.2651
3541.00,0.2654
3540.00,0.2656
3539.00,0.2658
3538.00,0.2660
3537.00,0.2662
3536.00,0.2665
3535.00,0.2667
3534.00,0.2670
3533.00,0.2673
3532.00,0.2676
3531.00,0.2678
3530.00,0.2680
3529.00,0.2683
3528.00,0.2686
3527.00,0.2689
3526.00,0.2693
3525.00,0.2697
3524.00,0.2701
3523.00,0.2706
3522.00,0.2710
3521.00,0.2713
3520.00,0.2717
3519.00,0.2721
3518.00,0.2724
3517.00,0.2727
3516.00,0.2731
3515.00,0.2735
3514.00,0.2740
3513.00,0.2744
3512.00,0.2749
3511.00,0.2754
3510.00,0.2759
3509.00,0.2764
3508.00,0.2769
3507.00,0.2774
3506.00,0.2778
3505.00,0.2783
3504.00,0.2788
3503.00,0.2793
3502.00,0.2798
3501.00,0.2803
3500.00,0.2808
3499.00,0.2812
3498.00,0.2817
3497.00,0.2823
3496.00,0.2829
3495.00,0.2835
3494.00,0.2840
3493.00,0.2847
3492.00,0.2853
3491.00,0.2861
3490.00,0.2868
3489.00,0.2876
3488.00,0.2883
3487.00,0.2890
3486.00,0.2896
3485.00,0.2903
3484.00,0.2909
3483.00,0.2916
3482.00,0.2923
3481.00,0.2929
3480.00,0.2934
3479.00,0.2939
3478.00,0.2944
3477.00,0.2948
3476.00,0.2953
3475.00,0.2958
3474.00,0.2962
3473.00,0.2967
3472.00,0.2972
3471.00,0.2977
3470.00,0.2982
3469.00,0.2987
3468.00,0.2992
3467.00,0.2997
3466.00,0.3002
3465.00,0.3007
3464.00,0.3013
3463.00,0.3019
3462.00,0.3024
3461.00,0.3030
3460.00,0.3035
3459.00,0.3040
3458.00,0.3046
3457.00,0.3052
3456.00,0.3059
3455.00,0.3065
3454.00,0.3071
3453.00,0.3078
3452.00,0.3085
3451.00,0.3092
3450.00,0.3100
3449.00,0.3107
3448.00,0.3115
3447.00,0.3123
3446.00,0.3130
3445.00,0.3138
3444.00,0.3145
3443.00,0.3153
3442.00,0.3161
3441.00,0.3168
3440.00,0.3174
3439.00,0.3181
3438.00,0.3189
3437.00,0.3196
3436.00,0.3203
3435.00,0.3210
3434.00,0.3217
3433.00,0.3224
3432.00,0.3231
3431.00,0.3238
3430.00,0.3245
3429.00,0.3252
3428.00,0.3259
3427.00,0.3266
3426.00,0.3273
3425.00,0.3281
3424.00,0.3289
3423.00,0.3297
3422.00,0.3306
3421.00,0.3315
3420.00,0.3324
3419.00,0.3333
3418.00,0.3341
3417.00,0.3350
3416.00,0.3358
3415.00,0.3367
3414.00,0.3376
3413.00,0.3385
3412.00,0.3395
3411.00,0.3404
3410.00,0.3413
3409.00,0.3423
3408.00,0.3433
3407.00,0.3443
3406.00,0.3453
3405.00,0.3463
3404.00,0.3473
3403.00,0.3483
3402.00,0.3493
3401.00,0.3503
3400.00,0.3512
3399.00,0.3522
3398.00,0.3532
3397.00,0.3542
3396.00,0.3552
3395.00,0.3562
3394.00,0.3572
3393.00,0.3583
3392.00,0.3593
3391.00,0.3603
3390.00,0.3613
3389.00,0.3623
3388.00,0.3633
3387.00,0.3643
3386.00,0.3653
3385.00,0.3664
3384.00,0.3674
3383.00,0.3686
3382.00,0.3698
3381.00,0.3710
3380.00,0.3721
3379.00,0.3733
3378.00,0.3745
3377.00,0.3758
3376.00,0.3770
3375.00,0.3782
3374.00,0.3794
3373.00,0.3806
3372.00,0.3819
3371.00,0.3833
3370.00,0.3847
3369.00,0.3861
3368.00,0.3876
3367.00,0.3889
3366.00,0.3903
3365.00,0.3917
3364.00,0.3930
3363.00,0.3944
3362.00,0.3957
3361.00,0.3972
3360.00,0.3987
3359.00,0.4002
3358.00,0.4017
3357.00,0.4033
3356.00,0.4048
3355.00,0.4063
3354.00,0.4078
3353.00,0.4094
3352.00,0.4110
3351.00,0.4127
3350.00,0.4143
3349.00,0.4159
3348.00,0.4175
3347.00,0.4190
3346.00,0.4204
3345.00,0.4219
3344.00,0.4233
3343.00,0.4247
3342.00,0.4261
3341.00,0.4274
3340.00,0.4287
3339.00,0.4299
3338.00,0.4310
3337.00,0.4322
3336.00,0.4332
3335.00,0.4342
3334.00,0.4351
3333.00,0.4358
3332.00,0.4364
3331.00,0.4370
3330.00,0.4375
3329.00,0.4380
3328.00,0.4383
3327.00,0.4386
3326.00,0.4387
3325.00,0.4388
3324.00,0.4387
3323.00,0.4386
3322.00,0.4383
3321.00,0.4380
3320.00,0.4377
3319.00,0.4374
3318.00,0.4370
3317.00,0.4365
3316.00,0.4359
3315.00,0.4353
3314.00,0.4347
3313.00,0.4341
3312.00,0.4335
3311.00,0.4329
3310.00,0.4322
3309.00,0.4314
3308.00,0.4306
3307.00,0.4297
3306.00,0.4289
3305.00,0.4281
3304.00,0.4272
3303.00,0.4264
3302.00,0.4255
3301.00,0.4247
3300.00,0.4240
3299.00,0.4233
3298.00,0.4226
3297.00,0.4220
3296.00,0.4213
3295.00,0.4207
3294.00,0.4201
3293.00,0.4195
3292.00,0.4189
3291.00,0.4184
3290.00,0.4179
3289.00,0.4175
3288.00,0.4171
3287.00,0.4168
3286.00,0.4166
3285.00,0.4165
3284.00,0.4165
3283.00,0.4164
3282.00,0.4163
3281.00,0.4163
3280.00,0.4163
3279.00,0.4164
3278.00,0.4165
3277.00,0.4166
3276.00,0.4168
3275.00,0.4171
3274.00,0.4174
3273.00,0.4178
3272.00,0.4182
3271.00,0.4185
3270.00,0.4189
3269.00,0.4193
3268.00,0.4197
3267.00,0.4202
3266.00,0.4206
3265.00,0.4211
3264.00,0.4217
3263.00,0.4222
3262.00,0.4226
3261.00,0.4231
3260.00,0.4235
3259.00,0.4239
3258.00,0.4245
3257.00,0.4251
3256.00,0.4256
3255.00,0.4261
3254.00,0.4266
3253.00,0.4271
3252.00,0.4276
3251.00,0.4280
3250.00,0.4284
3249.00,0.4288
3248.00,0.4292
3247.00,0.4296
3246.00,0.4300
3245.00,0.4304
3244.00,0.4309
3243.00,0.4312
3242.00,0.4316
3241.00,0.4320
3240.00,0.4325
3239.00,0.4328
3238.00,0.4330
3237.00,0.4331
3236.00,0.4333
3235.00,0.4334
3234.00,0.4336
3233.00,0.4338
3232.00,0.4339
3231.00,0.4339
3230.00,0.4339
3229.00,0.4339
3228.00,0.4339
3227.00,0.4339
3226.00,0.4339
3225.00,0.4338
3224.00,0.4336
3223.00,0.4335
3222.00,0.4333
3221.00,0.4331
3220.00,0.4330
3219.00,0.4328
3218.00,0.4325
3217.00,0.4323
3216.00,0.4321
3215.00,0.4318
3214.00,0.4316
3213.00,0.4314
3212.00,0.4311
3211.00,0.4308
3210.00,0.4306
3209.00,0.4304
3208.00,0.4302
3207.00,0.4300
3206.00,0.4297
3205.00,0.4295
3204.00,0.4293
3203.00,0.4291
3202.00,0.4288
3201.00,0.4285
3200.00,0.4282
3199.00,0.4279
3198.00,0.4275
3197.00,0.4272
3196.00,0.4269
3195.00,0.4265
3194.00,0.4262
3193.00,0.4258
3192.00,0.4253
3191.00,0.4249
3190.00,0.4244
3189.00,0.4238
3188.00,0.4233
3187.00,0.4227
3186.00,0.4220
3185.00,0.4214
3184.00,0.4207
3183.00,0.4201
3182.00,0.4195
3181.00,0.4189
3180.00,0.4183
3179.00,0.4176
3178.00,0.4169
3177.00,0.4162
3176.00,0.4156
3175.00,0.4149
3174.00,0.4142
3173.00,0.4136
3172.00,0.4129
3171.00,0.4122
3170.00,0.4115
3169.00,0.4108
3168.00,0.4100
3167.00,0.4093
3166.00,0.4085
3165.00,0.4078
3164.00,0.4071
3163.00,0.4064
3162.00,0.4056
3161.00,0.4048
3160.00,0.4041
3159.00,0.4033
3158.00,0.4026
3157.00,0.4018
3156.00,0.4011
3155.00,0.4002
3154.00,0.3994
3153.00,0.3986
3152.00,0.3978
3151.00,0.3970
3150.00,0.3962
3149.00,0.3955
3148.00,0.3948
3147.00,0.3941
3146.00,0.3934
3145.00,0.3928
3144.00,0.3921
3143.00,0.3916
3142.00,0.3910
3141.00,0.3905
3140.00,0.3900
3139.00,0.3896
3138.00,0.3892
3137.00,0.3888
3136.00,0.3885
3135.00,0.3882
3134.00,0.3879
3133.00,0.3877
3132.00,0.3875
3131.00,0.3873
3130.00,0.3872
3129.00,0.3871
3128.00,0.3870
3127.00,0.3870
3126.00,0.3870
3125.00,0.3869
3124.00,0.3869
3123.00,0.3870
3122.00,0.3871
3121.00,0.3873
3120.00,0.3875
3119.00,0.3877
3118.00,0.3879
3117.00,0.3881
3116.00,0.3883
3115.00,0.3886
3114.00,0.3890
3113.00,0.3894
3112.00,0.3899
3111.00,0.3905
3110.00,0.3911
3109.00,0.3918
3108.00,0.3925
3107.00,0.3933
3106.00,0.3942
3105.00,0.3950
3104.00,0.3959
3103.00,0.3968
3102.00,0.3977
3101.00,0.3986
3100.00,0.3995
3099.00,0.4005
3098.00,0.4016
3097.00,0.4027
3096.00,0.4039
3095.00,0.4053
3094.00,0.4068
3093.00,0.4085
3092.00,0.4103
3091.00,0.4123
3090.00,0.4144
3089.00,0.4166
3088.00,0.4191
3087.00,0.4216
3086.00,0.4242
3085.00,0.4268
3084.00,0.4295
3083.00,0.4323
3082.00,0.4353
3081.00,0.4385
3080.00,0.4419
3079.00,0.4455
3078.00,0.4494
3077.00,0.4534
3076.00,0.4575
3075.00,0.4617
3074.00,0.4660
3073.00,0.4703
3072.00,0.4747
3071.00,0.4790
3070.00,0.4833
3069.00,0.4876
3068.00,0.4919
3067.00,0.4961
3066.00,0.5003
3065.00,0.5045
3064.00,0.5084
3063.00,0.5121
3062.00,0.5153
3061.00,0.5183
3060.00,0.5211
3059.00,0.5237
3058.00,0.5263
3057.00,0.5290
3056.00,0.5319
3055.00,0.5349
3054.00,0.5380
3053.00,0.5412
3052.00,0.5447
3051.00,0.5484
3050.00,0.5523
3049.00,0.5565
3048.00,0.5609
3047.00,0.5654
3046.00,0.5701
3045.00,0.5748
3044.00,0.5794
3043.00,0.5840
3042.00,0.5885
3041.00,0.5931
3040.00,0.5977
3039.00,0.6024
3038.00,0.6073
3037.00,0.6124
3036.00,0.6177
3035.00,0.6235
3034.00,0.6297
3033.00,0.6363
3032.00,0.6434
3031.00,0.6509
3030.00,0.6589
3029.00,0.6675
3028.00,0.6764
3027.00,0.6855
3026.00,0.6949
3025.00,0.7046
3024.00,0.7146
3023.00,0.7250
3022.00,0.7358
3021.00,0.7470
3020.00,0.7586
3019.00,0.7703
3018.00,0.7822
3017.00,0.7941
3016.00,0.8060
3015.00,0.8179
3014.00,0.8298
3013.00,0.8421
3012.00,0.8547
3011.00,0.8680
3010.00,0.8818
3009.00,0.8963
3008.00,0.9113
3007.00,0.9270
3006.00,0.9434
3005.00,0.9604
3004.00,0.9779
3003.00,0.9960
3002.00,1.0147
3001.00,1.0340
3000.00,1.0541
2999.00,1.0752
2998.00,1.0977
2997.00,1.1222
2996.00,1.1491
2995.00,1.1787
2994.00,1.2118
2993.00,1.2488
2992.00,1.2901
2991.00,1.3362
2990.00,1.3877
2989.00,1.4452
2988.00,1.5092
2987.00,1.5800
2986.00,1.6584
2985.00,1.7454
2984.00,1.8421
2983.00,1.9498
2982.00,2.0688
2981.00,2.1987
2980.00,2.3392
2979.00,2.4929
2978.00,2.6660
2977.00,2.8638
2976.00,3.0882
2975.00,3.3355
2974.00,3.5798
2973.00,3.7316
2972.00,3.7363
2971.00,3.7110
2970.00,3.7488
2969.00,3.8441
2968.00,3.9660
2967.00,4.1089
2966.00,4.2385
2965.00,4.3372
2964.00,4.3218
2963.00,4.1330
2962.00,3.9705
2961.00,3.9203
2960.00,4.0285
2959.00,4.2175
2958.00,4.3878
2957.00,4.4660
2956.00,4.3787
2955.00,4.2251
2954.00,4.2233
2953.00,4.4361
2952.00,4.2107
2951.00,3.9360
2950.00,3.8180
2949.00,3.9336
2948.00,4.2318
2947.00,4.6184
2946.00,5.2448
2945.00,4.5496
2944.00,4.1081
2943.00,3.9070
2942.00,3.9728
2941.00,4.1665
2940.00,4.0919
2939.00,3.9515
2938.00,3.9705
2937.00,4.2136
2936.00,4.1842
2935.00,4.0582
2934.00,4.0729
2933.00,4.1519
2932.00,4.0839
2931.00,3.9378
2930.00,3.8939
2929.00,3.8984
2928.00,3.9030
2927.00,3.8866
2926.00,3.8682
2925.00,3.8900
2924.00,4.0892
2923.00,4.4113
2922.00,4.2414
2921.00,4.0250
2920.00,3.8868
2919.00,3.9092
2918.00,3.9731
2917.00,4.0315
2916.00,3.9579
2915.00,3.7786
2914.00,3.7029
2913.00,3.7301
2912.00,3.8575
2911.00,4.1194
2910.00,4.1929
2909.00,4.0063
2908.00,3.9132
2907.00,4.0171
2906.00,4.1295
2905.00,4.0474
2904.00,4.0339
2903.00,4.0782
2902.00,4.1622
2901.00,4.2024
2900.00,3.9678
2899.00,3.7650
2898.00,3.6904
2897.00,3.8055
2896.00,4.0684
2895.00,4.4057
2894.00,4.7746
2893.00,4.6930
2892.00,4.4816
2891.00,4.2987
2890.00,4.2675
2889.00,4.4525
2888.00,4.6626
2887.00,4.4423
2886.00,4.1303
2885.00,3.9568
2884.00,3.8672
2883.00,3.8520
2882.00,3.9186
2881.00,3.9553
2880.00,3.9549
2879.00,3.9689
2878.00,3.9185
2877.00,3.7915
2876.00,3.6959
2875.00,3.7214
2874.00,3.9267
2873.00,4.1623
2872.00,3.9767
2871.00,3.7661
2870.00,3.7089
2869.00,3.7910
2868.00,3.9024
2867.00,3.9729
2866.00,4.1080
2865.00,4.2309
2864.00,4.1215
2863.00,4.0009
2862.00,4.0743
2861.00,4.5400
2860.00,4.4746
2859.00,4.1644
2858.00,4.1793
2857.00,4.4927
2856.00,4.4920
2855.00,4.4057
2854.00,4.4096
2853.00,4.5318
2852.00,4.5091
2851.00,4.1962
2850.00,3.9412
2849.00,3.7840
2848.00,3.7789
2847.00,3.9461
2846.00,4.1743
2845.00,3.9811
2844.00,3.7212
2843.00,3.6022
2842.00,3.6329
2841.00,3.7241
2840.00,3.7461
2839.00,3.5796
2838.00,3.3141
2837.00,3.0688
2836.00,2.8587
2835.00,2.6727
2834.00,2.5020
2833.00,2.3429
2832.00,2.1955
2831.00,2.0614
2830.00,1.9408
2829.00,1.8327
2828.00,1.7361
2827.00,1.6498
2826.00,1.5723
2825.00,1.5023
2824.00,1.4386
2823.00,1.3806
2822.00,1.3276
2821.00,1.2789
2820.00,1.2340
2819.00,1.1927
2818.00,1.1545
2817.00,1.1188
2816.00,1.0855
2815.00,1.0543
2814.00,1.0252
2813.00,0.9980
2812.00,0.9724
2811.00,0.9482
2810.00,0.9253
2809.00,0.9036
2808.00,0.8829
2807.00,0.8632
2806.00,0.8444
2805.00,0.8266
2804.00,0.8097
2803.00,0.7937
2802.00,0.7784
2801.00,0.7640
2800.00,0.7504
2799.00,0.7373
2798.00,0.7248
2797.00,0.7127
2796.00,0.7010
2795.00,0.6898
2794.00,0.6789
2793.00,0.6683
2792.00,0.6580
2791.00,0.6479
2790.00,0.6382
2789.00,0.6286
2788.00,0.6193
2787.00,0.6101
2786.00,0.6011
2785.00,0.5924
2784.00,0.5839
2783.00,0.5757
2782.00,0.5678
2781.00,0.5603
2780.00,0.5531
2779.00,0.5462
2778.00,0.5396
2777.00,0.5333
2776.00,0.5274
2775.00,0.5217
2774.00,0.5164
2773.00,0.5114
2772.00,0.5068
2771.00,0.5025
2770.00,0.4985
2769.00,0.4949
2768.00,0.4916
2767.00,0.4886
2766.00,0.4860
2765.00,0.4836
2764.00,0.4815
2763.00,0.4797
2762.00,0.4781
2761.00,0.4768
2760.00,0.4755
2759.00,0.4743
2758.00,0.4731
2757.00,0.4720
2756.00,0.4710
2755.00,0.4701
2754.00,0.4693
2753.00,0.4687
2752.00,0.4682
2751.00,0.4678
2750.00,0.4677
2749.00,0.4678
2748.00,0.4681
2747.00,0.4685
2746.00,0.4692
2745.00,0.4702
2744.00,0.4715
2743.00,0.4731
2742.00,0.4750
2741.00,0.4773
2740.00,0.4799
2739.00,0.4831
2738.00,0.4867
2737.00,0.4909
2736.00,0.4955
2735.00,0.5005
2734.00,0.5057
2733.00,0.5108
2732.00,0.5155
2731.00,0.5195
2730.00,0.5226
2729.00,0.5247
2728.00,0.5256
2727.00,0.5256
2726.00,0.5248
2725.00,0.5234
2724.00,0.5215
2723.00,0.5193
2722.00,0.5167
2721.00,0.5139
2720.00,0.5107
2719.00,0.5072
2718.00,0.5033
2717.00,0.4992
2716.00,0.4949
2715.00,0.4905
2714.00,0.4860
2713.00,0.4816
2712.00,0.4774
2711.00,0.4735
2710.00,0.4701
2709.00,0.4670
2708.00,0.4644
2707.00,0.4621
2706.00,0.4601
2705.00,0.4586
2704.00,0.4574
2703.00,0.4565
2702.00,0.4558
2701.00,0.4554
2700.00,0.4553
2699.00,0.4554
2698.00,0.4557
2697.00,0.4561
2696.00,0.4567
2695.00,0.4573
2694.00,0.4580
2693.00,0.4589
2692.00,0.4599
2691.00,0.4609
2690.00,0.4619
2689.00,0.4629
2688.00,0.4638
2687.00,0.4645
2686.00,0.4652
2685.00,0.4657
2684.00,0.4662
2683.00,0.4665
2682.00,0.4668
2681.00,0.4671
2680.00,0.4674
2679.00,0.4677
2678.00,0.4680
2677.00,0.4684
2676.00,0.4688
2675.00,0.4693
2674.00,0.4697
2673.00,0.4700
2672.00,0.4701
2671.00,0.4701
2670.00,0.4698
2669.00,0.4693
2668.00,0.4685
2667.00,0.4675
2666.00,0.4662
2665.00,0.4647
2664.00,0.4631
2663.00,0.4613
2662.00,0.4596
2661.00,0.4577
2660.00,0.4556
2659.00,0.4535
2658.00,0.4514
2657.00,0.4494
2656.00,0.4474
2655.00,0.4455
2654.00,0.4436
2653.00,0.4419
2652.00,0.4403
2651.00,0.4387
2650.00,0.4372
2649.00,0.4358
2648.00,0.4343
2647.00,0.4329
2646.00,0.4316
2645.00,0.4303
2644.00,0.4291
2643.00,0.4279
2642.00,0.4268
2641.00,0.4257
2640.00,0.4247
2639.00,0.4237
2638.00,0.4227
2637.00,0.4218
2636.00,0.4208
2635.00,0.4199
2634.00,0.4190
2633.00,0.4181
2632.00,0.4172
2631.00,0.4164
2630.00,0.4156
2629.00,0.4148
2628.00,0.4141
2627.00,0.4133
2626.00,0.4125
2625.00,0.4116
2624.00,0.4107
2623.00,0.4098
2622.00,0.4089
2621.00,0.4080
2620.00,0.4072
2619.00,0.4064
2618.00,0.4056
2617.00,0.4047
2616.00,0.4037
2615.00,0.4028
2614.00,0.4019
2613.00,0.4010
2612.00,0.4001
2611.00,0.3991
2610.00,0.3981
2609.00,0.3971
2608.00,0.3961
2607.00,0.3951
2606.00,0.3940
2605.00,0.3929
2604.00,0.3919
2603.00,0.3907
2602.00,0.3896
2601.00,0.3884
2600.00,0.3871
2599.00,0.3858
2598.00,0.3846
2597.00,0.3832
2596.00,0.3818
2595.00,0.3804
2594.00,0.3790
2593.00,0.3775
2592.00,0.3760
2591.00,0.3744
2590.00,0.3729
2589.00,0.3713
2588.00,0.3698
2587.00,0.3683
2586.00,0.3668
2585.00,0.3652
2584.00,0.3636
2583.00,0.3620
2582.00,0.3603
2581.00,0.3586
2580.00,0.3569
2579.00,0.3552
2578.00,0.3535
2577.00,0.3518
2576.00,0.3502
2575.00,0.3485
2574.00,0.3468
2573.00,0.3451
2572.00,0.3435
2571.00,0.3420
2570.00,0.3404
2569.00,0.3389
2568.00,0.3375
2567.00,0.3360
2566.00,0.3345
2565.00,0.3330
2564.00,0.3316
2563.00,0.3302
2562.00,0.3288
2561.00,0.3274
2560.00,0.3261
2559.00,0.3250
2558.00,0.3238
2557.00,0.3227
2556.00,0.3216
2555.00,0.3205
2554.00,0.3194
2553.00,0.3185
2552.00,0.3175
2551.00,0.3166
2550.00,0.3156
2549.00,0.3147
2548.00,0.3138
2547.00,0.3129
2546.00,0.3120
2545.00,0.3112
2544.00,0.3104
2543.00,0.3095
2542.00,0.3087
2541.00,0.3080
2540.00,0.3072
2539.00,0.3064
2538.00,0.3056
2537.00,0.3048
2536.00,0.3041
2535.00,0.3033
2534.00,0.3026
2533.00,0.3019
2532.00,0.3011
2531.00,0.3002
2530.00,0.2994
2529.00,0.2985
2528.00,0.2977
2527.00,0.2967
2526.00,0.2958
2525.00,0.2948
2524.00,0.2939
2523.00,0.2929
2522.00,0.2920
2521.00,0.2910
2520.00,0.2902
2519.00,0.2893
2518.00,0.2885
2517.00,0.2878
2516.00,0.2871
2515.00,0.2864
2514.00,0.2857
2513.00,0.2850
2512.00,0.2843
2511.00,0.2836
2510.00,0.2829
2509.00,0.2822
2508.00,0.2815
2507.00,0.2808
2506.00,0.2802
2505.00,0.2796
2504.00,0.2790
2503.00,0.2785
2502.00,0.2780
2501.00,0.2775
2500.00,0.2770
2499.00,0.2765
2498.00,0.2760
2497.00,0.2755
2496.00,0.2750
2495.00,0.2745
2494.00,0.2740
2493.00,0.2736
2492.00,0.2731
2491.00,0.2726
2490.00,0.2722
2489.00,0.2718
2488.00,0.2714
2487.00,0.2710
2486.00,0.2707
2485.00,0.2703
2484.00,0.2700
2483.00,0.2697
2482.00,0.2693
2481.00,0.2690
2480.00,0.2687
2479.00,0.2684
2478.00,0.2681
2477.00,0.2678
2476.00,0.2676
2475.00,0.2673
2474.00,0.2670
2473.00,0.2667
2472.00,0.2665
2471.00,0.2661
2470.00,0.2658
2469.00,0.2656
2468.00,0.2653
2467.00,0.2649
2466.00,0.2646
2465.00,0.2643
2464.00,0.2639
2463.00,0.2635
2462.00,0.2632
2461.00,0.2629
2460.00,0.2626
2459.00,0.2624
2458.00,0.2621
2457.00,0.2619
2456.00,0.2616
2455.00,0.2614
2454.00,0.2613
2453.00,0.2612
2452.00,0.2611
2451.00,0.2610
2450.00,0.2609
2449.00,0.2608
2448.00,0.2607
2447.00,0.2606
2446.00,0.2606
2445.00,0.2607
2444.00,0.2607
2443.00,0.2608
2442.00,0.2608
2441.00,0.2608
2440.00,0.2609
2439.00,0.2609
2438.00,0.2609
2437.00,0.2609
2436.00,0.2610
2435.00,0.2610
2434.00,0.2610
2433.00,0.2610
2432.00,0.2611
2431.00,0.2611
2430.00,0.2612
2429.00,0.2612
2428.00,0.2612
2427.00,0.2612
2426.00,0.2612
2425.00,0.2613
2424.00,0.2613
2423.00,0.2613
2422.00,0.2613
2421.00,0.2613
2420.00,0.2613
2419.00,0.2614
2418.00,0.2614
2417.00,0.2615
2416.00,0.2616
2415.00,0.2616
2414.00,0.2617
2413.00,0.2617
2412.00,0.2617
2411.00,0.2616
2410.00,0.2616
2409.00,0.2616
2408.00,0.2616
2407.00,0.2616
2406.00,0.2615
2405.00,0.2615
2404.00,0.2614
2403.00,0.2614
2402.00,0.2613
2401.00,0.2612
2400.00,0.2611
2399.00,0.2609
2398.00,0.2607
2397.00,0.2605
2396.00,0.2603
2395.00,0.2601
2394.00,0.2600
2393.00,0.2599
2392.00,0.2597
2391.00,0.2596
2390.00,0.2594
2389.00,0.2593
2388.00,0.2592
2387.00,0.2591
2386.00,0.2590
2385.00,0.2589
2384.00,0.2588
2383.00,0.2588
2382.00,0.2588
2381.00,0.2588
2380.00,0.2588
2379.00,0.2588
2378.00,0.2588
2377.00,0.2588
2376.00,0.2588
2375.00,0.2588
2374.00,0.2588
2373.00,0.2587
2372.00,0.2586
2371.00,0.2585
2370.00,0.2584
2369.00,0.2584
2368.00,0.2584
2367.00,0.2583
2366.00,0.2582
2365.00,0.2581
2364.00,0.2581
2363.00,0.2580
2362.00,0.2580
2361.00,0.2580
2360.00,0.2580
2359.00,0.2580
2358.00,0.2579
2357.00,0.2578
2356.00,0.2578
2355.00,0.2577
2354.00,0.2577
2353.00,0.2576
2352.00,0.2575
2351.00,0.2573
2350.00,0.2571
2349.00,0.2570
2348.00,0.2570
2347.00,0.2570
2346.00,0.2571
2345.00,0.2571
2344.00,0.2571
2343.00,0.2569
2342.00,0.2568
2341.00,0.2567
2340.00,0.2566
2339.00,0.2565
2338.00,0.2564
2337.00,0.2563
2336.00,0.2562
2335.00,0.2560
2334.00,0.2557
2333.00,0.2554
2332.00,0.2552
2331.00,0.2549
2330.00,0.2546
2329.00,0.2544
2328.00,0.2542
2327.00,0.2539
2326.00,0.2537
2325.00,0.2535
2324.00,0.2533
2323.00,0.2532
2322.00,0.2530
2321.00,0.2528
2320.00,0.2526
2319.00,0.2524
2318.00,0.2521
2317.00,0.2518
2316.00,0.2515
2315.00,0.2512
2314.00,0.2509
2313.00,0.2507
2312.00,0.2505
2311.00,0.2502
2310.00,0.2500
2309.00,0.2496
2308.00,0.2493
2307.00,0.2490
2306.00,0.2487
2305.00,0.2485
2304.00,0.2482
2303.00,0.2479
2302.00,0.2476
2301.00,0.2473
2300.00,0.2471
2299.00,0.2468
2298.00,0.2464
2297.00,0.2461
2296.00,0.2458
2295.00,0.2455
2294.00,0.2452
2293.00,0.2449
2292.00,0.2446
2291.00,0.2443
2290.00,0.2439
2289.00,0.2436
2288.00,0.2433
2287.00,0.2430
2286.00,0.2427
2285.00,0.2424
2284.00,0.2421
2283.00,0.2419
2282.00,0.2416
2281.00,0.2413
2280.00,0.2410
2279.00,0.2407
2278.00,0.2405
2277.00,0.2403
2276.00,0.2400
2275.00,0.2398
2274.00,0.2396
2273.00,0.2395
2272.00,0.2393
2271.00,0.2392
2270.00,0.2390
2269.00,0.2389
2268.00,0.2387
2267.00,0.2385
2266.00,0.2383
2265.00,0.2381
2264.00,0.2379
2263.00,0.2376
2262.00,0.2373
2261.00,0.2370
2260.00,0.2368
2259.00,0.2364
2258.00,0.2361
2257.00,0.2358
2256.00,0.2356
2255.00,0.2353
2254.00,0.2350
2253.00,0.2347
2252.00,0.2344
2251.00,0.2341
2250.00,0.2338
2249.00,0.2336
2248.00,0.2334
2247.00,0.2332
2246.00,0.2331
2245.00,0.2329
2244.00,0.2328
2243.00,0.2326
2242.00,0.2325
2241.00,0.2323
2240.00,0.2322
2239.00,0.2321
2238.00,0.2320
2237.00,0.2320
2236.00,0.2320
2235.00,0.2319
2234.00,0.2318
2233.00,0.2317
2232.00,0.2316
2231.00,0.2316
2230.00,0.2315
2229.00,0.2314
2228.00,0.2313
2227.00,0.2311
2226.00,0.2310
2225.00,0.2309
2224.00,0.2308
2223.00,0.2306
2222.00,0.2305
2221.00,0.2303
2220.00,0.2302
2219.00,0.2301
2218.00,0.2299
2217.00,0.2297
2216.00,0.2296
2215.00,0.2294
2214.00,0.2293
2213.00,0.2292
2212.00,0.2292
2211.00,0.2291
2210.00,0.2291
2209.00,0.2290
2208.00,0.2290
2207.00,0.2290
2206.00,0.2290
2205.00,0.2290
2204.00,0.2291
2203.00,0.2291
2202.00,0.2291
2201.00,0.2291
2200.00,0.2292
2199.00,0.2292
2198.00,0.2292
2197.00,0.2294
2196.00,0.2295
2195.00,0.2296
2194.00,0.2296
2193.00,0.2296
2192.00,0.2296
2191.00,0.2297
2190.00,0.2296
2189.00,0.2296
2188.00,0.2296
2187.00,0.2295
2186.00,0.2294
2185.00,0.2294
2184.00,0.2293
2183.00,0.2292
2182.00,0.2291
2181.00,0.2289
2180.00,0.2288
2179.00,0.2286
2178.00,0.2284
2177.00,0.2283
2176.00,0.2281
2175.00,0.2280
2174.00,0.2278
2173.00,0.2277
2172.00,0.2276
2171.00,0.2275
2170.00,0.2274
2169.00,0.2273
2168.00,0.2272
2167.00,0.2271
2166.00,0.2270
2165.00,0.2269
2164.00,0.2269
2163.00,0.2268
2162.00,0.2267
2161.00,0.2266
2160.00,0.2265
2159.00,0.2264
2158.00,0.2263
2157.00,0.2262
2156.00,0.2261
2155.00,0.2260
2154.00,0.2258
2153.00,0.2257
2152.00,0.2255
2151.00,0.2253
2150.00,0.2250
2149.00,0.2247
2148.00,0.2244
2147.00,0.2240
2146.00,0.2236
2145.00,0.2231
2144.00,0.2227
2143.00,0.2222
2142.00,0.2218
2141.00,0.2213
2140.00,0.2209
2139.00,0.2206
2138.00,0.2202
2137.00,0.2200
2136.00,0.2198
2135.00,0.2195
2134.00,0.2193
2133.00,0.2191
2132.00,0.2190
2131.00,0.2188
2130.00,0.2186
2129.00,0.2185
2128.00,0.2185
2127.00,0.2184
2126.00,0.2182
2125.00,0.2181
2124.00,0.2180
2123.00,0.2180
2122.00,0.2179
2121.00,0.2178
2120.00,0.2178
2119.00,0.2177
2118.00,0.2176
2117.00,0.2175
2116.00,0.2174
2115.00,0.2173
2114.00,0.2172
2113.00,0.2171
2112.00,0.2170
2111.00,0.2169
2110.00,0.2167
2109.00,0.2166
2108.00,0.2165
2107.00,0.2163
2106.00,0.2162
2105.00,0.2161
2104.00,0.2160
2103.00,0.2159
2102.00,0.2158
2101.00,0.2157
2100.00,0.2157
2099.00,0.2156
2098.00,0.2156
2097.00,0.2155
2096.00,0.2155
2095.00,0.2155
2094.00,0.2154
2093.00,0.2154
2092.00,0.2155
2091.00,0.2154
2090.00,0.2154
2089.00,0.2154
2088.00,0.2154
2087.00,0.2155
2086.00,0.2155
2085.00,0.2156
2084.00,0.2157
2083.00,0.2157
2082.00,0.2156
2081.00,0.2157
2080.00,0.2157
2079.00,0.2157
2078.00,0.2157
2077.00,0.2158
2076.00,0.2158
2075.00,0.2158
2074.00,0.2158
2073.00,0.2158
2072.00,0.2158
2071.00,0.2158
2070.00,0.2158
2069.00,0.2158
2068.00,0.2159
2067.00,0.2159
2066.00,0.2160
2065.00,0.2161
2064.00,0.2162
2063.00,0.2163
2062.00,0.2164
2061.00,0.2165
2060.00,0.2165
2059.00,0.2166
2058.00,0.2167
2057.00,0.2168
2056.00,0.2170
2055.00,0.2171
2054.00,0.2173
2053.00,0.2174
2052.00,0.2175
2051.00,0.2176
2050.00,0.2177
2049.00,0.2179
2048.00,0.2181
2047.00,0.2183
2046.00,0.2185
2045.00,0.2187
2044.00,0.2189
2043.00,0.2191
2042.00,0.2192
2041.00,0.2193
2040.00,0.2194
2039.00,0.2195
2038.00,0.2196
2037.00,0.2197
2036.00,0.2198
2035.00,0.2198
2034.00,0.2198
2033.00,0.2198
2032.00,0.2198
2031.00,0.2198
2030.00,0.2198
2029.00,0.2198
2028.00,0.2197
2027.00,0.2197
2026.00,0.2195
2025.00,0.2194
2024.00,0.2192
2023.00,0.2190
2022.00,0.2187
2021.00,0.2184
2020.00,0.2181
2019.00,0.2176
2018.00,0.2171
2017.00,0.2165
2016.00,0.2160
2015.00,0.2154
2014.00,0.2149
2013.00,0.2144
2012.00,0.2139
2011.00,0.2134
2010.00,0.2129
2009.00,0.2125
2008.00,0.2122
2007.00,0.2119
2006.00,0.2116
2005.00,0.2114
2004.00,0.2112
2003.00,0.2110
2002.00,0.2108
2001.00,0.2107
2000.00,0.2106
1999.00,0.2104
1998.00,0.2103
1997.00,0.2102
1996.00,0.2101
1995.00,0.2100
1994.00,0.2099
1993.00,0.2098
1992.00,0.2097
1991.00,0.2096
1990.00,0.2095
1989.00,0.2095
1988.00,0.2094
1987.00,0.2093
1986.00,0.2092
1985.00,0.2092
1984.00,0.2092
1983.00,0.2091
1982.00,0.2090
1981.00,0.2089
1980.00,0.2089
1979.00,0.2088
1978.00,0.2087
1977.00,0.2087
1976.00,0.2088
1975.00,0.2088
1974.00,0.2087
1973.00,0.2087
1972.00,0.2087
1971.00,0.2087
1970.00,0.2087
1969.00,0.2088
1968.00,0.2089
1967.00,0.2089
1966.00,0.2090
1965.00,0.2090
1964.00,0.2091
1963.00,0.2091
1962.00,0.2092
1961.00,0.2092
1960.00,0.2094
1959.00,0.2095
1958.00,0.2096
1957.00,0.2097
1956.00,0.2099
1955.00,0.2101
1954.00,0.2102
1953.00,0.2103
1952.00,0.2104
1951.00,0.2104
1950.00,0.2105
1949.00,0.2105
1948.00,0.2106
1947.00,0.2107
1946.00,0.2108
1945.00,0.2111
1944.00,0.2114
1943.00,0.2118
1942.00,0.2122
1941.00,0.2128
1940.00,0.2133
1939.00,0.2137
1938.00,0.2139
1937.00,0.2140
1936.00,0.2139
1935.00,0.2137
1934.00,0.2136
1933.00,0.2135
1932.00,0.2135
1931.00,0.2135
1930.00,0.2136
1929.00,0.2136
1928.00,0.2137
1927.00,0.2138
1926.00,0.2139
1925.00,0.2142
1924.00,0.2145
1923.00,0.2148
1922.00,0.2151
1921.00,0.2155
1920.00,0.2159
1919.00,0.2163
1918.00,0.2166
1917.00,0.2169
1916.00,0.2173
1915.00,0.2175
1914.00,0.2175
1913.00,0.2175
1912.00,0.2175
1911.00,0.2176
1910.00,0.2176
1909.00,0.2177
1908.00,0.2178
1907.00,0.2178
1906.00,0.2177
1905.00,0.2177
1904.00,0.2178
1903.00,0.2178
1902.00,0.2178
1901.00,0.2178
1900.00,0.2180
1899.00,0.2180
1898.00,0.2181
1897.00,0.2183
1896.00,0.2186
1895.00,0.2187
1894.00,0.2189
1893.00,0.2190
1892.00,0.2192
1891.00,0.2193
1890.00,0.2193
1889.00,0.2195
1888.00,0.2197
1887.00,0.2198
1886.00,0.2199
1885.00,0.2200
1884.00,0.2200
1883.00,0.2200
1882.00,0.2199
1881.00,0.2198
1880.00,0.2198
1879.00,0.2197
1878.00,0.2195
1877.00,0.2193
1876.00,0.2192
1875.00,0.2190
1874.00,0.2187
1873.00,0.2185
1872.00,0.2183
1871.00,0.2181
1870.00,0.2178
1869.00,0.2176
1868.00,0.2176
1867.00,0.2176
1866.00,0.2175
1865.00,0.2174
1864.00,0.2172
1863.00,0.2168
1862.00,0.2164
1861.00,0.2162
1860.00,0.2161
1859.00,0.2159
1858.00,0.2156
1857.00,0.2154
1856.00,0.2153
1855.00,0.2151
1854.00,0.2149
1853.00,0.2148
1852.00,0.2147
1851.00,0.2147
1850.00,0.2145
1849.00,0.2144
1848.00,0.2144
1847.00,0.2143
1846.00,0.2140
1845.00,0.2138
1844.00,0.2136
1843.00,0.2136
1842.00,0.2136
1841.00,0.2137
1840.00,0.2137
1839.00,0.2135
1838.00,0.2133
1837.00,0.2131
1836.00,0.2131
1835.00,0.2130
1834.00,0.2129
1833.00,0.2128
1832.00,0.2127
1831.00,0.2125
1830.00,0.2124
1829.00,0.2124
1828.00,0.2125
1827.00,0.2126
1826.00,0.2125
1825.00,0.2124
1824.00,0.2124
1823.00,0.2125
1822.00,0.2126
1821.00,0.2125
1820.00,0.2125
1819.00,0.2124
1818.00,0.2123
1817.00,0.2124
1816.00,0.2126
1815.00,0.2127
1814.00,0.2128
1813.00,0.2130
1812.00,0.2132
1811.00,0.2134
1810.00,0.2135
1809.00,0.2138
1808.00,0.2141
1807.00,0.2143
1806.00,0.2145
1805.00,0.2147
1804.00,0.2151
1803.00,0.2154
1802.00,0.2157
1801.00,0.2163
1800.00,0.2171
1799.00,0.2178
1798.00,0.2184
1797.00,0.2189
1796.00,0.2193
1795.00,0.2195
1794.00,0.2197
1793.00,0.2200
1792.00,0.2205
1791.00,0.2212
1790.00,0.2218
1789.00,0.2223
1788.00,0.2228
1787.00,0.2230
1786.00,0.2232
1785.00,0.2235
1784.00,0.2239
1783.00,0.2244
1782.00,0.2248
1781.00,0.2252
1780.00,0.2256
1779.00,0.2260
1778.00,0.2264
1777.00,0.2268
1776.00,0.2273
1775.00,0.2279
1774.00,0.2284
1773.00,0.2291
1772.00,0.2298
1771.00,0.2306
1770.00,0.2313
1769.00,0.2321
1768.00,0.2330
1767.00,0.2339
1766.00,0.2348
1765.00,0.2358
1764.00,0.2368
1763.00,0.2380
1762.00,0.2393
1761.00,0.2411
1760.00,0.2432
1759.00,0.2453
1758.00,0.2474
1757.00,0.2499
1756.00,0.2527
1755.00,0.2555
1754.00,0.2583
1753.00,0.2612
1752.00,0.2644
1751.00,0.2679
1750.00,0.2715
1749.00,0.2750
1748.00,0.2782
1747.00,0.2808
1746.00,0.2829
1745.00,0.2847
1744.00,0.2863
1743.00,0.2874
1742.00,0.2882
1741.00,0.2887
1740.00,0.2890
1739.00,0.2890
1738.00,0.2888
1737.00,0.2886
1736.00,0.2882
1735.00,0.2872
1734.00,0.2861
1733.00,0.2857
1732.00,0.2855
1731.00,0.2852
1730.00,0.2848
1729.00,0.2847
1728.00,0.2849
1727.00,0.2855
1726.00,0.2865
1725.00,0.2880
1724.00,0.2902
1723.00,0.2930
1722.00,0.2961
1721.00,0.2996
1720.00,0.3039
1719.00,0.3097
1718.00,0.3180
1717.00,0.3287
1716.00,0.3404
1715.00,0.3525
1714.00,0.3654
1713.00,0.3788
1712.00,0.3919
1711.00,0.4044
1710.00,0.4158
1709.00,0.4248
1708.00,0.4304
1707.00,0.4322
1706.00,0.4303
1705.00,0.4248
1704.00,0.4174
1703.00,0.4093
1702.00,0.3994
1701.00,0.3851
1700.00,0.3686
1699.00,0.3555
1698.00,0.3470
1697.00,0.3393
1696.00,0.3301
1695.00,0.3206
1694.00,0.3133
1693.00,0.3084
1692.00,0.3043
1691.00,0.3004
1690.00,0.2966
1689.00,0.2935
1688.00,0.2911
1687.00,0.2894
1686.00,0.2876
1685.00,0.2852
1684.00,0.2827
1683.00,0.2806
1682.00,0.2795
1681.00,0.2788
1680.00,0.2779
1679.00,0.2768
1678.00,0.2758
1677.00,0.2750
1676.00,0.2741
1675.00,0.2734
1674.00,0.2731
1673.00,0.2732
1672.00,0.2731
1671.00,0.2727
1670.00,0.2723
1669.00,0.2722
1668.00,0.2724
1667.00,0.2726
1666.00,0.2727
1665.00,0.2727
1664.00,0.2725
1663.00,0.2724
1662.00,0.2726
1661.00,0.2731
1660.00,0.2735
1659.00,0.2739
1658.00,0.2741
1657.00,0.2745
1656.00,0.2750
1655.00,0.2755
1654.00,0.2762
1653.00,0.2778
1652.00,0.2794
1651.00,0.2802
1650.00,0.2805
1649.00,0.2810
1648.00,0.2818
1647.00,0.2831
1646.00,0.2846
1645.00,0.2863
1644.00,0.2879
1643.00,0.2892
1642.00,0.2904
1641.00,0.2919
1640.00,0.2934
1639.00,0.2949
1638.00,0.2965
1637.00,0.2985
1636.00,0.3010
1635.00,0.3036
1634.00,0.3060
1633.00,0.3084
1632.00,0.3105
1631.00,0.3124
1630.00,0.3143
1629.00,0.3166
1628.00,0.3194
1627.00,0.3222
1626.00,0.3251
1625.00,0.3283
1624.00,0.3323
1623.00,0.3368
1622.00,0.3418
1621.00,0.3471
1620.00,0.3526
1619.00,0.3588
1618.00,0.3664
1617.00,0.3766
1616.00,0.3882
1615.00,0.3989
1614.00,0.4082
1613.00,0.4173
1612.00,0.4269
1611.00,0.4368
1610.00,0.4466
1609.00,0.4567
1608.00,0.4665
1607.00,0.4752
1606.00,0.4827
1605.00,0.4896
1604.00,0.4963
1603.00,0.5027
1602.00,0.5088
1601.00,0.5154
1600.00,0.5229
1599.00,0.5310
1598.00,0.5402
1597.00,0.5517
1596.00,0.5667
1595.00,0.5855
1594.00,0.6089
1593.00,0.6387
1592.00,0.6769
1591.00,0.7250
1590.00,0.7852
1589.00,0.8618
1588.00,0.9601
1587.00,1.0833
1586.00,1.2333
1585.00,1.4146
1584.00,1.6329
1583.00,1.8689
1582.00,2.0370
1581.00,2.0549
1580.00,1.9589
1579.00,1.7945
1578.00,1.5873
1577.00,1.3755
1576.00,1.1951
1575.00,1.0640
1574.00,0.9769
1573.00,0.9184
1572.00,0.8754
1571.00,0.8407
1570.00,0.8145
1569.00,0.8018
1568.00,0.8051
1567.00,0.8230
1566.00,0.8559
1565.00,0.9070
1564.00,0.9744
1563.00,1.0467
1562.00,1.1105
1561.00,1.1567
1560.00,1.1611
1559.00,1.0848
1558.00,0.9721
1557.00,0.8842
1556.00,0.8163
1555.00,0.7513
1554.00,0.6899
1553.00,0.6396
1552.00,0.6022
1551.00,0.5723
1550.00,0.5463
1549.00,0.5249
1548.00,0.5090
1547.00,0.4969
1546.00,0.4865
1545.00,0.4773
1544.00,0.4700
1543.00,0.4642
1542.00,0.4590
1541.00,0.4541
1540.00,0.4492
1539.00,0.4439
1538.00,0.4391
1537.00,0.4357
1536.00,0.4329
1535.00,0.4297
1534.00,0.4262
1533.00,0.4236
1532.00,0.4227
1531.00,0.4228
1530.00,0.4233
1529.00,0.4240
1528.00,0.4249
1527.00,0.4253
1526.00,0.4250
1525.00,0.4247
1524.00,0.4246
1523.00,0.4248
1522.00,0.4254
1521.00,0.4272
1520.00,0.4300
1519.00,0.4329
1518.00,0.4361
1517.00,0.4400
1516.00,0.4438
1515.00,0.4462
1514.00,0.4473
1513.00,0.4478
1512.00,0.4486
1511.00,0.4497
1510.00,0.4515
1509.00,0.4550
1508.00,0.4614
1507.00,0.4714
1506.00,0.4834
1505.00,0.4948
1504.00,0.5045
1503.00,0.5124
1502.00,0.5196
1501.00,0.5268
1500.00,0.5340
1499.00,0.5409
1498.00,0.5483
1497.00,0.5578
1496.00,0.5690
1495.00,0.5798
1494.00,0.5899
1493.00,0.6006
1492.00,0.6128
1491.00,0.6267
1490.00,0.6431
1489.00,0.6620
1488.00,0.6823
1487.00,0.7031
1486.00,0.7260
1485.00,0.7525
1484.00,0.7831
1483.00,0.8183
1482.00,0.8604
1481.00,0.9108
1480.00,0.9673
1479.00,1.0280
1478.00,1.0966
1477.00,1.1795
1476.00,1.2778
1475.00,1.3894
1474.00,1.5231
1473.00,1.7019
1472.00,1.9398
1471.00,2.2194
1470.00,2.5185
1469.00,2.8456
1468.00,3.1788
1467.00,3.3766
1466.00,3.5658
1465.00,3.9548
1464.00,3.9687
1463.00,3.7721
1462.00,3.6697
1461.00,3.7827
1460.00,3.9466
1459.00,3.6691
1458.00,3.6070
1457.00,4.0684
1456.00,4.1449
1455.00,3.9296
1454.00,3.8018
1453.00,3.8251
1452.00,3.8046
1451.00,3.5174
1450.00,3.4173
1449.00,3.4983
1448.00,3.4263
1447.00,3.1385
1446.00,2.9272
1445.00,2.7777
1444.00,2.6157
1443.00,2.4477
1442.00,2.3065
1441.00,2.1883
1440.00,2.0748
1439.00,1.9587
1438.00,1.8387
1437.00,1.7125
1436.00,1.5895
1435.00,1.4836
1434.00,1.3944
1433.00,1.3114
1432.00,1.2281
1431.00,1.1469
1430.00,1.0727
1429.00,1.0090
1428.00,0.9570
1427.00,0.9161
1426.00,0.8832
1425.00,0.8548
1424.00,0.8306
1423.00,0.8119
1422.00,0.7983
1421.00,0.7871
1420.00,0.7762
1419.00,0.7660
1418.00,0.7574
1417.00,0.7503
1416.00,0.7447
1415.00,0.7404
1414.00,0.7372
1413.00,0.7346
1412.00,0.7329
1411.00,0.7321
1410.00,0.7312
1409.00,0.7289
1408.00,0.7244
1407.00,0.7174
1406.00,0.7075
1405.00,0.6946
1404.00,0.6808
1403.00,0.6681
1402.00,0.6571
1401.00,0.6469
1400.00,0.6377
1399.00,0.6305
1398.00,0.6260
1397.00,0.6238
1396.00,0.6243
1395.00,0.6285
1394.00,0.6369
1393.00,0.6498
1392.00,0.6684
1391.00,0.6951
1390.00,0.7318
1389.00,0.7823
1388.00,0.8512
1387.00,0.9399
1386.00,1.0416
1385.00,1.1468
1384.00,1.2538
1383.00,1.3674
1382.00,1.4919
1381.00,1.6301
1380.00,1.7848
1379.00,1.9481
1378.00,2.0830
1377.00,2.1374
1376.00,2.0915
1375.00,1.9639
1374.00,1.7969
1373.00,1.6372
1372.00,1.5071
1371.00,1.4073
1370.00,1.3333
1369.00,1.2831
1368.00,1.2524
1367.00,1.2311
1366.00,1.2041
1365.00,1.1599
1364.00,1.0973
1363.00,1.0255
1362.00,0.9581
1361.00,0.9034
1360.00,0.8624
1359.00,0.8324
1358.00,0.8104
1357.00,0.7945
1356.00,0.7837
1355.00,0.7769
1354.00,0.7731
1353.00,0.7710
1352.00,0.7694
1351.00,0.7676
1350.00,0.7652
1349.00,0.7621
1348.00,0.7587
1347.00,0.7556
1346.00,0.7530
1345.00,0.7509
1344.00,0.7491
1343.00,0.7473
1342.00,0.7447
1341.00,0.7402
1340.00,0.7334
1339.00,0.7242
1338.00,0.7130
1337.00,0.7000
1336.00,0.6860
1335.00,0.6716
1334.00,0.6576
1333.00,0.6446
1332.00,0.6331
1331.00,0.6233
1330.00,0.6156
1329.00,0.6096
1328.00,0.6052
1327.00,0.6022
1326.00,0.6004
1325.00,0.5997
1324.00,0.5996
1323.00,0.6000
1322.00,0.6007
1321.00,0.6014
1320.00,0.6020
1319.00,0.6029
1318.00,0.6044
1317.00,0.6063
1316.00,0.6086
1315.00,0.6115
1314.00,0.6148
1313.00,0.6186
1312.00,0.6226
1311.00,0.6266
1310.00,0.6303
1309.00,0.6336
1308.00,0.6362
1307.00,0.6382
1306.00,0.6394
1305.00,0.6393
1304.00,0.6378
1303.00,0.6351
1302.00,0.6313
1301.00,0.6267
1300.00,0.6215
1299.00,0.6161
1298.00,0.6106
1297.00,0.6051
1296.00,0.5997
1295.00,0.5948
1294.00,0.5905
1293.00,0.5865
1292.00,0.5828
1291.00,0.5793
1290.00,0.5758
1289.00,0.5723
1288.00,0.5690
1287.00,0.5657
1286.00,0.5622
1285.00,0.5582
1284.00,0.5540
1283.00,0.5499
1282.00,0.5463
1281.00,0.5432
1280.00,0.5405
1279.00,0.5381
1278.00,0.5359
1277.00,0.5336
1276.00,0.5311
1275.00,0.5287
1274.00,0.5266
1273.00,0.5247
1272.00,0.5233
1271.00,0.5223
1270.00,0.5218
1269.00,0.5210
1268.00,0.5195
1267.00,0.5169
1266.00,0.5132
1265.00,0.5089
1264.00,0.5046
1263.00,0.5010
1262.00,0.4981
1261.00,0.4959
1260.00,0.4941
1259.00,0.4927
1258.00,0.4913
1257.00,0.4897
1256.00,0.4878
1255.00,0.4859
1254.00,0.4841
1253.00,0.4826
1252.00,0.4813
1251.00,0.4802
1250.00,0.4792
1249.00,0.4779
1248.00,0.4762
1247.00,0.4742
1246.00,0.4720
1245.00,0.4693
1244.00,0.4663
1243.00,0.4631
1242.00,0.4598
1241.00,0.4564
1240.00,0.4532
1239.00,0.4505
1238.00,0.4483
1237.00,0.4464
1236.00,0.4449
1235.00,0.4439
1234.00,0.4435
1233.00,0.4436
1232.00,0.4440
1231.00,0.4448
1230.00,0.4455
1229.00,0.4456
1228.00,0.4448
1227.00,0.4429
1226.00,0.4402
1225.00,0.4369
1224.00,0.4336
1223.00,0.4307
1222.00,0.4286
1221.00,0.4268
1220.00,0.4254
1219.00,0.4244
1218.00,0.4240
1217.00,0.4241
1216.00,0.4246
1215.00,0.4256
1214.00,0.4266
1213.00,0.4272
1212.00,0.4271
1211.00,0.4264
1210.00,0.4253
1209.00,0.4239
1208.00,0.4224
1207.00,0.4210
1206.00,0.4195
1205.00,0.4179
1204.00,0.4162
1203.00,0.4146
1202.00,0.4131
1201.00,0.4119
1200.00,0.4109
1199.00,0.4104
1198.00,0.4101
1197.00,0.4097
1196.00,0.4090
1195.00,0.4083
1194.00,0.4076
1193.00,0.4068
1192.00,0.4061
1191.00,0.4056
1190.00,0.4051
1189.00,0.4046
1188.00,0.4040
1187.00,0.4034
1186.00,0.4030
1185.00,0.4025
1184.00,0.4020
1183.00,0.4018
1182.00,0.4018
1181.00,0.4020
1180.00,0.4025
1179.00,0.4032
1178.00,0.4044
1177.00,0.4059
1176.00,0.4079
1175.00,0.4108
1174.00,0.4145
1173.00,0.4190
1172.00,0.4237
1171.00,0.4281
1170.00,0.4313
1169.00,0.4329
1168.00,0.4328
1167.00,0.4316
1166.00,0.4299
1165.00,0.4283
1164.00,0.4274
1163.00,0.4272
1162.00,0.4278
1161.00,0.4288
1160.00,0.4301
1159.00,0.4316
1158.00,0.4332
1157.00,0.4344
1156.00,0.4349
1155.00,0.4349
1154.00,0.4342
1153.00,0.4328
1152.00,0.4309
1151.00,0.4286
1150.00,0.4263
1149.00,0.4238
1148.00,0.4214
1147.00,0.4194
1146.00,0.4177
1145.00,0.4164
1144.00,0.4157
1143.00,0.4158
1142.00,0.4169
1141.00,0.4189
1140.00,0.4220
1139.00,0.4263
1138.00,0.4319
1137.00,0.4387
1136.00,0.4464
1135.00,0.4546
1134.00,0.4621
1133.00,0.4668
1132.00,0.4673
1131.00,0.4634
1130.00,0.4563
1129.00,0.4480
1128.00,0.4404
1127.00,0.4344
1126.00,0.4302
1125.00,0.4273
1124.00,0.4252
1123.00,0.4235
1122.00,0.4221
1121.00,0.4206
1120.00,0.4193
1119.00,0.4190
1118.00,0.4199
1117.00,0.4221
1116.00,0.4253
1115.00,0.4287
1114.00,0.4307
1113.00,0.4301
1112.00,0.4265
1111.00,0.4207
1110.00,0.4141
1109.00,0.4080
1108.00,0.4031
1107.00,0.3997
1106.00,0.3977
1105.00,0.3966
1104.00,0.3960
1103.00,0.3956
1102.00,0.3952
1101.00,0.3946
1100.00,0.3937
1099.00,0.3927
1098.00,0.3917
1097.00,0.3906
1096.00,0.3896
1095.00,0.3890
1094.00,0.3890
1093.00,0.3893
1092.00,0.3900
1091.00,0.3908
1090.00,0.3920
1089.00,0.3935
1088.00,0.3956
1087.00,0.3986
1086.00,0.4024
1085.00,0.4068
1084.00,0.4119
1083.00,0.4178
1082.00,0.4244
1081.00,0.4317
1080.00,0.4391
1079.00,0.4461
1078.00,0.4515
1077.00,0.4544
1076.00,0.4541
1075.00,0.4509
1074.00,0.4457
1073.00,0.4395
1072.00,0.4332
1071.00,0.4277
1070.00,0.4234
1069.00,0.4201
1068.00,0.4176
1067.00,0.4158
1066.00,0.4146
1065.00,0.4137
1064.00,0.4131
1063.00,0.4129
1062.00,0.4132
1061.00,0.4136
1060.00,0.4141
1059.00,0.4146
1058.00,0.4148
1057.00,0.4146
1056.00,0.4139
1055.00,0.4130
1054.00,0.4122
1053.00,0.4116
1052.00,0.4115
1051.00,0.4124
1050.00,0.4140
1049.00,0.4159
1048.00,0.4178
1047.00,0.4197
1046.00,0.4212
1045.00,0.4220
1044.00,0.4220
1043.00,0.4216
1042.00,0.4211
1041.00,0.4207
1040.00,0.4204
1039.00,0.4201
1038.00,0.4196
1037.00,0.4189
1036.00,0.4183
1035.00,0.4184
1034.00,0.4192
1033.00,0.4206
1032.00,0.4224
1031.00,0.4244
1030.00,0.4261
1029.00,0.4270
1028.00,0.4266
1027.00,0.4249
1026.00,0.4219
1025.00,0.4175
1024.00,0.4122
1023.00,0.4067
1022.00,0.4015
1021.00,0.3967
1020.00,0.3923
1019.00,0.3885
1018.00,0.3852
1017.00,0.3824
1016.00,0.3800
1015.00,0.3778
1014.00,0.3759
1013.00,0.3741
1012.00,0.3726
1011.00,0.3716
1010.00,0.3710
1009.00,0.3709
1008.00,0.3711
1007.00,0.3717
1006.00,0.3728
1005.00,0.3742
1004.00,0.3760
1003.00,0.3779
1002.00,0.3800
1001.00,0.3818
1000.00,0.3832
999.00,0.3843
998.00,0.3849
997.00,0.3845
996.00,0.3830
995.00,0.3809
994.00,0.3785
993.00,0.3759
992.00,0.3731
991.00,0.3701
990.00,0.3671
989.00,0.3645
988.00,0.3624
987.00,0.3613
986.00,0.3612
985.00,0.3619
984.00,0.3632
983.00,0.3650
982.00,0.3670
981.00,0.3693
980.00,0.3718
979.00,0.3744
978.00,0.3768
977.00,0.3788
976.00,0.3803
975.00,0.3814
974.00,0.3821
973.00,0.3824
972.00,0.3826
971.00,0.3827
970.00,0.3828
969.00,0.3827
968.00,0.3826
967.00,0.3824
966.00,0.3820
965.00,0.3814
964.00,0.3803
963.00,0.3791
962.00,0.3777
961.00,0.3764
960.00,0.3751
959.00,0.3742
958.00,0.3737
957.00,0.3735
956.00,0.3733
955.00,0.3730
954.00,0.3723
953.00,0.3713
952.00,0.3701
951.00,0.3692
950.00,0.3686
949.00,0.3684
948.00,0.3685
947.00,0.3689
946.00,0.3697
945.00,0.3707
944.00,0.3720
943.00,0.3737
942.00,0.3754
941.00,0.3770
940.00,0.3783
939.00,0.3793
938.00,0.3798
937.00,0.3798
936.00,0.3790
935.00,0.3777
934.00,0.3759
933.00,0.3737
932.00,0.3712
931.00,0.3687
930.00,0.3666
929.00,0.3651
928.00,0.3643
927.00,0.3646
926.00,0.3660
925.00,0.3687
924.00,0.3728
923.00,0.3778
922.00,0.3827
921.00,0.3858
920.00,0.3860
919.00,0.3826
918.00,0.3763
917.00,0.3683
916.00,0.3598
915.00,0.3520
914.00,0.3455
913.00,0.3403
912.00,0.3364
911.00,0.3334
910.00,0.3312
909.00,0.3294
908.00,0.3280
907.00,0.3269
906.00,0.3263
905.00,0.3260
904.00,0.3260
903.00,0.3265
902.00,0.3277
901.00,0.3295
900.00,0.3319
899.00,0.3347
898.00,0.3380
897.00,0.3414
896.00,0.3450
895.00,0.3488
894.00,0.3528
893.00,0.3569
892.00,0.3610
891.00,0.3646
890.00,0.3674
889.00,0.3688
888.00,0.3689
887.00,0.3677
886.00,0.3659
885.00,0.3639
884.00,0.3622
883.00,0.3611
882.00,0.3609
881.00,0.3617
880.00,0.3631
879.00,0.3648
878.00,0.3661
877.00,0.3664
876.00,0.3661
875.00,0.3655
874.00,0.3651
873.00,0.3651
872.00,0.3655
871.00,0.3663
870.00,0.3675
869.00,0.3690
868.00,0.3708
867.00,0.3731
866.00,0.3761
865.00,0.3796
864.00,0.3832
863.00,0.3862
862.00,0.3873
861.00,0.3855
860.00,0.3806
859.00,0.3740
858.00,0.3673
857.00,0.3615
856.00,0.3572
855.00,0.3540
854.00,0.3517
853.00,0.3499
852.00,0.3484
851.00,0.3470
850.00,0.3456
849.00,0.3437
848.00,0.3414
847.00,0.3389
846.00,0.3362
845.00,0.3337
844.00,0.3313
843.00,0.3295
842.00,0.3286
841.00,0.3293
840.00,0.3318
839.00,0.3363
838.00,0.3423
837.00,0.3486
836.00,0.3532
835.00,0.3546
834.00,0.3526
833.00,0.3484
832.00,0.3440
831.00,0.3411
830.00,0.3404
829.00,0.3419
828.00,0.3449
827.00,0.3491
826.00,0.3539
825.00,0.3593
824.00,0.3651
823.00,0.3716
822.00,0.3786
821.00,0.3857
820.00,0.3924
819.00,0.3987
818.00,0.4042
817.00,0.4085
816.00,0.4110
815.00,0.4114
814.00,0.4096
813.00,0.4060
812.00,0.4011
811.00,0.3954
810.00,0.3895
809.00,0.3835
808.00,0.3778
807.00,0.3728
806.00,0.3682
805.00,0.3635
804.00,0.3584
803.00,0.3528
802.00,0.3471
801.00,0.3414
800.00,0.3362
799.00,0.3319
798.00,0.3287
797.00,0.3268
796.00,0.3257
795.00,0.3252
794.00,0.3250
793.00,0.3251
792.00,0.3258
791.00,0.3274
790.00,0.3297
789.00,0.3324
788.00,0.3353
787.00,0.3385
786.00,0.3421
785.00,0.3462
784.00,0.3506
783.00,0.3550
782.00,0.3590
781.00,0.3620
780.00,0.3641
779.00,0.3658
778.00,0.3675
777.00,0.3693
776.00,0.3714
775.00,0.3736
774.00,0.3758
773.00,0.3778
772.00,0.3799
771.00,0.3822
770.00,0.3850
769.00,0.3882
768.00,0.3916
767.00,0.3947
766.00,0.3973
765.00,0.3991
764.00,0.4003
763.00,0.4019
762.00,0.4043
761.00,0.4076
760.00,0.4115
759.00,0.4158
758.00,0.4198
757.00,0.4232
756.00,0.4259
755.00,0.4284
754.00,0.4315
753.00,0.4353
752.00,0.4398
751.00,0.4446
750.00,0.4493
749.00,0.4537
748.00,0.4575
747.00,0.4611
746.00,0.4649
745.00,0.4689
744.00,0.4734
743.00,0.4785
742.00,0.4838
741.00,0.4890
740.00,0.4938
739.00,0.4980
738.00,0.5019
737.00,0.5054
736.00,0.5091
735.00,0.5134
734.00,0.5188
733.00,0.5251
732.00,0.5326
731.00,0.5418
730.00,0.5537
729.00,0.5686
728.00,0.5870
727.00,0.6091
726.00,0.6349
725.00,0.6637
724.00,0.6928
723.00,0.7175
722.00,0.7300
721.00,0.7227
720.00,0.6944
719.00,0.6522
718.00,0.6060
717.00,0.5629
716.00,0.5260
715.00,0.4962
714.00,0.4728
713.00,0.4542
712.00,0.4388
711.00,0.4261
710.00,0.4156
709.00,0.4070
708.00,0.4001
707.00,0.3945
706.00,0.3899
705.00,0.3859
704.00,0.3823
703.00,0.3795
702.00,0.3779
701.00,0.3771
700.00,0.3755
699.00,0.3709
698.00,0.3615
697.00,0.3477
696.00,0.3319
695.00,0.3169
694.00,0.3046
693.00,0.2953
692.00,0.2885
691.00,0.2835
690.00,0.2798
689.00,0.2767
688.00,0.2742
687.00,0.2724
686.00,0.2712
685.00,0.2703
684.00,0.2695
683.00,0.2688
682.00,0.2684
681.00,0.2681
680.00,0.2680
679.00,0.2679
678.00,0.2680
677.00,0.2681
676.00,0.2680
675.00,0.2682
674.00,0.2684
673.00,0.2686
672.00,0.2686
671.00,0.2686
670.00,0.2687
669.00,0.2689
668.00,0.2691
667.00,0.2693
666.00,0.2699
665.00,0.2707
664.00,0.2716
663.00,0.2726
662.00,0.2738
661.00,0.2750
660.00,0.2759
659.00,0.2766
658.00,0.2776
657.00,0.2787
656.00,0.2800
655.00,0.2812
654.00,0.2822
653.00,0.2832
652.00,0.2841
651.00,0.2850
650.00,0.2859
649.00,0.2868
648.00,0.2880
647.00,0.2895
646.00,0.2911
645.00,0.2926
644.00,0.2938
643.00,0.2951
642.00,0.2964
641.00,0.2976
640.00,0.2985
639.00,0.2994
638.00,0.3003
637.00,0.3012
636.00,0.3021
635.00,0.3029
634.00,0.3035
633.00,0.3040
632.00,0.3046
631.00,0.3053
630.00,0.3063
629.00,0.3073
628.00,0.3085
627.00,0.3102
626.00,0.3123
625.00,0.3147
624.00,0.3171
623.00,0.3194
622.00,0.3216
621.00,0.3233
620.00,0.3245
619.00,0.3254
618.00,0.3263
617.00,0.3271
616.00,0.3276
615.00,0.3276
614.00,0.3271
613.00,0.3262
612.00,0.3251
611.00,0.3241
610.00,0.3231
609.00,0.3218
608.00,0.3203
607.00,0.3189
606.00,0.3177
605.00,0.3166
604.00,0.3156
603.00,0.3149
602.00,0.3145
601.00,0.3143
600.00,0.3142
599.00,0.3146
598.00,0.3153
597.00,0.3164
596.00,0.3175
595.00,0.3189
594.00,0.3205
593.00,0.3221
592.00,0.3236
591.00,0.3251
590.00,0.3270
589.00,0.3290
588.00,0.3311
587.00,0.3334
586.00,0.3358
585.00,0.3382
584.00,0.3407
583.00,0.3432
582.00,0.3458
581.00,0.3486
580.00,0.3514
579.00,0.3542
578.00,0.3569
577.00,0.3592
576.00,0.3614
575.00,0.3635
574.00,0.3658
573.00,0.3679
572.00,0.3699
571.00,0.3716
570.00,0.3732
569.00,0.3746
568.00,0.3760
567.00,0.3774
566.00,0.3789
565.00,0.3800
564.00,0.3809
563.00,0.3817
562.00,0.3827
561.00,0.3835
560.00,0.3844
559.00,0.3855
558.00,0.3869
557.00,0.3885
556.00,0.3898
555.00,0.3909
554.00,0.3918
553.00,0.3929
552.00,0.3939
551.00,0.3949
550.00,0.3958
