Created as New Dataset,
cm-1,A
4000.00,0.3734
3999.00,0.3730
3998.00,0.3726
3997.00,0.3722
3996.00,0.3718
3995.00,0.3714
3994.00,0.3711
3993.00,0.3707
3992.00,0.3704
3991.00,0.3700
3990.00,0.3697
3989.00,0.3694
3988.00,0.3691
3987.00,0.3688
3986.00,0.3685
3985.00,0.3682
3984.00,0.3679
3983.00,0.3675
3982.00,0.3673
3981.00,0.3670
3980.00,0.3669
3979.00,0.3667
3978.00,0.3666
3977.00,0.3664
3976.00,0.3661
3975.00,0.3657
3974.00,0.3654
3973.00,0.3651
3972.00,0.3649
3971.00,0.3647
3970.00,0.3644
3969.00,0.3641
3968.00,0.3639
3967.00,0.3637
3966.00,0.3635
3965.00,0.3633
3964.00,0.3630
3963.00,0.3626
3962.00,0.3623
3961.00,0.3621
3960.00,0.3618
3959.00,0.3616
3958.00,0.3615
3957.00,0.3613
3956.00,0.3611
3955.00,0.3609
3954.00,0.3608
3953.00,0.3607
3952.00,0.3605
3951.00,0.3603
3950.00,0.3602
3949.00,0.3600
3948.00,0.3599
3947.00,0.3599
3946.00,0.3598
3945.00,0.3598
3944.00,0.3597
3943.00,0.3596
3942.00,0.3595
3941.00,0.3594
3940.00,0.3594
3939.00,0.3594
3938.00,0.3594
3937.00,0.3594
3936.00,0.3594
3935.00,0.3594
3934.00,0.3594
3933.00,0.3593
3932.00,0.3593
3931.00,0.3592
3930.00,0.3591
3929.00,0.3591
3928.00,0.3591
3927.00,0.3590
3926.00,0.3590
3925.00,0.3589
3924.00,0.3588
3923.00,0.3587
3922.00,0.3587
3921.00,0.3585
3920.00,0.3583
3919.00,0.3582
3918.00,0.3581
3917.00,0.3581
3916.00,0.3582
3915.00,0.3581
3914.00,0.3580
3913.00,0.3578
3912.00,0.3576
3911.00,0.3575
3910.00,0.3575
3909.00,0.3576
3908.00,0.3577
3907.00,0.3579
3906.00,0.3581
3905.00,0.3583
3904.00,0.3584
3903.00,0.3585
3902.00,0.3587
3901.00,0.3588
3900.00,0.3588
3899.00,0.3587
3898.00,0.3585
3897.00,0.3583
3896.00,0.3582
3895.00,0.3581
3894.00,0.3580
3893.00,0.3578
3892.00,0.3576
3891.00,0.3573
3890.00,0.3572
3889.00,0.3571
3888.00,0.3571
3887.00,0.3572
3886.00,0.3572
3885.00,0.3571
3884.00,0.3569
3883.00,0.3568
3882.00,0.3568
3881.00,0.3567
3880.00,0.3565
3879.00,0.3563
3878.00,0.3562
3877.00,0.3561
3876.00,0.3560
3875.00,0.3560
3874.00,0.3559
3873.00,0.3558
3872.00,0.3557
3871.00,0.3558
3870.00,0.3558
3869.00,0.3558
3868.00,0.3558
3867.00,0.3558
3866.00,0.3558
3865.00,0.3558
3864.00,0.3555
3863.00,0.3553
3862.00,0.3550
3861.00,0.3548
3860.00,0.3548
3859.00,0.3548
3858.00,0.3548
3857.00,0.3549
3856.00,0.3550
3855.00,0.3551
3854.00,0.3551
3853.00,0.3552
3852.00,0.3552
3851.00,0.3551
3850.00,0.3548
3849.00,0.3545
3848.00,0.3541
3847.00,0.3538
3846.00,0.3535
3845.00,0.3534
3844.00,0.3533
3843.00,0.3533
3842.00,0.3533
3841.00,0.3534
3840.00,0.3534
3839.00,0.3534
3838.00,0.3535
3837.00,0.3535
3836.00,0.3535
3835.00,0.3535
3834.00,0.3533
3833.00,0.3532
3832.00,0.3529
3831.00,0.3527
3830.00,0.3524
3829.00,0.3523
3828.00,0.3522
3827.00,0.3521
3826.00,0.3521
3825.00,0.3521
3824.00,0.3521
3823.00,0.3523
3822.00,0.3524
3821.00,0.3525
3820.00,0.3525
3819.00,0.3524
3818.00,0.3524
3817.00,0.3522
3816.00,0.3519
3815.00,0.3514
3814.00,0.3509
3813.00,0.3505
3812.00,0.3502
3811.00,0.3499
3810.00,0.3496
3809.00,0.3494
3808.00,0.3493
3807.00,0.3491
3806.00,0.3490
3805.00,0.3489
3804.00,0.3490
3803.00,0.3490
3802.00,0.3489
3801.00,0.3485
3800.00,0.3481
3799.00,0.3478
3798.00,0.3476
3797.00,0.3475
3796.00,0.3472
3795.00,0.3469
3794.00,0.3466
3793.00,0.3464
3792.00,0.3462
3791.00,0.3460
3790.00,0.3458
3789.00,0.3457
3788.00,0.3455
3787.00,0.3454
3786.00,0.3454
3785.00,0.3453
3784.00,0.3453
3783.00,0.3452
3782.00,0.3452
3781.00,0.3450
3780.00,0.3448
3779.00,0.3446
3778.00,0.3443
3777.00,0.3441
3776.00,0.3438
3775.00,0.3436
3774.00,0.3435
3773.00,0.3433
3772.00,0.3431
3771.00,0.3429
3770.00,0.3427
3769.00,0.3425
3768.00,0.3424
3767.00,0.3424
3766.00,0.3423
3765.00,0.3422
3764.00,0.3420
3763.00,0.3418
3762.00,0.3417
3761.00,0.3415
3760.00,0.3414
3759.00,0.3413
3758.00,0.3412
3757.00,0.3411
3756.00,0.3411
3755.00,0.3411
3754.00,0.3411
3753.00,0.3411
3752.00,0.3411
3751.00,0.3412
3750.00,0.3413
3749.00,0.3414
3748.00,0.3415
3747.00,0.3415
3746.00,0.3415
3745.00,0.3413
3744.00,0.3410
3743.00,0.3407
3742.00,0.3404
3741.00,0.3402
3740.00,0.3399
3739.00,0.3397
3738.00,0.3395
3737.00,0.3394
3736.00,0.3393
3735.00,0.3393
3734.00,0.3392
3733.00,0.3391
3732.00,0.3389
3731.00,0.3385
3730.00,0.3381
3729.00,0.3378
3728.00,0.3374
3727.00,0.3370
3726.00,0.3367
3725.00,0.3365
3724.00,0.3363
3723.00,0.3362
3722.00,0.3361
3721.00,0.3359
3720.00,0.3357
3719.00,0.3355
3718.00,0.3353
3717.00,0.3352
3716.00,0.3352
3715.00,0.3352
3714.00,0.3354
3713.00,0.3355
3712.00,0.3356
3711.00,0.3357
3710.00,0.3358
3709.00,0.3357
3708.00,0.3356
3707.00,0.3354
3706.00,0.3351
3705.00,0.3349
3704.00,0.3348
3703.00,0.3347
3702.00,0.3345
3701.00,0.3344
3700.00,0.3343
3699.00,0.3342
3698.00,0.3342
3697.00,0.3342
3696.00,0.3341
3695.00,0.3341
3694.00,0.3341
3693.00,0.3342
3692.00,0.3344
3691.00,0.3346
3690.00,0.3348
3689.00,0.3350
3688.00,0.3350
3687.00,0.3348
3686.00,0.3346
3685.00,0.3344
3684.00,0.3342
3683.00,0.3340
3682.00,0.3339
3681.00,0.3338
3680.00,0.3338
3679.00,0.3339
3678.00,0.3341
3677.00,0.3343
3676.00,0.3345
3675.00,0.3347
3674.00,0.3347
3673.00,0.3348
3672.00,0.3348
3671.00,0.3348
3670.00,0.3347
3669.00,0.3345
3668.00,0.3343
3667.00,0.3341
3666.00,0.3339
3665.00,0.3337
3664.00,0.3335
3663.00,0.3333
3662.00,0.3332
3661.00,0.3331
3660.00,0.3331
3659.00,0.3332
3658.00,0.3335
3657.00,0.3337
3656.00,0.3340
3655.00,0.3342
3654.00,0.3345
3653.00,0.3347
3652.00,0.3351
3651.00,0.3355
3650.00,0.3358
3649.00,0.3360
3648.00,0.3361
3647.00,0.3362
3646.00,0.3362
3645.00,0.3361
3644.00,0.3359
3643.00,0.3358
3642.00,0.3356
3641.00,0.3355
3640.00,0.3354
3639.00,0.3354
3638.00,0.3355
3637.00,0.3356
3636.00,0.3358
3635.00,0.3360
3634.00,0.3361
3633.00,0.3363
3632.00,0.3366
3631.00,0.3369
3630.00,0.3374
3629.00,0.3378
3628.00,0.3382
3627.00,0.3386
3626.00,0.3389
3625.00,0.3391
3624.00,0.3394
3623.00,0.3395
3622.00,0.3395
3621.00,0.3395
3620.00,0.3394
3619.00,0.3393
3618.00,0.3392
3617.00,0.3391
3616.00,0.3390
3615.00,0.3390
3614.00,0.3390
3613.00,0.3389
3612.00,0.3389
3611.00,0.3390
3610.00,0.3390
3609.00,0.3391
3608.00,0.3390
3607.00,0.3389
3606.00,0.3387
3605.00,0.3385
3604.00,0.3384
3603.00,0.3381
3602.00,0.3378
3601.00,0.3373
3600.00,0.3368
3599.00,0.3363
3598.00,0.3358
3597.00,0.3352
3596.00,0.3346
3595.00,0.3341
3594.00,0.3335
3593.00,0.3331
3592.00,0.3328
3591.00,0.3325
3590.00,0.3322
3589.00,0.3320
3588.00,0.3318
3587.00,0.3317
3586.00,0.3316
3585.00,0.3315
3584.00,0.3315
3583.00,0.3314
3582.00,0.3313
3581.00,0.3312
3580.00,0.3312
3579.00,0.3312
3578.00,0.3312
3577.00,0.3312
3576.00,0.3313
3575.00,0.3313
3574.00,0.3314
3573.00,0.3315
3572.00,0.3316
3571.00,0.3317
3570.00,0.3319
3569.00,0.3320
3568.00,0.3323
3567.00,0.3326
3566.00,0.3328
3565.00,0.3331
3564.00,0.3333
3563.00,0.3334
3562.00,0.3335
3561.00,0.3335
3560.00,0.3336
3559.00,0.3338
3558.00,0.3339
3557.00,0.3341
3556.00,0.3343
3555.00,0.3347
3554.00,0.3350
3553.00,0.3353
3552.00,0.3357
3551.00,0.3361
3550.00,0.3365
3549.00,0.3369
3548.00,0.3373
3547.00,0.3377
3546.00,0.3382
3545.00,0.3387
3544.00,0.3391
3543.00,0.3394
3542.00,0.3398
3541.00,0.3401
3540.00,0.3405
3539.00,0.3408
3538.00,0.3411
3537.00,0.3413
3536.00,0.3415
3535.00,0.3418
3534.00,0.3421
3533.00,0.3424
3532.00,0.3427
3531.00,0.3429
3530.00,0.3432
3529.00,0.3434
3528.00,0.3437
3527.00,0.3440
3526.00,0.3444
3525.00,0.3447
3524.00,0.3450
3523.00,0.3452
3522.00,0.3455
3521.00,0.3458
3520.00,0.3462
3519.00,0.3466
3518.00,0.3469
3517.00,0.3472
3516.00,0.3475
3515.00,0.3479
3514.00,0.3484
3513.00,0.3489
3512.00,0.3494
3511.00,0.3499
3510.00,0.3504
3509.00,0.3510
3508.00,0.3515
3507.00,0.3520
3506.00,0.3524
3505.00,0.3529
3504.00,0.3534
3503.00,0.3539
3502.00,0.3545
3501.00,0.3550
3500.00,0.3555
3499.00,0.3560
3498.00,0.3566
3497.00,0.3571
3496.00,0.3577
3495.00,0.3582
3494.00,0.3589
3493.00,0.3595
3492.00,0.3601
3491.00,0.3608
3490.00,0.3614
3489.00,0.3620
3488.00,0.3627
3487.00,0.3633
3486.00,0.3639
3485.00,0.3645
3484.00,0.3650
3483.00,0.3655
3482.00,0.3660
3481.00,0.3666
3480.00,0.3671
3479.00,0.3677
3478.00,0.3683
3477.00,0.3688
3476.00,0.3694
3475.00,0.3698
3474.00,0.3703
3473.00,0.3707
3472.00,0.3712
3471.00,0.3717
3470.00,0.3722
3469.00,0.3728
3468.00,0.3734
3467.00,0.3740
3466.00,0.3746
3465.00,0.3751
3464.00,0.3756
3463.00,0.3762
3462.00,0.3768
3461.00,0.3773
3460.00,0.3779
3459.00,0.3784
3458.00,0.3789
3457.00,0.3795
3456.00,0.3801
3455.00,0.3808
3454.00,0.3814
3453.00,0.3820
3452.00,0.3825
3451.00,0.3831
3450.00,0.3838
3449.00,0.3845
3448.00,0.3852
3447.00,0.3859
3446.00,0.3866
3445.00,0.3874
3444.00,0.3881
3443.00,0.3888
3442.00,0.3895
3441.00,0.3902
3440.00,0.3909
3439.00,0.3916
3438.00,0.3923
3437.00,0.3930
3436.00,0.3936
3435.00,0.3943
3434.00,0.3950
3433.00,0.3958
3432.00,0.3965
3431.00,0.3973
3430.00,0.3981
3429.00,0.3988
3428.00,0.3996
3427.00,0.4004
3426.00,0.4011
3425.00,0.4019
3424.00,0.4027
3423.00,0.4035
3422.00,0.4044
3421.00,0.4052
3420.00,0.4060
3419.00,0.4068
3418.00,0.4076
3417.00,0.4084
3416.00,0.4092
3415.00,0.4099
3414.00,0.4108
3413.00,0.4117
3412.00,0.4126
3411.00,0.4136
3410.00,0.4145
3409.00,0.4155
3408.00,0.4164
3407.00,0.4173
3406.00,0.4182
3405.00,0.4192
3404.00,0.4203
3403.00,0.4214
3402.00,0.4225
3401.00,0.4236
3400.00,0.4247
3399.00,0.4257
3398.00,0.4267
3397.00,0.4277
3396.00,0.4288
3395.00,0.4298
3394.00,0.4309
3393.00,0.4319
3392.00,0.4329
3391.00,0.4339
3390.00,0.4349
3389.00,0.4360
3388.00,0.4370
3387.00,0.4381
3386.00,0.4392
3385.00,0.4403
3384.00,0.4413
3383.00,0.4424
3382.00,0.4435
3381.00,0.4446
3380.00,0.4458
3379.00,0.4470
3378.00,0.4482
3377.00,0.4494
3376.00,0.4507
3375.00,0.4519
3374.00,0.4532
3373.00,0.4545
3372.00,0.4558
3371.00,0.4571
3370.00,0.4585
3369.00,0.4599
3368.00,0.4614
3367.00,0.4629
3366.00,0.4644
3365.00,0.4658
3364.00,0.4673
3363.00,0.4688
3362.00,0.4703
3361.00,0.4719
3360.00,0.4734
3359.00,0.4750
3358.00,0.4766
3357.00,0.4781
3356.00,0.4797
3355.00,0.4813
3354.00,0.4829
3353.00,0.4846
3352.00,0.4862
3351.00,0.4879
3350.00,0.4896
3349.00,0.4913
3348.00,0.4929
3347.00,0.4944
3346.00,0.4960
3345.00,0.4975
3344.00,0.4989
3343.00,0.5004
3342.00,0.5017
3341.00,0.5031
3340.00,0.5044
3339.00,0.5056
3338.00,0.5068
3337.00,0.5079
3336.00,0.5089
3335.00,0.5099
3334.00,0.5107
3333.00,0.5116
3332.00,0.5123
3331.00,0.5130
3330.00,0.5135
3329.00,0.5140
3328.00,0.5144
3327.00,0.5147
3326.00,0.5149
3325.00,0.5151
3324.00,0.5152
3323.00,0.5153
3322.00,0.5152
3321.00,0.5150
3320.00,0.5146
3319.00,0.5142
3318.00,0.5137
3317.00,0.5131
3316.00,0.5125
3315.00,0.5118
3314.00,0.5111
3313.00,0.5104
3312.00,0.5097
3311.00,0.5089
3310.00,0.5081
3309.00,0.5073
3308.00,0.5064
3307.00,0.5054
3306.00,0.5045
3305.00,0.5036
3304.00,0.5028
3303.00,0.5019
3302.00,0.5011
3301.00,0.5003
3300.00,0.4995
3299.00,0.4987
3298.00,0.4979
3297.00,0.4972
3296.00,0.4966
3295.00,0.4961
3294.00,0.4955
3293.00,0.4950
3292.00,0.4946
3291.00,0.4941
3290.00,0.4936
3289.00,0.4931
3288.00,0.4928
3287.00,0.4926
3286.00,0.4925
3285.00,0.4924
3284.00,0.4923
3283.00,0.4921
3282.00,0.4920
3281.00,0.4919
3280.00,0.4919
3279.00,0.4920
3278.00,0.4922
3277.00,0.4925
3276.00,0.4928
3275.00,0.4931
3274.00,0.4934
3273.00,0.4936
3272.00,0.4939
3271.00,0.4941
3270.00,0.4945
3269.00,0.4948
3268.00,0.4953
3267.00,0.4957
3266.00,0.4962
3265.00,0.4967
3264.00,0.4972
3263.00,0.4977
3262.00,0.4983
3261.00,0.4988
3260.00,0.4993
3259.00,0.4998
3258.00,0.5003
3257.00,0.5009
3256.00,0.5016
3255.00,0.5023
3254.00,0.5029
3253.00,0.5035
3252.00,0.5039
3251.00,0.5044
3250.00,0.5048
3249.00,0.5053
3248.00,0.5058
3247.00,0.5064
3246.00,0.5069
3245.00,0.5073
3244.00,0.5077
3243.00,0.5081
3242.00,0.5084
3241.00,0.5086
3240.00,0.5089
3239.00,0.5092
3238.00,0.5094
3237.00,0.5096
3236.00,0.5098
3235.00,0.5099
3234.00,0.5100
3233.00,0.5101
3232.00,0.5102
3231.00,0.5102
3230.00,0.5103
3229.00,0.5103
3228.00,0.5103
3227.00,0.5103
3226.00,0.5102
3225.00,0.5100
3224.00,0.5100
3223.00,0.5099
3222.00,0.5098
3221.00,0.5096
3220.00,0.5095
3219.00,0.5092
3218.00,0.5090
3217.00,0.5087
3216.00,0.5085
3215.00,0.5083
3214.00,0.5082
3213.00,0.5080
3212.00,0.5078
3211.00,0.5075
3210.00,0.5072
3209.00,0.5069
3208.00,0.5067
3207.00,0.5064
3206.00,0.5060
3205.00,0.5056
3204.00,0.5052
3203.00,0.5049
3202.00,0.5046
3201.00,0.5043
3200.00,0.5039
3199.00,0.5035
3198.00,0.5031
3197.00,0.5027
3196.00,0.5023
3195.00,0.5019
3194.00,0.5015
3193.00,0.5011
3192.00,0.5006
3191.00,0.5000
3190.00,0.4995
3189.00,0.4990
3188.00,0.4985
3187.00,0.4980
3186.00,0.4974
3185.00,0.4967
3184.00,0.4960
3183.00,0.4953
3182.00,0.4948
3181.00,0.4943
3180.00,0.4937
3179.00,0.4931
3178.00,0.4924
3177.00,0.4917
3176.00,0.4909
3175.00,0.4900
3174.00,0.4893
3173.00,0.4886
3172.00,0.4878
3171.00,0.4870
3170.00,0.4862
3169.00,0.4854
3168.00,0.4847
3167.00,0.4839
3166.00,0.4830
3165.00,0.4822
3164.00,0.4813
3163.00,0.4805
3162.00,0.4796
3161.00,0.4787
3160.00,0.4779
3159.00,0.4770
3158.00,0.4763
3157.00,0.4756
3156.00,0.4749
3155.00,0.4742
3154.00,0.4735
3153.00,0.4728
3152.00,0.4721
3151.00,0.4714
3150.00,0.4707
3149.00,0.4700
3148.00,0.4693
3147.00,0.4686
3146.00,0.4679
3145.00,0.4673
3144.00,0.4667
3143.00,0.4662
3142.00,0.4656
3141.00,0.4652
3140.00,0.4647
3139.00,0.4642
3138.00,0.4636
3137.00,0.4631
3136.00,0.4627
3135.00,0.4623
3134.00,0.4619
3133.00,0.4615
3132.00,0.4612
3131.00,0.4608
3130.00,0.4606
3129.00,0.4604
3128.00,0.4603
3127.00,0.4603
3126.00,0.4603
3125.00,0.4603
3124.00,0.4604
3123.00,0.4605
3122.00,0.4606
3121.00,0.4608
3120.00,0.4611
3119.00,0.4614
3118.00,0.4617
3117.00,0.4620
3116.00,0.4623
3115.00,0.4626
3114.00,0.4631
3113.00,0.4636
3112.00,0.4641
3111.00,0.4648
3110.00,0.4655
3109.00,0.4662
3108.00,0.4669
3107.00,0.4676
3106.00,0.4683
3105.00,0.4691
3104.00,0.4699
3103.00,0.4707
3102.00,0.4715
3101.00,0.4724
3100.00,0.4732
3099.00,0.4740
3098.00,0.4749
3097.00,0.4759
3096.00,0.4771
3095.00,0.4784
3094.00,0.4799
3093.00,0.4815
3092.00,0.4834
3091.00,0.4854
3090.00,0.4877
3089.00,0.4901
3088.00,0.4926
3087.00,0.4952
3086.00,0.4979
3085.00,0.5005
3084.00,0.5033
3083.00,0.5062
3082.00,0.5093
3081.00,0.5127
3080.00,0.5162
3079.00,0.5199
3078.00,0.5238
3077.00,0.5279
3076.00,0.5320
3075.00,0.5361
3074.00,0.5403
3073.00,0.5446
3072.00,0.5490
3071.00,0.5533
3070.00,0.5577
3069.00,0.5620
3068.00,0.5663
3067.00,0.5705
3066.00,0.5746
3065.00,0.5787
3064.00,0.5827
3063.00,0.5863
3062.00,0.5896
3061.00,0.5926
3060.00,0.5955
3059.00,0.5982
3058.00,0.6010
3057.00,0.6038
3056.00,0.6065
3055.00,0.6094
3054.00,0.6126
3053.00,0.6160
3052.00,0.6196
3051.00,0.6234
3050.00,0.6273
3049.00,0.6314
3048.00,0.6357
3047.00,0.6402
3046.00,0.6448
3045.00,0.6495
3044.00,0.6541
3043.00,0.6587
3042.00,0.6632
3041.00,0.6678
3040.00,0.6724
3039.00,0.6771
3038.00,0.6819
3037.00,0.6870
3036.00,0.6923
3035.00,0.6981
3034.00,0.7044
3033.00,0.7111
3032.00,0.7183
3031.00,0.7260
3030.00,0.7341
3029.00,0.7426
3028.00,0.7515
3027.00,0.7608
3026.00,0.7704
3025.00,0.7802
3024.00,0.7903
3023.00,0.8007
3022.00,0.8115
3021.00,0.8225
3020.00,0.8339
3019.00,0.8454
3018.00,0.8572
3017.00,0.8693
3016.00,0.8816
3015.00,0.8939
3014.00,0.9061
3013.00,0.9186
3012.00,0.9313
3011.00,0.9446
3010.00,0.9584
3009.00,0.9727
3008.00,0.9876
3007.00,1.0032
3006.00,1.0195
3005.00,1.0365
3004.00,1.0539
3003.00,1.0718
3002.00,1.0901
3001.00,1.1091
3000.00,1.1291
2999.00,1.1502
2998.00,1.1728
2997.00,1.1972
2996.00,1.2239
2995.00,1.2535
2994.00,1.2868
2993.00,1.3241
2992.00,1.3657
2991.00,1.4120
2990.00,1.4635
2989.00,1.5212
2988.00,1.5857
2987.00,1.6577
2986.00,1.7371
2985.00,1.8243
2984.00,1.9204
2983.00,2.0275
2982.00,2.1475
2981.00,2.2800
2980.00,2.4233
2979.00,2.5784
2978.00,2.7519
2977.00,2.9496
2976.00,3.1636
2975.00,3.3573
2974.00,3.4847
2973.00,3.5516
2972.00,3.6055
2971.00,3.6626
2970.00,3.6923
2969.00,3.6908
2968.00,3.6916
2967.00,3.7079
2966.00,3.7103
2965.00,3.6882
2964.00,3.6787
2963.00,3.7001
2962.00,3.7282
2961.00,3.7306
2960.00,3.7162
2959.00,3.7326
2958.00,3.8080
2957.00,3.8885
2956.00,3.9349
2955.00,4.0757
2954.00,4.3252
2953.00,4.5696
2952.00,4.5338
2951.00,4.2206
2950.00,4.0728
2949.00,3.9727
2948.00,3.9957
2947.00,4.0047
2946.00,3.9099
2945.00,3.8400
2944.00,3.8281
2943.00,3.9427
2942.00,4.1346
2941.00,4.1255
2940.00,4.0094
2939.00,3.9566
2938.00,4.0325
2937.00,4.0539
2936.00,3.9923
2935.00,4.0004
2934.00,4.0811
2933.00,4.2402
2932.00,4.3215
2931.00,4.3511
2930.00,4.5256
2929.00,4.4168
2928.00,4.1183
2927.00,3.9264
2926.00,3.8644
2925.00,3.8289
2924.00,3.7549
2923.00,3.7474
2922.00,3.8380
2921.00,4.0459
2920.00,4.3359
2919.00,4.2465
2918.00,4.0187
2917.00,3.8881
2916.00,3.8681
2915.00,3.8139
2914.00,3.7226
2913.00,3.7099
2912.00,3.8044
2911.00,3.9971
2910.00,4.1961
2909.00,4.3565
2908.00,4.4736
2907.00,4.3460
2906.00,4.1349
2905.00,3.9924
2904.00,3.9556
2903.00,3.9774
2902.00,4.0068
2901.00,4.0859
2900.00,4.3227
2899.00,4.4815
2898.00,4.4900
2897.00,4.3039
2896.00,4.0299
2895.00,3.8874
2894.00,3.8976
2893.00,4.2310
2892.00,4.4287
2891.00,4.1020
2890.00,3.9217
2889.00,3.9503
2888.00,4.1826
2887.00,4.5517
2886.00,4.8477
2885.00,4.6248
2884.00,4.3479
2883.00,4.1794
2882.00,4.0564
2881.00,3.9993
2880.00,4.0361
2879.00,4.0988
2878.00,4.2927
2877.00,4.5701
2876.00,4.2838
2875.00,4.1276
2874.00,4.1364
2873.00,4.1500
2872.00,3.9284
2871.00,3.7526
2870.00,3.7488
2869.00,3.8701
2868.00,4.1840
2867.00,4.5891
2866.00,4.6872
2865.00,4.8219
2864.00,4.5617
2863.00,4.4166
2862.00,4.2877
2861.00,4.4329
2860.00,4.5601
2859.00,4.4798
2858.00,4.5947
2857.00,4.6801
2856.00,4.4945
2855.00,4.2618
2854.00,4.1287
2853.00,4.0240
2852.00,3.9019
2851.00,3.8485
2850.00,3.9058
2849.00,3.9970
2848.00,4.0219
2847.00,4.0569
2846.00,4.0922
2845.00,4.0227
2844.00,3.8950
2843.00,3.8301
2842.00,3.8255
2841.00,3.9588
2840.00,4.2449
2839.00,3.9365
2838.00,3.4911
2837.00,3.1622
2836.00,2.9284
2835.00,2.7333
2834.00,2.5634
2833.00,2.4107
2832.00,2.2671
2831.00,2.1343
2830.00,2.0133
2829.00,1.9047
2828.00,1.8080
2827.00,1.7218
2826.00,1.6443
2825.00,1.5741
2824.00,1.5106
2823.00,1.4532
2822.00,1.4008
2821.00,1.3524
2820.00,1.3073
2819.00,1.2657
2818.00,1.2271
2817.00,1.1912
2816.00,1.1577
2815.00,1.1264
2814.00,1.0973
2813.00,1.0703
2812.00,1.0450
2811.00,1.0211
2810.00,0.9984
2809.00,0.9767
2808.00,0.9559
2807.00,0.9361
2806.00,0.9174
2805.00,0.8996
2804.00,0.8827
2803.00,0.8665
2802.00,0.8512
2801.00,0.8367
2800.00,0.8230
2799.00,0.8100
2798.00,0.7974
2797.00,0.7854
2796.00,0.7738
2795.00,0.7627
2794.00,0.7519
2793.00,0.7413
2792.00,0.7310
2791.00,0.7210
2790.00,0.7114
2789.00,0.7020
2788.00,0.6928
2787.00,0.6836
2786.00,0.6746
2785.00,0.6658
2784.00,0.6573
2783.00,0.6490
2782.00,0.6410
2781.00,0.6333
2780.00,0.6260
2779.00,0.6191
2778.00,0.6125
2777.00,0.6061
2776.00,0.6001
2775.00,0.5943
2774.00,0.5890
2773.00,0.5841
2772.00,0.5796
2771.00,0.5754
2770.00,0.5715
2769.00,0.5680
2768.00,0.5649
2767.00,0.5620
2766.00,0.5595
2765.00,0.5572
2764.00,0.5552
2763.00,0.5534
2762.00,0.5519
2761.00,0.5505
2760.00,0.5492
2759.00,0.5481
2758.00,0.5469
2757.00,0.5457
2756.00,0.5445
2755.00,0.5435
2754.00,0.5425
2753.00,0.5417
2752.00,0.5411
2751.00,0.5406
2750.00,0.5405
2749.00,0.5406
2748.00,0.5410
2747.00,0.5415
2746.00,0.5423
2745.00,0.5433
2744.00,0.5446
2743.00,0.5463
2742.00,0.5483
2741.00,0.5508
2740.00,0.5537
2739.00,0.5571
2738.00,0.5608
2737.00,0.5651
2736.00,0.5698
2735.00,0.5748
2734.00,0.5801
2733.00,0.5853
2732.00,0.5901
2731.00,0.5941
2730.00,0.5972
2729.00,0.5991
2728.00,0.5998
2727.00,0.5996
2726.00,0.5986
2725.00,0.5972
2724.00,0.5953
2723.00,0.5930
2722.00,0.5903
2721.00,0.5873
2720.00,0.5839
2719.00,0.5804
2718.00,0.5766
2717.00,0.5726
2716.00,0.5681
2715.00,0.5635
2714.00,0.5590
2713.00,0.5546
2712.00,0.5506
2711.00,0.5468
2710.00,0.5434
2709.00,0.5404
2708.00,0.5378
2707.00,0.5357
2706.00,0.5339
2705.00,0.5325
2704.00,0.5314
2703.00,0.5305
2702.00,0.5298
2701.00,0.5294
2700.00,0.5292
2699.00,0.5291
2698.00,0.5293
2697.00,0.5296
2696.00,0.5300
2695.00,0.5305
2694.00,0.5312
2693.00,0.5321
2692.00,0.5330
2691.00,0.5339
2690.00,0.5349
2689.00,0.5358
2688.00,0.5366
2687.00,0.5373
2686.00,0.5379
2685.00,0.5384
2684.00,0.5389
2683.00,0.5394
2682.00,0.5398
2681.00,0.5402
2680.00,0.5406
2679.00,0.5411
2678.00,0.5415
2677.00,0.5419
2676.00,0.5424
2675.00,0.5428
2674.00,0.5432
2673.00,0.5436
2672.00,0.5438
2671.00,0.5438
2670.00,0.5435
2669.00,0.5429
2668.00,0.5420
2667.00,0.5409
2666.00,0.5396
2665.00,0.5382
2664.00,0.5366
2663.00,0.5348
2662.00,0.5327
2661.00,0.5306
2660.00,0.5284
2659.00,0.5262
2658.00,0.5241
2657.00,0.5221
2656.00,0.5200
2655.00,0.5181
2654.00,0.5162
2653.00,0.5143
2652.00,0.5126
2651.00,0.5109
2650.00,0.5094
2649.00,0.5080
2648.00,0.5067
2647.00,0.5055
2646.00,0.5042
2645.00,0.5030
2644.00,0.5019
2643.00,0.5008
2642.00,0.4999
2641.00,0.4990
2640.00,0.4981
2639.00,0.4972
2638.00,0.4964
2637.00,0.4955
2636.00,0.4946
2635.00,0.4937
2634.00,0.4928
2633.00,0.4919
2632.00,0.4909
2631.00,0.4900
2630.00,0.4890
2629.00,0.4882
2628.00,0.4874
2627.00,0.4865
2626.00,0.4855
2625.00,0.4845
2624.00,0.4835
2623.00,0.4825
2622.00,0.4816
2621.00,0.4807
2620.00,0.4798
2619.00,0.4789
2618.00,0.4780
2617.00,0.4772
2616.00,0.4764
2615.00,0.4756
2614.00,0.4748
2613.00,0.4739
2612.00,0.4731
2611.00,0.4722
2610.00,0.4714
2609.00,0.4705
2608.00,0.4697
2607.00,0.4688
2606.00,0.4679
2605.00,0.4670
2604.00,0.4660
2603.00,0.4649
2602.00,0.4638
2601.00,0.4626
2600.00,0.4614
2599.00,0.4601
2598.00,0.4588
2597.00,0.4574
2596.00,0.4558
2595.00,0.4542
2594.00,0.4526
2593.00,0.4510
2592.00,0.4494
2591.00,0.4478
2590.00,0.4462
2589.00,0.4446
2588.00,0.4430
2587.00,0.4413
2586.00,0.4396
2585.00,0.4380
2584.00,0.4364
2583.00,0.4348
2582.00,0.4331
2581.00,0.4315
2580.00,0.4298
2579.00,0.4281
2578.00,0.4264
2577.00,0.4248
2576.00,0.4232
2575.00,0.4216
2574.00,0.4201
2573.00,0.4186
2572.00,0.4172
2571.00,0.4157
2570.00,0.4143
2569.00,0.4129
2568.00,0.4115
2567.00,0.4101
2566.00,0.4087
2565.00,0.4073
2564.00,0.4059
2563.00,0.4044
2562.00,0.4030
2561.00,0.4016
2560.00,0.4002
2559.00,0.3989
2558.00,0.3976
2557.00,0.3964
2556.00,0.3951
2555.00,0.3939
2554.00,0.3927
2553.00,0.3916
2552.00,0.3904
2551.00,0.3893
2550.00,0.3882
2549.00,0.3872
2548.00,0.3863
2547.00,0.3854
2546.00,0.3847
2545.00,0.3839
2544.00,0.3832
2543.00,0.3824
2542.00,0.3817
2541.00,0.3810
2540.00,0.3803
2539.00,0.3797
2538.00,0.3791
2537.00,0.3785
2536.00,0.3778
2535.00,0.3772
2534.00,0.3766
2533.00,0.3759
2532.00,0.3752
2531.00,0.3745
2530.00,0.3738
2529.00,0.3729
2528.00,0.3720
2527.00,0.3709
2526.00,0.3699
2525.00,0.3687
2524.00,0.3676
2523.00,0.3666
2522.00,0.3655
2521.00,0.3645
2520.00,0.3634
2519.00,0.3624
2518.00,0.3614
2517.00,0.3606
2516.00,0.3598
2515.00,0.3591
2514.00,0.3583
2513.00,0.3576
2512.00,0.3569
2511.00,0.3561
2510.00,0.3555
2509.00,0.3548
2508.00,0.3543
2507.00,0.3537
2506.00,0.3532
2505.00,0.3527
2504.00,0.3523
2503.00,0.3520
2502.00,0.3516
2501.00,0.3512
2500.00,0.3509
2499.00,0.3505
2498.00,0.3501
2497.00,0.3498
2496.00,0.3494
2495.00,0.3490
2494.00,0.3486
2493.00,0.3481
2492.00,0.3476
2491.00,0.3471
2490.00,0.3466
2489.00,0.3462
2488.00,0.3457
2487.00,0.3452
2486.00,0.3447
2485.00,0.3442
2484.00,0.3437
2483.00,0.3432
2482.00,0.3426
2481.00,0.3422
2480.00,0.3418
2479.00,0.3415
2478.00,0.3411
2477.00,0.3408
2476.00,0.3405
2475.00,0.3402
2474.00,0.3400
2473.00,0.3398
2472.00,0.3396
2471.00,0.3394
2470.00,0.3392
2469.00,0.3390
2468.00,0.3389
2467.00,0.3387
2466.00,0.3385
2465.00,0.3383
2464.00,0.3381
2463.00,0.3380
2462.00,0.3378
2461.00,0.3377
2460.00,0.3375
2459.00,0.3373
2458.00,0.3370
2457.00,0.3368
2456.00,0.3366
2455.00,0.3364
2454.00,0.3363
2453.00,0.3361
2452.00,0.3358
2451.00,0.3356
2450.00,0.3353
2449.00,0.3351
2448.00,0.3349
2447.00,0.3347
2446.00,0.3346
2445.00,0.3345
2444.00,0.3344
2443.00,0.3343
2442.00,0.3343
2441.00,0.3343
2440.00,0.3343
2439.00,0.3344
2438.00,0.3344
2437.00,0.3345
2436.00,0.3347
2435.00,0.3349
2434.00,0.3350
2433.00,0.3351
2432.00,0.3352
2431.00,0.3352
2430.00,0.3353
2429.00,0.3355
2428.00,0.3356
2427.00,0.3358
2426.00,0.3360
2425.00,0.3361
2424.00,0.3362
2423.00,0.3362
2422.00,0.3363
2421.00,0.3364
2420.00,0.3364
2419.00,0.3364
2418.00,0.3363
2417.00,0.3363
2416.00,0.3362
2415.00,0.3361
2414.00,0.3360
2413.00,0.3359
2412.00,0.3359
2411.00,0.3359
2410.00,0.3358
2409.00,0.3358
2408.00,0.3358
2407.00,0.3357
2406.00,0.3356
2405.00,0.3355
2404.00,0.3354
2403.00,0.3353
2402.00,0.3351
2401.00,0.3350
2400.00,0.3349
2399.00,0.3349
2398.00,0.3348
2397.00,0.3347
2396.00,0.3346
2395.00,0.3344
2394.00,0.3343
2393.00,0.3343
2392.00,0.3343
2391.00,0.3342
2390.00,0.3342
2389.00,0.3341
2388.00,0.3341
2387.00,0.3340
2386.00,0.3340
2385.00,0.3340
2384.00,0.3340
2383.00,0.3340
2382.00,0.3340
2381.00,0.3340
2380.00,0.3340
2379.00,0.3340
2378.00,0.3339
2377.00,0.3339
2376.00,0.3338
2375.00,0.3337
2374.00,0.3335
2373.00,0.3334
2372.00,0.3334
2371.00,0.3334
2370.00,0.3334
2369.00,0.3334
2368.00,0.3334
2367.00,0.3333
2366.00,0.3332
2365.00,0.3331
2364.00,0.3331
2363.00,0.3330
2362.00,0.3330
2361.00,0.3330
2360.00,0.3331
2359.00,0.3330
2358.00,0.3330
2357.00,0.3329
2356.00,0.3328
2355.00,0.3326
2354.00,0.3324
2353.00,0.3323
2352.00,0.3322
2351.00,0.3323
2350.00,0.3324
2349.00,0.3324
2348.00,0.3323
2347.00,0.3321
2346.00,0.3317
2345.00,0.3314
2344.00,0.3313
2343.00,0.3313
2342.00,0.3312
2341.00,0.3311
2340.00,0.3311
2339.00,0.3310
2338.00,0.3309
2337.00,0.3309
2336.00,0.3310
2335.00,0.3309
2334.00,0.3307
2333.00,0.3304
2332.00,0.3301
2331.00,0.3297
2330.00,0.3294
2329.00,0.3291
2328.00,0.3289
2327.00,0.3287
2326.00,0.3285
2325.00,0.3283
2324.00,0.3280
2323.00,0.3277
2322.00,0.3274
2321.00,0.3271
2320.00,0.3269
2319.00,0.3266
2318.00,0.3264
2317.00,0.3263
2316.00,0.3261
2315.00,0.3258
2314.00,0.3255
2313.00,0.3251
2312.00,0.3248
2311.00,0.3245
2310.00,0.3242
2309.00,0.3239
2308.00,0.3236
2307.00,0.3233
2306.00,0.3230
2305.00,0.3227
2304.00,0.3224
2303.00,0.3222
2302.00,0.3219
2301.00,0.3216
2300.00,0.3213
2299.00,0.3209
2298.00,0.3205
2297.00,0.3202
2296.00,0.3200
2295.00,0.3197
2294.00,0.3194
2293.00,0.3191
2292.00,0.3188
2291.00,0.3185
2290.00,0.3182
2289.00,0.3179
2288.00,0.3176
2287.00,0.3174
2286.00,0.3172
2285.00,0.3169
2284.00,0.3167
2283.00,0.3165
2282.00,0.3162
2281.00,0.3159
2280.00,0.3156
2279.00,0.3153
2278.00,0.3150
2277.00,0.3147
2276.00,0.3144
2275.00,0.3141
2274.00,0.3139
2273.00,0.3137
2272.00,0.3135
2271.00,0.3133
2270.00,0.3132
2269.00,0.3131
2268.00,0.3130
2267.00,0.3128
2266.00,0.3125
2265.00,0.3123
2264.00,0.3121
2263.00,0.3119
2262.00,0.3117
2261.00,0.3115
2260.00,0.3112
2259.00,0.3109
2258.00,0.3106
2257.00,0.3103
2256.00,0.3101
2255.00,0.3098
2254.00,0.3095
2253.00,0.3092
2252.00,0.3090
2251.00,0.3087
2250.00,0.3085
2249.00,0.3082
2248.00,0.3080
2247.00,0.3077
2246.00,0.3074
2245.00,0.3071
2244.00,0.3069
2243.00,0.3068
2242.00,0.3066
2241.00,0.3065
2240.00,0.3063
2239.00,0.3061
2238.00,0.3060
2237.00,0.3059
2236.00,0.3058
2235.00,0.3057
2234.00,0.3056
2233.00,0.3055
2232.00,0.3054
2231.00,0.3053
2230.00,0.3053
2229.00,0.3052
2228.00,0.3052
2227.00,0.3051
2226.00,0.3051
2225.00,0.3050
2224.00,0.3050
2223.00,0.3049
2222.00,0.3048
2221.00,0.3047
2220.00,0.3046
2219.00,0.3045
2218.00,0.3044
2217.00,0.3042
2216.00,0.3041
2215.00,0.3040
2214.00,0.3039
2213.00,0.3038
2212.00,0.3037
2211.00,0.3036
2210.00,0.3034
2209.00,0.3033
2208.00,0.3032
2207.00,0.3032
2206.00,0.3031
2205.00,0.3031
2204.00,0.3031
2203.00,0.3030
2202.00,0.3029
2201.00,0.3028
2200.00,0.3028
2199.00,0.3028
2198.00,0.3028
2197.00,0.3029
2196.00,0.3030
2195.00,0.3031
2194.00,0.3032
2193.00,0.3033
2192.00,0.3033
2191.00,0.3034
2190.00,0.3035
2189.00,0.3036
2188.00,0.3037
2187.00,0.3037
2186.00,0.3037
2185.00,0.3037
2184.00,0.3036
2183.00,0.3035
2182.00,0.3034
2181.00,0.3033
2180.00,0.3031
2179.00,0.3030
2178.00,0.3028
2177.00,0.3027
2176.00,0.3025
2175.00,0.3024
2174.00,0.3022
2173.00,0.3020
2172.00,0.3018
2171.00,0.3016
2170.00,0.3013
2169.00,0.3011
2168.00,0.3009
2167.00,0.3008
2166.00,0.3007
2165.00,0.3007
2164.00,0.3006
2163.00,0.3004
2162.00,0.3003
2161.00,0.3002
2160.00,0.3001
2159.00,0.3000
2158.00,0.2999
2157.00,0.2998
2156.00,0.2997
2155.00,0.2996
2154.00,0.2995
2153.00,0.2994
2152.00,0.2994
2151.00,0.2993
2150.00,0.2991
2149.00,0.2990
2148.00,0.2987
2147.00,0.2984
2146.00,0.2979
2145.00,0.2975
2144.00,0.2971
2143.00,0.2966
2142.00,0.2961
2141.00,0.2957
2140.00,0.2953
2139.00,0.2948
2138.00,0.2944
2137.00,0.2941
2136.00,0.2938
2135.00,0.2934
2134.00,0.2931
2133.00,0.2928
2132.00,0.2926
2131.00,0.2924
2130.00,0.2922
2129.00,0.2920
2128.00,0.2918
2127.00,0.2916
2126.00,0.2914
2125.00,0.2913
2124.00,0.2912
2123.00,0.2911
2122.00,0.2910
2121.00,0.2909
2120.00,0.2908
2119.00,0.2908
2118.00,0.2908
2117.00,0.2908
2116.00,0.2909
2115.00,0.2909
2114.00,0.2910
2113.00,0.2909
2112.00,0.2909
2111.00,0.2908
2110.00,0.2907
2109.00,0.2907
2108.00,0.2906
2107.00,0.2906
2106.00,0.2905
2105.00,0.2904
2104.00,0.2904
2103.00,0.2902
2102.00,0.2901
2101.00,0.2899
2100.00,0.2898
2099.00,0.2897
2098.00,0.2895
2097.00,0.2893
2096.00,0.2891
2095.00,0.2890
2094.00,0.2889
2093.00,0.2888
2092.00,0.2887
2091.00,0.2887
2090.00,0.2886
2089.00,0.2886
2088.00,0.2885
2087.00,0.2885
2086.00,0.2885
2085.00,0.2886
2084.00,0.2887
2083.00,0.2888
2082.00,0.2888
2081.00,0.2888
2080.00,0.2888
2079.00,0.2889
2078.00,0.2889
2077.00,0.2890
2076.00,0.2891
2075.00,0.2892
2074.00,0.2892
2073.00,0.2893
2072.00,0.2894
2071.00,0.2895
2070.00,0.2896
2069.00,0.2897
2068.00,0.2898
2067.00,0.2899
2066.00,0.2899
2065.00,0.2900
2064.00,0.2901
2063.00,0.2901
2062.00,0.2902
2061.00,0.2903
2060.00,0.2904
2059.00,0.2904
2058.00,0.2905
2057.00,0.2906
2056.00,0.2906
2055.00,0.2906
2054.00,0.2907
2053.00,0.2907
2052.00,0.2908
2051.00,0.2909
2050.00,0.2910
2049.00,0.2912
2048.00,0.2914
2047.00,0.2916
2046.00,0.2918
2045.00,0.2920
2044.00,0.2921
2043.00,0.2923
2042.00,0.2924
2041.00,0.2925
2040.00,0.2927
2039.00,0.2928
2038.00,0.2929
2037.00,0.2931
2036.00,0.2932
2035.00,0.2933
2034.00,0.2933
2033.00,0.2934
2032.00,0.2934
2031.00,0.2935
2030.00,0.2935
2029.00,0.2935
2028.00,0.2935
2027.00,0.2934
2026.00,0.2933
2025.00,0.2931
2024.00,0.2929
2023.00,0.2927
2022.00,0.2924
2021.00,0.2920
2020.00,0.2916
2019.00,0.2911
2018.00,0.2905
2017.00,0.2899
2016.00,0.2894
2015.00,0.2888
2014.00,0.2882
2013.00,0.2876
2012.00,0.2870
2011.00,0.2864
2010.00,0.2860
2009.00,0.2857
2008.00,0.2854
2007.00,0.2851
2006.00,0.2848
2005.00,0.2846
2004.00,0.2844
2003.00,0.2842
2002.00,0.2840
2001.00,0.2839
2000.00,0.2838
1999.00,0.2838
1998.00,0.2837
1997.00,0.2836
1996.00,0.2835
1995.00,0.2834
1994.00,0.2832
1993.00,0.2831
1992.00,0.2831
1991.00,0.2832
1990.00,0.2832
1989.00,0.2832
1988.00,0.2832
1987.00,0.2831
1986.00,0.2830
1985.00,0.2830
1984.00,0.2829
1983.00,0.2828
1982.00,0.2827
1981.00,0.2826
1980.00,0.2826
1979.00,0.2825
1978.00,0.2824
1977.00,0.2823
1976.00,0.2823
1975.00,0.2823
1974.00,0.2822
1973.00,0.2820
1972.00,0.2820
1971.00,0.2819
1970.00,0.2819
1969.00,0.2819
1968.00,0.2818
1967.00,0.2818
1966.00,0.2819
1965.00,0.2820
1964.00,0.2822
1963.00,0.2822
1962.00,0.2823
1961.00,0.2824
1960.00,0.2826
1959.00,0.2828
1958.00,0.2830
1957.00,0.2832
1956.00,0.2834
1955.00,0.2836
1954.00,0.2837
1953.00,0.2838
1952.00,0.2840
1951.00,0.2841
1950.00,0.2842
1949.00,0.2843
1948.00,0.2844
1947.00,0.2846
1946.00,0.2848
1945.00,0.2851
1944.00,0.2854
1943.00,0.2857
1942.00,0.2861
1941.00,0.2867
1940.00,0.2872
1939.00,0.2875
1938.00,0.2876
1937.00,0.2876
1936.00,0.2875
1935.00,0.2872
1934.00,0.2870
1933.00,0.2869
1932.00,0.2868
1931.00,0.2868
1930.00,0.2868
1929.00,0.2869
1928.00,0.2869
1927.00,0.2870
1926.00,0.2871
1925.00,0.2872
1924.00,0.2875
1923.00,0.2878
1922.00,0.2882
1921.00,0.2887
1920.00,0.2891
1919.00,0.2894
1918.00,0.2897
1917.00,0.2901
1916.00,0.2906
1915.00,0.2910
1914.00,0.2912
1913.00,0.2912
1912.00,0.2912
1911.00,0.2912
1910.00,0.2913
1909.00,0.2914
1908.00,0.2916
1907.00,0.2917
1906.00,0.2918
1905.00,0.2918
1904.00,0.2918
1903.00,0.2917
1902.00,0.2916
1901.00,0.2915
1900.00,0.2915
1899.00,0.2915
1898.00,0.2916
1897.00,0.2918
1896.00,0.2919
1895.00,0.2919
1894.00,0.2920
1893.00,0.2921
1892.00,0.2922
1891.00,0.2922
1890.00,0.2923
1889.00,0.2924
1888.00,0.2926
1887.00,0.2928
1886.00,0.2929
1885.00,0.2930
1884.00,0.2931
1883.00,0.2931
1882.00,0.2931
1881.00,0.2931
1880.00,0.2932
1879.00,0.2932
1878.00,0.2933
1877.00,0.2933
1876.00,0.2932
1875.00,0.2931
1874.00,0.2929
1873.00,0.2927
1872.00,0.2925
1871.00,0.2922
1870.00,0.2918
1869.00,0.2917
1868.00,0.2917
1867.00,0.2917
1866.00,0.2916
1865.00,0.2913
1864.00,0.2909
1863.00,0.2905
1862.00,0.2900
1861.00,0.2896
1860.00,0.2894
1859.00,0.2891
1858.00,0.2888
1857.00,0.2885
1856.00,0.2883
1855.00,0.2881
1854.00,0.2878
1853.00,0.2876
1852.00,0.2875
1851.00,0.2874
1850.00,0.2872
1849.00,0.2870
1848.00,0.2869
1847.00,0.2868
1846.00,0.2866
1845.00,0.2864
1844.00,0.2864
1843.00,0.2866
1842.00,0.2868
1841.00,0.2869
1840.00,0.2869
1839.00,0.2867
1838.00,0.2866
1837.00,0.2866
1836.00,0.2866
1835.00,0.2866
1834.00,0.2865
1833.00,0.2864
1832.00,0.2863
1831.00,0.2862
1830.00,0.2862
1829.00,0.2863
1828.00,0.2864
1827.00,0.2862
1826.00,0.2858
1825.00,0.2856
1824.00,0.2856
1823.00,0.2857
1822.00,0.2858
1821.00,0.2857
1820.00,0.2856
1819.00,0.2855
1818.00,0.2854
1817.00,0.2855
1816.00,0.2856
1815.00,0.2858
1814.00,0.2858
1813.00,0.2859
1812.00,0.2861
1811.00,0.2862
1810.00,0.2864
1809.00,0.2867
1808.00,0.2870
1807.00,0.2874
1806.00,0.2877
1805.00,0.2881
1804.00,0.2884
1803.00,0.2886
1802.00,0.2889
1801.00,0.2895
1800.00,0.2904
1799.00,0.2912
1798.00,0.2918
1797.00,0.2924
1796.00,0.2928
1795.00,0.2931
1794.00,0.2932
1793.00,0.2934
1792.00,0.2938
1791.00,0.2944
1790.00,0.2951
1789.00,0.2957
1788.00,0.2961
1787.00,0.2962
1786.00,0.2962
1785.00,0.2964
1784.00,0.2968
1783.00,0.2973
1782.00,0.2977
1781.00,0.2980
1780.00,0.2984
1779.00,0.2988
1778.00,0.2992
1777.00,0.2997
1776.00,0.3002
1775.00,0.3007
1774.00,0.3012
1773.00,0.3019
1772.00,0.3028
1771.00,0.3036
1770.00,0.3042
1769.00,0.3048
1768.00,0.3055
1767.00,0.3066
1766.00,0.3078
1765.00,0.3090
1764.00,0.3102
1763.00,0.3114
1762.00,0.3129
1761.00,0.3148
1760.00,0.3169
1759.00,0.3189
1758.00,0.3209
1757.00,0.3234
1756.00,0.3264
1755.00,0.3295
1754.00,0.3325
1753.00,0.3353
1752.00,0.3384
1751.00,0.3418
1750.00,0.3455
1749.00,0.3490
1748.00,0.3522
1747.00,0.3547
1746.00,0.3567
1745.00,0.3582
1744.00,0.3595
1743.00,0.3604
1742.00,0.3610
1741.00,0.3614
1740.00,0.3615
1739.00,0.3614
1738.00,0.3610
1737.00,0.3604
1736.00,0.3592
1735.00,0.3576
1734.00,0.3564
1733.00,0.3559
1732.00,0.3558
1731.00,0.3554
1730.00,0.3549
1729.00,0.3547
1728.00,0.3549
1727.00,0.3554
1726.00,0.3562
1725.00,0.3576
1724.00,0.3595
1723.00,0.3619
1722.00,0.3647
1721.00,0.3679
1720.00,0.3717
1719.00,0.3767
1718.00,0.3840
1717.00,0.3933
1716.00,0.4037
1715.00,0.4146
1714.00,0.4263
1713.00,0.4384
1712.00,0.4502
1711.00,0.4615
1710.00,0.4715
1709.00,0.4795
1708.00,0.4843
1707.00,0.4856
1706.00,0.4836
1705.00,0.4785
1704.00,0.4717
1703.00,0.4640
1702.00,0.4545
1701.00,0.4418
1700.00,0.4278
1699.00,0.4168
1698.00,0.4090
1697.00,0.4016
1696.00,0.3933
1695.00,0.3853
1694.00,0.3794
1693.00,0.3752
1692.00,0.3716
1691.00,0.3679
1690.00,0.3646
1689.00,0.3619
1688.00,0.3599
1687.00,0.3583
1686.00,0.3565
1685.00,0.3545
1684.00,0.3526
1683.00,0.3513
1682.00,0.3505
1681.00,0.3499
1680.00,0.3491
1679.00,0.3484
1678.00,0.3476
1677.00,0.3467
1676.00,0.3459
1675.00,0.3454
1674.00,0.3453
1673.00,0.3455
1672.00,0.3454
1671.00,0.3450
1670.00,0.3447
1669.00,0.3447
1668.00,0.3449
1667.00,0.3450
1666.00,0.3451
1665.00,0.3451
1664.00,0.3450
1663.00,0.3450
1662.00,0.3452
1661.00,0.3456
1660.00,0.3459
1659.00,0.3461
1658.00,0.3463
1657.00,0.3466
1656.00,0.3470
1655.00,0.3471
1654.00,0.3477
1653.00,0.3491
1652.00,0.3509
1651.00,0.3523
1650.00,0.3531
1649.00,0.3537
1648.00,0.3545
1647.00,0.3556
1646.00,0.3570
1645.00,0.3585
1644.00,0.3601
1643.00,0.3614
1642.00,0.3627
1641.00,0.3642
1640.00,0.3660
1639.00,0.3677
1638.00,0.3694
1637.00,0.3714
1636.00,0.3739
1635.00,0.3766
1634.00,0.3790
1633.00,0.3813
1632.00,0.3835
1631.00,0.3853
1630.00,0.3873
1629.00,0.3898
1628.00,0.3926
1627.00,0.3953
1626.00,0.3981
1625.00,0.4012
1624.00,0.4050
1623.00,0.4095
1622.00,0.4145
1621.00,0.4199
1620.00,0.4256
1619.00,0.4317
1618.00,0.4394
1617.00,0.4495
1616.00,0.4612
1615.00,0.4721
1614.00,0.4817
1613.00,0.4912
1612.00,0.5012
1611.00,0.5115
1610.00,0.5217
1609.00,0.5318
1608.00,0.5415
1607.00,0.5501
1606.00,0.5574
1605.00,0.5641
1604.00,0.5708
1603.00,0.5771
1602.00,0.5831
1601.00,0.5896
1600.00,0.5969
1599.00,0.6048
1598.00,0.6138
1597.00,0.6252
1596.00,0.6402
1595.00,0.6592
1594.00,0.6827
1593.00,0.7126
1592.00,0.7509
1591.00,0.7989
1590.00,0.8591
1589.00,0.9359
1588.00,1.0345
1587.00,1.1584
1586.00,1.3100
1585.00,1.4941
1584.00,1.7168
1583.00,1.9608
1582.00,2.1449
1581.00,2.1761
1580.00,2.0740
1579.00,1.8927
1578.00,1.6738
1577.00,1.4593
1576.00,1.2795
1575.00,1.1476
1574.00,1.0576
1573.00,0.9954
1572.00,0.9490
1571.00,0.9123
1570.00,0.8860
1569.00,0.8740
1568.00,0.8782
1567.00,0.8971
1566.00,0.9314
1565.00,0.9841
1564.00,1.0534
1563.00,1.1285
1562.00,1.1961
1561.00,1.2457
1560.00,1.2516
1559.00,1.1795
1558.00,1.0697
1557.00,0.9777
1556.00,0.9037
1555.00,0.8344
1554.00,0.7706
1553.00,0.7189
1552.00,0.6799
1551.00,0.6488
1550.00,0.6222
1549.00,0.6007
1548.00,0.5845
1547.00,0.5718
1546.00,0.5608
1545.00,0.5513
1544.00,0.5439
1543.00,0.5380
1542.00,0.5328
1541.00,0.5279
1540.00,0.5229
1539.00,0.5178
1538.00,0.5134
1537.00,0.5101
1536.00,0.5072
1535.00,0.5041
1534.00,0.5009
1533.00,0.4987
1532.00,0.4981
1531.00,0.4984
1530.00,0.4991
1529.00,0.5001
1528.00,0.5011
1527.00,0.5016
1526.00,0.5014
1525.00,0.5010
1524.00,0.5008
1523.00,0.5008
1522.00,0.5012
1521.00,0.5030
1520.00,0.5060
1519.00,0.5093
1518.00,0.5126
1517.00,0.5162
1516.00,0.5197
1515.00,0.5219
1514.00,0.5230
1513.00,0.5235
1512.00,0.5241
1511.00,0.5250
1510.00,0.5267
1509.00,0.5299
1508.00,0.5360
1507.00,0.5456
1506.00,0.5576
1505.00,0.5697
1504.00,0.5801
1503.00,0.5886
1502.00,0.5961
1501.00,0.6035
1500.00,0.6107
1499.00,0.6174
1498.00,0.6245
1497.00,0.6334
1496.00,0.6441
1495.00,0.6550
1494.00,0.6656
1493.00,0.6766
1492.00,0.6888
1491.00,0.7026
1490.00,0.7185
1489.00,0.7370
1488.00,0.7569
1487.00,0.7776
1486.00,0.8005
1485.00,0.8272
1484.00,0.8581
1483.00,0.8938
1482.00,0.9362
1481.00,0.9868
1480.00,1.0438
1479.00,1.1059
1478.00,1.1764
1477.00,1.2606
1476.00,1.3594
1475.00,1.4716
1474.00,1.6065
1473.00,1.7850
1472.00,2.0204
1471.00,2.3020
1470.00,2.6180
1469.00,2.9895
1468.00,3.4164
1467.00,3.7017
1466.00,3.7928
1465.00,3.9572
1464.00,3.9541
1463.00,3.6789
1462.00,3.5812
1461.00,3.7102
1460.00,3.7458
1459.00,3.5125
1458.00,3.4348
1457.00,3.4924
1456.00,3.5503
1455.00,3.6687
1454.00,3.7476
1453.00,3.9551
1452.00,4.1136
1451.00,3.7520
1450.00,3.5737
1449.00,3.5129
1448.00,3.3335
1447.00,3.0952
1446.00,2.9341
1445.00,2.8168
1444.00,2.6739
1443.00,2.5111
1442.00,2.3666
1441.00,2.2446
1440.00,2.1311
1439.00,2.0180
1438.00,1.9024
1437.00,1.7814
1436.00,1.6627
1435.00,1.5582
1434.00,1.4679
1433.00,1.3830
1432.00,1.2986
1431.00,1.2170
1430.00,1.1432
1429.00,1.0798
1428.00,1.0278
1427.00,0.9863
1426.00,0.9529
1425.00,0.9248
1424.00,0.9017
1423.00,0.8843
1422.00,0.8713
1421.00,0.8601
1420.00,0.8493
1419.00,0.8394
1418.00,0.8311
1417.00,0.8245
1416.00,0.8192
1415.00,0.8152
1414.00,0.8123
1413.00,0.8101
1412.00,0.8086
1411.00,0.8077
1410.00,0.8065
1409.00,0.8040
1408.00,0.7994
1407.00,0.7924
1406.00,0.7826
1405.00,0.7702
1404.00,0.7569
1403.00,0.7444
1402.00,0.7332
1401.00,0.7230
1400.00,0.7138
1399.00,0.7067
1398.00,0.7022
1397.00,0.6999
1396.00,0.7003
1395.00,0.7045
1394.00,0.7128
1393.00,0.7258
1392.00,0.7448
1391.00,0.7718
1390.00,0.8092
1389.00,0.8602
1388.00,0.9288
1387.00,1.0162
1386.00,1.1168
1385.00,1.2227
1384.00,1.3315
1383.00,1.4468
1382.00,1.5726
1381.00,1.7124
1380.00,1.8679
1379.00,2.0282
1378.00,2.1557
1377.00,2.2035
1376.00,2.1557
1375.00,2.0310
1374.00,1.8699
1373.00,1.7145
1372.00,1.5853
1371.00,1.4842
1370.00,1.4090
1369.00,1.3582
1368.00,1.3274
1367.00,1.3055
1366.00,1.2771
1365.00,1.2312
1364.00,1.1676
1363.00,1.0963
1362.00,1.0299
1361.00,0.9760
1360.00,0.9353
1359.00,0.9054
1358.00,0.8835
1357.00,0.8680
1356.00,0.8575
1355.00,0.8510
1354.00,0.8473
1353.00,0.8453
1352.00,0.8437
1351.00,0.8417
1350.00,0.8390
1349.00,0.8357
1348.00,0.8322
1347.00,0.8290
1346.00,0.8262
1345.00,0.8239
1344.00,0.8219
1343.00,0.8199
1342.00,0.8170
1341.00,0.8125
1340.00,0.8057
1339.00,0.7968
1338.00,0.7856
1337.00,0.7727
1336.00,0.7585
1335.00,0.7439
1334.00,0.7297
1333.00,0.7165
1332.00,0.7049
1331.00,0.6952
1330.00,0.6876
1329.00,0.6816
1328.00,0.6773
1327.00,0.6743
1326.00,0.6727
1325.00,0.6720
1324.00,0.6720
1323.00,0.6724
1322.00,0.6731
1321.00,0.6737
1320.00,0.6744
1319.00,0.6754
1318.00,0.6769
1317.00,0.6789
1316.00,0.6812
1315.00,0.6840
1314.00,0.6873
1313.00,0.6911
1312.00,0.6952
1311.00,0.6994
1310.00,0.7031
1309.00,0.7062
1308.00,0.7086
1307.00,0.7104
1306.00,0.7114
1305.00,0.7112
1304.00,0.7095
1303.00,0.7065
1302.00,0.7024
1301.00,0.6975
1300.00,0.6924
1299.00,0.6871
1298.00,0.6816
1297.00,0.6759
1296.00,0.6702
1295.00,0.6650
1294.00,0.6603
1293.00,0.6561
1292.00,0.6522
1291.00,0.6484
1290.00,0.6448
1289.00,0.6413
1288.00,0.6379
1287.00,0.6346
1286.00,0.6311
1285.00,0.6273
1284.00,0.6232
1283.00,0.6191
1282.00,0.6155
1281.00,0.6126
1280.00,0.6102
1279.00,0.6082
1278.00,0.6061
1277.00,0.6038
1276.00,0.6014
1275.00,0.5991
1274.00,0.5970
1273.00,0.5952
1272.00,0.5938
1271.00,0.5930
1270.00,0.5926
1269.00,0.5920
1268.00,0.5906
1267.00,0.5880
1266.00,0.5844
1265.00,0.5802
1264.00,0.5760
1263.00,0.5724
1262.00,0.5696
1261.00,0.5674
1260.00,0.5656
1259.00,0.5641
1258.00,0.5628
1257.00,0.5612
1256.00,0.5594
1255.00,0.5576
1254.00,0.5559
1253.00,0.5544
1252.00,0.5531
1251.00,0.5519
1250.00,0.5507
1249.00,0.5493
1248.00,0.5477
1247.00,0.5460
1246.00,0.5442
1245.00,0.5418
1244.00,0.5390
1243.00,0.5358
1242.00,0.5323
1241.00,0.5289
1240.00,0.5256
1239.00,0.5229
1238.00,0.5206
1237.00,0.5186
1236.00,0.5171
1235.00,0.5161
1234.00,0.5157
1233.00,0.5156
1232.00,0.5158
1231.00,0.5162
1230.00,0.5166
1229.00,0.5165
1228.00,0.5154
1227.00,0.5133
1226.00,0.5103
1225.00,0.5071
1224.00,0.5038
1223.00,0.5011
1222.00,0.4989
1221.00,0.4971
1220.00,0.4957
1219.00,0.4948
1218.00,0.4945
1217.00,0.4948
1216.00,0.4955
1215.00,0.4966
1214.00,0.4977
1213.00,0.4983
1212.00,0.4982
1211.00,0.4974
1210.00,0.4963
1209.00,0.4949
1208.00,0.4935
1207.00,0.4920
1206.00,0.4906
1205.00,0.4890
1204.00,0.4874
1203.00,0.4858
1202.00,0.4846
1201.00,0.4836
1200.00,0.4830
1199.00,0.4828
1198.00,0.4825
1197.00,0.4821
1196.00,0.4814
1195.00,0.4806
1194.00,0.4799
1193.00,0.4792
1192.00,0.4785
1191.00,0.4779
1190.00,0.4774
1189.00,0.4767
1188.00,0.4760
1187.00,0.4753
1186.00,0.4748
1185.00,0.4743
1184.00,0.4740
1183.00,0.4738
1182.00,0.4738
1181.00,0.4740
1180.00,0.4744
1179.00,0.4752
1178.00,0.4765
1177.00,0.4782
1176.00,0.4804
1175.00,0.4834
1174.00,0.4873
1173.00,0.4919
1172.00,0.4966
1171.00,0.5010
1170.00,0.5043
1169.00,0.5060
1168.00,0.5061
1167.00,0.5051
1166.00,0.5036
1165.00,0.5022
1164.00,0.5013
1163.00,0.5011
1162.00,0.5017
1161.00,0.5027
1160.00,0.5041
1159.00,0.5057
1158.00,0.5073
1157.00,0.5085
1156.00,0.5089
1155.00,0.5086
1154.00,0.5076
1153.00,0.5058
1152.00,0.5037
1151.00,0.5013
1150.00,0.4988
1149.00,0.4963
1148.00,0.4937
1147.00,0.4914
1146.00,0.4895
1145.00,0.4880
1144.00,0.4870
1143.00,0.4869
1142.00,0.4877
1141.00,0.4898
1140.00,0.4930
1139.00,0.4974
1138.00,0.5030
1137.00,0.5098
1136.00,0.5175
1135.00,0.5257
1134.00,0.5329
1133.00,0.5372
1132.00,0.5373
1131.00,0.5329
1130.00,0.5256
1129.00,0.5171
1128.00,0.5093
1127.00,0.5034
1126.00,0.4996
1125.00,0.4971
1124.00,0.4953
1123.00,0.4936
1122.00,0.4919
1121.00,0.4904
1120.00,0.4893
1119.00,0.4892
1118.00,0.4902
1117.00,0.4926
1116.00,0.4959
1115.00,0.4992
1114.00,0.5010
1113.00,0.5000
1112.00,0.4960
1111.00,0.4900
1110.00,0.4835
1109.00,0.4777
1108.00,0.4731
1107.00,0.4698
1106.00,0.4677
1105.00,0.4665
1104.00,0.4659
1103.00,0.4657
1102.00,0.4653
1101.00,0.4647
1100.00,0.4638
1099.00,0.4627
1098.00,0.4616
1097.00,0.4606
1096.00,0.4597
1095.00,0.4592
1094.00,0.4592
1093.00,0.4595
1092.00,0.4600
1091.00,0.4608
1090.00,0.4620
1089.00,0.4636
1088.00,0.4659
1087.00,0.4690
1086.00,0.4729
1085.00,0.4777
1084.00,0.4831
1083.00,0.4894
1082.00,0.4965
1081.00,0.5041
1080.00,0.5117
1079.00,0.5187
1078.00,0.5240
1077.00,0.5267
1076.00,0.5264
1075.00,0.5234
1074.00,0.5183
1073.00,0.5122
1072.00,0.5059
1071.00,0.5002
1070.00,0.4956
1069.00,0.4920
1068.00,0.4896
1067.00,0.4881
1066.00,0.4871
1065.00,0.4864
1064.00,0.4859
1063.00,0.4859
1062.00,0.4861
1061.00,0.4864
1060.00,0.4867
1059.00,0.4871
1058.00,0.4874
1057.00,0.4873
1056.00,0.4868
1055.00,0.4861
1054.00,0.4854
1053.00,0.4851
1052.00,0.4852
1051.00,0.4859
1050.00,0.4872
1049.00,0.4890
1048.00,0.4911
1047.00,0.4932
1046.00,0.4948
1045.00,0.4956
1044.00,0.4957
1043.00,0.4956
1042.00,0.4953
1041.00,0.4950
1040.00,0.4945
1039.00,0.4940
1038.00,0.4934
1037.00,0.4927
1036.00,0.4921
1035.00,0.4920
1034.00,0.4926
1033.00,0.4940
1032.00,0.4959
1031.00,0.4979
1030.00,0.4997
1029.00,0.5007
1028.00,0.5006
1027.00,0.4990
1026.00,0.4956
1025.00,0.4906
1024.00,0.4847
1023.00,0.4786
1022.00,0.4730
1021.00,0.4681
1020.00,0.4637
1019.00,0.4599
1018.00,0.4565
1017.00,0.4534
1016.00,0.4507
1015.00,0.4485
1014.00,0.4465
1013.00,0.4447
1012.00,0.4432
1011.00,0.4421
1010.00,0.4417
1009.00,0.4418
1008.00,0.4423
1007.00,0.4432
1006.00,0.4445
1005.00,0.4459
1004.00,0.4474
1003.00,0.4490
1002.00,0.4508
1001.00,0.4526
1000.00,0.4543
999.00,0.4556
998.00,0.4561
997.00,0.4557
996.00,0.4544
995.00,0.4523
994.00,0.4497
993.00,0.4468
992.00,0.4437
991.00,0.4406
990.00,0.4378
989.00,0.4352
988.00,0.4331
987.00,0.4319
986.00,0.4317
985.00,0.4322
984.00,0.4334
983.00,0.4352
982.00,0.4373
981.00,0.4397
980.00,0.4420
979.00,0.4444
978.00,0.4467
977.00,0.4489
976.00,0.4506
975.00,0.4518
974.00,0.4526
973.00,0.4529
972.00,0.4530
971.00,0.4531
970.00,0.4531
969.00,0.4530
968.00,0.4528
967.00,0.4527
966.00,0.4524
965.00,0.4517
964.00,0.4507
963.00,0.4496
962.00,0.4484
961.00,0.4472
960.00,0.4459
959.00,0.4448
958.00,0.4442
957.00,0.4438
956.00,0.4434
955.00,0.4429
954.00,0.4422
953.00,0.4412
952.00,0.4401
951.00,0.4392
950.00,0.4385
949.00,0.4382
948.00,0.4383
947.00,0.4387
946.00,0.4396
945.00,0.4408
944.00,0.4423
943.00,0.4440
942.00,0.4458
941.00,0.4474
940.00,0.4487
939.00,0.4497
938.00,0.4502
937.00,0.4499
936.00,0.4491
935.00,0.4478
934.00,0.4461
933.00,0.4440
932.00,0.4415
931.00,0.4390
930.00,0.4368
929.00,0.4351
928.00,0.4343
927.00,0.4345
926.00,0.4359
925.00,0.4387
924.00,0.4429
923.00,0.4480
922.00,0.4529
921.00,0.4560
920.00,0.4559
919.00,0.4523
918.00,0.4458
917.00,0.4377
916.00,0.4293
915.00,0.4216
914.00,0.4151
913.00,0.4099
912.00,0.4059
911.00,0.4029
910.00,0.4007
909.00,0.3989
908.00,0.3974
907.00,0.3964
906.00,0.3957
905.00,0.3954
904.00,0.3955
903.00,0.3961
902.00,0.3973
901.00,0.3990
900.00,0.4013
899.00,0.4040
898.00,0.4073
897.00,0.4109
896.00,0.4147
895.00,0.4187
894.00,0.4228
893.00,0.4268
892.00,0.4308
891.00,0.4344
890.00,0.4373
889.00,0.4390
888.00,0.4391
887.00,0.4379
886.00,0.4358
885.00,0.4334
884.00,0.4315
883.00,0.4304
882.00,0.4305
881.00,0.4313
880.00,0.4328
879.00,0.4345
878.00,0.4358
877.00,0.4362
876.00,0.4358
875.00,0.4352
874.00,0.4348
873.00,0.4347
872.00,0.4350
871.00,0.4357
870.00,0.4367
869.00,0.4379
868.00,0.4397
867.00,0.4423
866.00,0.4458
865.00,0.4497
864.00,0.4537
863.00,0.4568
862.00,0.4579
861.00,0.4561
860.00,0.4513
859.00,0.4445
858.00,0.4375
857.00,0.4315
856.00,0.4270
855.00,0.4239
854.00,0.4218
853.00,0.4202
852.00,0.4187
851.00,0.4173
850.00,0.4159
849.00,0.4141
848.00,0.4119
847.00,0.4093
846.00,0.4065
845.00,0.4037
844.00,0.4012
843.00,0.3992
842.00,0.3982
841.00,0.3987
840.00,0.4012
839.00,0.4060
838.00,0.4124
837.00,0.4190
836.00,0.4239
835.00,0.4254
834.00,0.4234
833.00,0.4191
832.00,0.4145
831.00,0.4114
830.00,0.4105
829.00,0.4118
828.00,0.4148
827.00,0.4192
826.00,0.4246
825.00,0.4306
824.00,0.4369
823.00,0.4435
822.00,0.4503
821.00,0.4572
820.00,0.4639
819.00,0.4702
818.00,0.4757
817.00,0.4799
816.00,0.4824
815.00,0.4831
814.00,0.4817
813.00,0.4783
812.00,0.4732
811.00,0.4672
810.00,0.4610
809.00,0.4551
808.00,0.4497
807.00,0.4448
806.00,0.4402
805.00,0.4352
804.00,0.4299
803.00,0.4242
802.00,0.4182
801.00,0.4123
800.00,0.4071
799.00,0.4029
798.00,0.4000
797.00,0.3978
796.00,0.3964
795.00,0.3956
794.00,0.3956
793.00,0.3961
792.00,0.3970
791.00,0.3983
790.00,0.4003
789.00,0.4027
788.00,0.4054
787.00,0.4085
786.00,0.4122
785.00,0.4165
784.00,0.4210
783.00,0.4255
782.00,0.4295
781.00,0.4326
780.00,0.4348
779.00,0.4366
778.00,0.4384
777.00,0.4403
776.00,0.4421
775.00,0.4440
774.00,0.4461
773.00,0.4484
772.00,0.4509
771.00,0.4534
770.00,0.4563
769.00,0.4595
768.00,0.4629
767.00,0.4660
766.00,0.4685
765.00,0.4701
764.00,0.4712
763.00,0.4728
762.00,0.4752
761.00,0.4783
760.00,0.4820
759.00,0.4860
758.00,0.4900
757.00,0.4936
756.00,0.4964
755.00,0.4988
754.00,0.5015
753.00,0.5048
752.00,0.5089
751.00,0.5136
750.00,0.5186
749.00,0.5237
748.00,0.5284
747.00,0.5326
746.00,0.5365
745.00,0.5404
744.00,0.5448
743.00,0.5498
742.00,0.5554
741.00,0.5607
740.00,0.5654
739.00,0.5694
738.00,0.5730
737.00,0.5767
736.00,0.5807
735.00,0.5853
734.00,0.5907
733.00,0.5971
732.00,0.6048
731.00,0.6144
730.00,0.6266
729.00,0.6418
728.00,0.6604
727.00,0.6826
726.00,0.7087
725.00,0.7381
724.00,0.7681
723.00,0.7934
722.00,0.8056
721.00,0.7971
720.00,0.7671
719.00,0.7233
718.00,0.6761
717.00,0.6326
716.00,0.5960
715.00,0.5669
714.00,0.5441
713.00,0.5255
712.00,0.5101
711.00,0.4973
710.00,0.4870
709.00,0.4786
708.00,0.4716
707.00,0.4658
706.00,0.4611
705.00,0.4571
704.00,0.4533
703.00,0.4501
702.00,0.4481
701.00,0.4470
700.00,0.4453
699.00,0.4406
698.00,0.4311
697.00,0.4172
696.00,0.4015
695.00,0.3869
694.00,0.3749
693.00,0.3656
692.00,0.3589
691.00,0.3542
690.00,0.3508
689.00,0.3481
688.00,0.3458
687.00,0.3440
686.00,0.3427
685.00,0.3419
684.00,0.3412
683.00,0.3406
682.00,0.3399
681.00,0.3393
680.00,0.3388
679.00,0.3386
678.00,0.3385
677.00,0.3382
676.00,0.3380
675.00,0.3379
674.00,0.3382
673.00,0.3385
672.00,0.3386
671.00,0.3387
670.00,0.3392
669.00,0.3398
668.00,0.3402
667.00,0.3403
666.00,0.3407
665.00,0.3412
664.00,0.3417
663.00,0.3424
662.00,0.3433
661.00,0.3442
660.00,0.3450
659.00,0.3459
658.00,0.3471
657.00,0.3483
656.00,0.3495
655.00,0.3505
654.00,0.3516
653.00,0.3527
652.00,0.3540
651.00,0.3553
650.00,0.3565
649.00,0.3576
648.00,0.3585
647.00,0.3595
646.00,0.3607
645.00,0.3622
644.00,0.3639
643.00,0.3657
642.00,0.3675
641.00,0.3689
640.00,0.3698
639.00,0.3705
638.00,0.3711
637.00,0.3716
636.00,0.3718
635.00,0.3721
634.00,0.3725
633.00,0.3732
632.00,0.3742
631.00,0.3753
630.00,0.3767
629.00,0.3784
628.00,0.3801
627.00,0.3818
626.00,0.3838
625.00,0.3861
624.00,0.3886
623.00,0.3909
622.00,0.3929
621.00,0.3944
620.00,0.3957
619.00,0.3968
618.00,0.3975
617.00,0.3980
616.00,0.3984
615.00,0.3988
614.00,0.3989
613.00,0.3983
612.00,0.3973
611.00,0.3962
610.00,0.3953
609.00,0.3944
608.00,0.3933
607.00,0.3919
606.00,0.3903
605.00,0.3888
604.00,0.3877
603.00,0.3872
602.00,0.3871
601.00,0.3873
600.00,0.3878
599.00,0.3885
598.00,0.3893
597.00,0.3903
596.00,0.3914
595.00,0.3927
594.00,0.3941
593.00,0.3953
592.00,0.3965
591.00,0.3980
590.00,0.3999
589.00,0.4019
588.00,0.4039
587.00,0.4061
586.00,0.4087
585.00,0.4116
584.00,0.4144
583.00,0.4170
582.00,0.4193
581.00,0.4217
580.00,0.4243
579.00,0.4270
578.00,0.4295
577.00,0.4317
576.00,0.4340
575.00,0.4365
574.00,0.4388
573.00,0.4405
572.00,0.4417
571.00,0.4432
570.00,0.4452
569.00,0.4471
568.00,0.4486
567.00,0.4499
566.00,0.4514
565.00,0.4529
564.00,0.4538
563.00,0.4542
562.00,0.4546
561.00,0.4550
560.00,0.4556
559.00,0.4562
558.00,0.4567
557.00,0.4573
556.00,0.4582
555.00,0.4592
554.00,0.4602
553.00,0.4612
552.00,0.4624
551.00,0.4645
550.00,0.4671
