Created as New Dataset,
cm-1,A
4000.00,0.3715
3999.00,0.3712
3998.00,0.3708
3997.00,0.3705
3996.00,0.3701
3995.00,0.3697
3994.00,0.3693
3993.00,0.3689
3992.00,0.3686
3991.00,0.3684
3990.00,0.3681
3989.00,0.3678
3988.00,0.3674
3987.00,0.3669
3986.00,0.3665
3985.00,0.3662
3984.00,0.3658
3983.00,0.3655
3982.00,0.3651
3981.00,0.3648
3980.00,0.3644
3979.00,0.3641
3978.00,0.3638
3977.00,0.3635
3976.00,0.3632
3975.00,0.3630
3974.00,0.3627
3973.00,0.3625
3972.00,0.3623
3971.00,0.3622
3970.00,0.3620
3969.00,0.3618
3968.00,0.3615
3967.00,0.3613
3966.00,0.3610
3965.00,0.3609
3964.00,0.3607
3963.00,0.3606
3962.00,0.3603
3961.00,0.3601
3960.00,0.3599
3959.00,0.3597
3958.00,0.3596
3957.00,0.3595
3956.00,0.3594
3955.00,0.3593
3954.00,0.3592
3953.00,0.3590
3952.00,0.3588
3951.00,0.3586
3950.00,0.3584
3949.00,0.3583
3948.00,0.3582
3947.00,0.3581
3946.00,0.3580
3945.00,0.3579
3944.00,0.3577
3943.00,0.3575
3942.00,0.3573
3941.00,0.3572
3940.00,0.3571
3939.00,0.3570
3938.00,0.3569
3937.00,0.3569
3936.00,0.3569
3935.00,0.3569
3934.00,0.3569
3933.00,0.3568
3932.00,0.3568
3931.00,0.3567
3930.00,0.3566
3929.00,0.3566
3928.00,0.3566
3927.00,0.3565
3926.00,0.3565
3925.00,0.3565
3924.00,0.3565
3923.00,0.3564
3922.00,0.3563
3921.00,0.3563
3920.00,0.3562
3919.00,0.3562
3918.00,0.3562
3917.00,0.3561
3916.00,0.3561
3915.00,0.3561
3914.00,0.3560
3913.00,0.3560
3912.00,0.3560
3911.00,0.3559
3910.00,0.3558
3909.00,0.3557
3908.00,0.3556
3907.00,0.3556
3906.00,0.3556
3905.00,0.3557
3904.00,0.3558
3903.00,0.3558
3902.00,0.3558
3901.00,0.3557
3900.00,0.3557
3899.00,0.3556
3898.00,0.3556
3897.00,0.3554
3896.00,0.3554
3895.00,0.3553
3894.00,0.3553
3893.00,0.3552
3892.00,0.3550
3891.00,0.3549
3890.00,0.3548
3889.00,0.3547
3888.00,0.3545
3887.00,0.3545
3886.00,0.3545
3885.00,0.3546
3884.00,0.3546
3883.00,0.3545
3882.00,0.3544
3881.00,0.3544
3880.00,0.3545
3879.00,0.3544
3878.00,0.3542
3877.00,0.3540
3876.00,0.3538
3875.00,0.3537
3874.00,0.3537
3873.00,0.3536
3872.00,0.3534
3871.00,0.3532
3870.00,0.3532
3869.00,0.3533
3868.00,0.3532
3867.00,0.3530
3866.00,0.3529
3865.00,0.3528
3864.00,0.3527
3863.00,0.3525
3862.00,0.3523
3861.00,0.3521
3860.00,0.3520
3859.00,0.3519
3858.00,0.3520
3857.00,0.3520
3856.00,0.3519
3855.00,0.3518
3854.00,0.3518
3853.00,0.3519
3852.00,0.3519
3851.00,0.3518
3850.00,0.3516
3849.00,0.3515
3848.00,0.3515
3847.00,0.3515
3846.00,0.3514
3845.00,0.3512
3844.00,0.3510
3843.00,0.3510
3842.00,0.3510
3841.00,0.3511
3840.00,0.3512
3839.00,0.3513
3838.00,0.3513
3837.00,0.3512
3836.00,0.3511
3835.00,0.3510
3834.00,0.3508
3833.00,0.3506
3832.00,0.3505
3831.00,0.3504
3830.00,0.3501
3829.00,0.3499
3828.00,0.3497
3827.00,0.3496
3826.00,0.3497
3825.00,0.3497
3824.00,0.3496
3823.00,0.3495
3822.00,0.3494
3821.00,0.3495
3820.00,0.3495
3819.00,0.3494
3818.00,0.3491
3817.00,0.3489
3816.00,0.3488
3815.00,0.3486
3814.00,0.3483
3813.00,0.3480
3812.00,0.3477
3811.00,0.3475
3810.00,0.3473
3809.00,0.3471
3808.00,0.3469
3807.00,0.3468
3806.00,0.3467
3805.00,0.3466
3804.00,0.3465
3803.00,0.3463
3802.00,0.3463
3801.00,0.3464
3800.00,0.3462
3799.00,0.3459
3798.00,0.3456
3797.00,0.3454
3796.00,0.3452
3795.00,0.3451
3794.00,0.3448
3793.00,0.3444
3792.00,0.3442
3791.00,0.3440
3790.00,0.3438
3789.00,0.3437
3788.00,0.3435
3787.00,0.3433
3786.00,0.3432
3785.00,0.3431
3784.00,0.3430
3783.00,0.3429
3782.00,0.3427
3781.00,0.3426
3780.00,0.3425
3779.00,0.3424
3778.00,0.3422
3777.00,0.3420
3776.00,0.3418
3775.00,0.3416
3774.00,0.3415
3773.00,0.3414
3772.00,0.3412
3771.00,0.3410
3770.00,0.3408
3769.00,0.3407
3768.00,0.3406
3767.00,0.3404
3766.00,0.3403
3765.00,0.3403
3764.00,0.3402
3763.00,0.3400
3762.00,0.3398
3761.00,0.3397
3760.00,0.3395
3759.00,0.3394
3758.00,0.3392
3757.00,0.3390
3756.00,0.3388
3755.00,0.3386
3754.00,0.3385
3753.00,0.3385
3752.00,0.3384
3751.00,0.3384
3750.00,0.3384
3749.00,0.3384
3748.00,0.3384
3747.00,0.3383
3746.00,0.3382
3745.00,0.3381
3744.00,0.3380
3743.00,0.3379
3742.00,0.3376
3741.00,0.3373
3740.00,0.3372
3739.00,0.3371
3738.00,0.3371
3737.00,0.3370
3736.00,0.3369
3735.00,0.3369
3734.00,0.3368
3733.00,0.3366
3732.00,0.3365
3731.00,0.3363
3730.00,0.3361
3729.00,0.3359
3728.00,0.3357
3727.00,0.3355
3726.00,0.3353
3725.00,0.3350
3724.00,0.3347
3723.00,0.3344
3722.00,0.3341
3721.00,0.3339
3720.00,0.3337
3719.00,0.3335
3718.00,0.3335
3717.00,0.3334
3716.00,0.3333
3715.00,0.3332
3714.00,0.3331
3713.00,0.3331
3712.00,0.3331
3711.00,0.3331
3710.00,0.3330
3709.00,0.3330
3708.00,0.3329
3707.00,0.3329
3706.00,0.3328
3705.00,0.3328
3704.00,0.3327
3703.00,0.3327
3702.00,0.3327
3701.00,0.3326
3700.00,0.3326
3699.00,0.3325
3698.00,0.3325
3697.00,0.3325
3696.00,0.3326
3695.00,0.3326
3694.00,0.3327
3693.00,0.3327
3692.00,0.3327
3691.00,0.3328
3690.00,0.3327
3689.00,0.3328
3688.00,0.3328
3687.00,0.3328
3686.00,0.3327
3685.00,0.3325
3684.00,0.3324
3683.00,0.3322
3682.00,0.3321
3681.00,0.3320
3680.00,0.3319
3679.00,0.3319
3678.00,0.3319
3677.00,0.3319
3676.00,0.3321
3675.00,0.3323
3674.00,0.3323
3673.00,0.3322
3672.00,0.3321
3671.00,0.3321
3670.00,0.3322
3669.00,0.3322
3668.00,0.3321
3667.00,0.3319
3666.00,0.3317
3665.00,0.3317
3664.00,0.3316
3663.00,0.3316
3662.00,0.3316
3661.00,0.3317
3660.00,0.3318
3659.00,0.3319
3658.00,0.3320
3657.00,0.3321
3656.00,0.3324
3655.00,0.3327
3654.00,0.3329
3653.00,0.3330
3652.00,0.3332
3651.00,0.3334
3650.00,0.3336
3649.00,0.3337
3648.00,0.3337
3647.00,0.3338
3646.00,0.3339
3645.00,0.3340
3644.00,0.3340
3643.00,0.3341
3642.00,0.3341
3641.00,0.3342
3640.00,0.3342
3639.00,0.3341
3638.00,0.3342
3637.00,0.3343
3636.00,0.3344
3635.00,0.3346
3634.00,0.3348
3633.00,0.3350
3632.00,0.3352
3631.00,0.3354
3630.00,0.3357
3629.00,0.3362
3628.00,0.3367
3627.00,0.3370
3626.00,0.3373
3625.00,0.3376
3624.00,0.3379
3623.00,0.3382
3622.00,0.3383
3621.00,0.3382
3620.00,0.3380
3619.00,0.3379
3618.00,0.3379
3617.00,0.3379
3616.00,0.3379
3615.00,0.3378
3614.00,0.3378
3613.00,0.3378
3612.00,0.3377
3611.00,0.3377
3610.00,0.3377
3609.00,0.3377
3608.00,0.3378
3607.00,0.3377
3606.00,0.3376
3605.00,0.3375
3604.00,0.3373
3603.00,0.3370
3602.00,0.3367
3601.00,0.3364
3600.00,0.3360
3599.00,0.3356
3598.00,0.3351
3597.00,0.3345
3596.00,0.3339
3595.00,0.3334
3594.00,0.3330
3593.00,0.3327
3592.00,0.3324
3591.00,0.3322
3590.00,0.3320
3589.00,0.3318
3588.00,0.3317
3587.00,0.3316
3586.00,0.3314
3585.00,0.3312
3584.00,0.3311
3583.00,0.3310
3582.00,0.3309
3581.00,0.3309
3580.00,0.3308
3579.00,0.3307
3578.00,0.3306
3577.00,0.3306
3576.00,0.3307
3575.00,0.3308
3574.00,0.3308
3573.00,0.3309
3572.00,0.3310
3571.00,0.3312
3570.00,0.3314
3569.00,0.3316
3568.00,0.3319
3567.00,0.3322
3566.00,0.3325
3565.00,0.3328
3564.00,0.3330
3563.00,0.3333
3562.00,0.3335
3561.00,0.3337
3560.00,0.3339
3559.00,0.3341
3558.00,0.3344
3557.00,0.3348
3556.00,0.3351
3555.00,0.3354
3554.00,0.3358
3553.00,0.3362
3552.00,0.3366
3551.00,0.3371
3550.00,0.3375
3549.00,0.3378
3548.00,0.3382
3547.00,0.3385
3546.00,0.3389
3545.00,0.3393
3544.00,0.3397
3543.00,0.3401
3542.00,0.3404
3541.00,0.3408
3540.00,0.3411
3539.00,0.3413
3538.00,0.3416
3537.00,0.3420
3536.00,0.3423
3535.00,0.3426
3534.00,0.3429
3533.00,0.3431
3532.00,0.3433
3531.00,0.3436
3530.00,0.3440
3529.00,0.3443
3528.00,0.3447
3527.00,0.3451
3526.00,0.3455
3525.00,0.3459
3524.00,0.3462
3523.00,0.3465
3522.00,0.3468
3521.00,0.3473
3520.00,0.3477
3519.00,0.3482
3518.00,0.3486
3517.00,0.3490
3516.00,0.3494
3515.00,0.3498
3514.00,0.3502
3513.00,0.3506
3512.00,0.3511
3511.00,0.3515
3510.00,0.3520
3509.00,0.3526
3508.00,0.3530
3507.00,0.3534
3506.00,0.3538
3505.00,0.3542
3504.00,0.3548
3503.00,0.3553
3502.00,0.3558
3501.00,0.3563
3500.00,0.3568
3499.00,0.3572
3498.00,0.3576
3497.00,0.3581
3496.00,0.3587
3495.00,0.3594
3494.00,0.3601
3493.00,0.3608
3492.00,0.3616
3491.00,0.3622
3490.00,0.3629
3489.00,0.3635
3488.00,0.3642
3487.00,0.3649
3486.00,0.3657
3485.00,0.3664
3484.00,0.3672
3483.00,0.3678
3482.00,0.3684
3481.00,0.3689
3480.00,0.3693
3479.00,0.3698
3478.00,0.3702
3477.00,0.3707
3476.00,0.3711
3475.00,0.3716
3474.00,0.3721
3473.00,0.3725
3472.00,0.3730
3471.00,0.3734
3470.00,0.3738
3469.00,0.3743
3468.00,0.3748
3467.00,0.3753
3466.00,0.3758
3465.00,0.3763
3464.00,0.3769
3463.00,0.3775
3462.00,0.3782
3461.00,0.3788
3460.00,0.3794
3459.00,0.3800
3458.00,0.3806
3457.00,0.3813
3456.00,0.3819
3455.00,0.3826
3454.00,0.3832
3453.00,0.3840
3452.00,0.3847
3451.00,0.3853
3450.00,0.3860
3449.00,0.3867
3448.00,0.3874
3447.00,0.3882
3446.00,0.3890
3445.00,0.3897
3444.00,0.3904
3443.00,0.3910
3442.00,0.3917
3441.00,0.3923
3440.00,0.3930
3439.00,0.3936
3438.00,0.3942
3437.00,0.3949
3436.00,0.3955
3435.00,0.3962
3434.00,0.3969
3433.00,0.3977
3432.00,0.3984
3431.00,0.3990
3430.00,0.3997
3429.00,0.4005
3428.00,0.4013
3427.00,0.4021
3426.00,0.4028
3425.00,0.4035
3424.00,0.4043
3423.00,0.4050
3422.00,0.4058
3421.00,0.4066
3420.00,0.4075
3419.00,0.4084
3418.00,0.4093
3417.00,0.4103
3416.00,0.4113
3415.00,0.4123
3414.00,0.4132
3413.00,0.4140
3412.00,0.4149
3411.00,0.4158
3410.00,0.4167
3409.00,0.4176
3408.00,0.4186
3407.00,0.4195
3406.00,0.4205
3405.00,0.4215
3404.00,0.4224
3403.00,0.4234
3402.00,0.4244
3401.00,0.4254
3400.00,0.4264
3399.00,0.4274
3398.00,0.4283
3397.00,0.4293
3396.00,0.4303
3395.00,0.4314
3394.00,0.4324
3393.00,0.4335
3392.00,0.4346
3391.00,0.4357
3390.00,0.4367
3389.00,0.4378
3388.00,0.4389
3387.00,0.4400
3386.00,0.4411
3385.00,0.4422
3384.00,0.4433
3383.00,0.4444
3382.00,0.4455
3381.00,0.4468
3380.00,0.4480
3379.00,0.4493
3378.00,0.4507
3377.00,0.4520
3376.00,0.4533
3375.00,0.4546
3374.00,0.4559
3373.00,0.4571
3372.00,0.4584
3371.00,0.4597
3370.00,0.4611
3369.00,0.4624
3368.00,0.4639
3367.00,0.4653
3366.00,0.4669
3365.00,0.4684
3364.00,0.4699
3363.00,0.4714
3362.00,0.4729
3361.00,0.4745
3360.00,0.4760
3359.00,0.4776
3358.00,0.4791
3357.00,0.4807
3356.00,0.4823
3355.00,0.4840
3354.00,0.4857
3353.00,0.4875
3352.00,0.4893
3351.00,0.4911
3350.00,0.4928
3349.00,0.4945
3348.00,0.4961
3347.00,0.4976
3346.00,0.4991
3345.00,0.5007
3344.00,0.5022
3343.00,0.5036
3342.00,0.5051
3341.00,0.5066
3340.00,0.5080
3339.00,0.5093
3338.00,0.5104
3337.00,0.5115
3336.00,0.5126
3335.00,0.5135
3334.00,0.5143
3333.00,0.5150
3332.00,0.5157
3331.00,0.5163
3330.00,0.5168
3329.00,0.5173
3328.00,0.5177
3327.00,0.5181
3326.00,0.5183
3325.00,0.5184
3324.00,0.5184
3323.00,0.5183
3322.00,0.5181
3321.00,0.5179
3320.00,0.5177
3319.00,0.5173
3318.00,0.5169
3317.00,0.5164
3316.00,0.5157
3315.00,0.5150
3314.00,0.5143
3313.00,0.5136
3312.00,0.5129
3311.00,0.5121
3310.00,0.5113
3309.00,0.5104
3308.00,0.5096
3307.00,0.5087
3306.00,0.5079
3305.00,0.5071
3304.00,0.5062
3303.00,0.5053
3302.00,0.5043
3301.00,0.5035
3300.00,0.5026
3299.00,0.5018
3298.00,0.5010
3297.00,0.5002
3296.00,0.4995
3295.00,0.4988
3294.00,0.4981
3293.00,0.4976
3292.00,0.4971
3291.00,0.4965
3290.00,0.4961
3289.00,0.4957
3288.00,0.4955
3287.00,0.4953
3286.00,0.4951
3285.00,0.4950
3284.00,0.4949
3283.00,0.4949
3282.00,0.4950
3281.00,0.4950
3280.00,0.4951
3279.00,0.4952
3278.00,0.4953
3277.00,0.4955
3276.00,0.4957
3275.00,0.4960
3274.00,0.4962
3273.00,0.4965
3272.00,0.4968
3271.00,0.4971
3270.00,0.4975
3269.00,0.4980
3268.00,0.4984
3267.00,0.4988
3266.00,0.4993
3265.00,0.4998
3264.00,0.5003
3263.00,0.5008
3262.00,0.5013
3261.00,0.5019
3260.00,0.5025
3259.00,0.5030
3258.00,0.5035
3257.00,0.5039
3256.00,0.5044
3255.00,0.5050
3254.00,0.5056
3253.00,0.5062
3252.00,0.5068
3251.00,0.5074
3250.00,0.5080
3249.00,0.5086
3248.00,0.5091
3247.00,0.5096
3246.00,0.5100
3245.00,0.5104
3244.00,0.5108
3243.00,0.5111
3242.00,0.5115
3241.00,0.5119
3240.00,0.5123
3239.00,0.5126
3238.00,0.5129
3237.00,0.5131
3236.00,0.5131
3235.00,0.5132
3234.00,0.5133
3233.00,0.5134
3232.00,0.5135
3231.00,0.5135
3230.00,0.5135
3229.00,0.5134
3228.00,0.5134
3227.00,0.5134
3226.00,0.5133
3225.00,0.5132
3224.00,0.5130
3223.00,0.5128
3222.00,0.5127
3221.00,0.5125
3220.00,0.5124
3219.00,0.5122
3218.00,0.5120
3217.00,0.5118
3216.00,0.5116
3215.00,0.5114
3214.00,0.5112
3213.00,0.5110
3212.00,0.5108
3211.00,0.5105
3210.00,0.5103
3209.00,0.5101
3208.00,0.5099
3207.00,0.5096
3206.00,0.5093
3205.00,0.5090
3204.00,0.5086
3203.00,0.5082
3202.00,0.5078
3201.00,0.5074
3200.00,0.5071
3199.00,0.5068
3198.00,0.5065
3197.00,0.5060
3196.00,0.5055
3195.00,0.5049
3194.00,0.5043
3193.00,0.5039
3192.00,0.5034
3191.00,0.5029
3190.00,0.5024
3189.00,0.5018
3188.00,0.5012
3187.00,0.5007
3186.00,0.5001
3185.00,0.4994
3184.00,0.4988
3183.00,0.4982
3182.00,0.4976
3181.00,0.4971
3180.00,0.4965
3179.00,0.4959
3178.00,0.4952
3177.00,0.4944
3176.00,0.4937
3175.00,0.4929
3174.00,0.4922
3173.00,0.4915
3172.00,0.4908
3171.00,0.4901
3170.00,0.4893
3169.00,0.4885
3168.00,0.4877
3167.00,0.4869
3166.00,0.4861
3165.00,0.4853
3164.00,0.4844
3163.00,0.4834
3162.00,0.4825
3161.00,0.4815
3160.00,0.4807
3159.00,0.4799
3158.00,0.4791
3157.00,0.4783
3156.00,0.4775
3155.00,0.4767
3154.00,0.4759
3153.00,0.4750
3152.00,0.4742
3151.00,0.4735
3150.00,0.4728
3149.00,0.4721
3148.00,0.4714
3147.00,0.4707
3146.00,0.4701
3145.00,0.4695
3144.00,0.4690
3143.00,0.4684
3142.00,0.4679
3141.00,0.4673
3140.00,0.4668
3139.00,0.4663
3138.00,0.4659
3137.00,0.4656
3136.00,0.4652
3135.00,0.4647
3134.00,0.4643
3133.00,0.4640
3132.00,0.4637
3131.00,0.4635
3130.00,0.4632
3129.00,0.4630
3128.00,0.4628
3127.00,0.4626
3126.00,0.4625
3125.00,0.4625
3124.00,0.4626
3123.00,0.4627
3122.00,0.4628
3121.00,0.4630
3120.00,0.4632
3119.00,0.4634
3118.00,0.4637
3117.00,0.4640
3116.00,0.4643
3115.00,0.4647
3114.00,0.4651
3113.00,0.4656
3112.00,0.4661
3111.00,0.4667
3110.00,0.4674
3109.00,0.4682
3108.00,0.4690
3107.00,0.4698
3106.00,0.4706
3105.00,0.4714
3104.00,0.4721
3103.00,0.4730
3102.00,0.4738
3101.00,0.4746
3100.00,0.4755
3099.00,0.4764
3098.00,0.4773
3097.00,0.4784
3096.00,0.4796
3095.00,0.4809
3094.00,0.4823
3093.00,0.4839
3092.00,0.4856
3091.00,0.4876
3090.00,0.4898
3089.00,0.4921
3088.00,0.4946
3087.00,0.4972
3086.00,0.4999
3085.00,0.5026
3084.00,0.5055
3083.00,0.5085
3082.00,0.5115
3081.00,0.5148
3080.00,0.5183
3079.00,0.5221
3078.00,0.5260
3077.00,0.5301
3076.00,0.5343
3075.00,0.5386
3074.00,0.5428
3073.00,0.5472
3072.00,0.5515
3071.00,0.5558
3070.00,0.5602
3069.00,0.5645
3068.00,0.5689
3067.00,0.5732
3066.00,0.5773
3065.00,0.5813
3064.00,0.5851
3063.00,0.5887
3062.00,0.5919
3061.00,0.5949
3060.00,0.5977
3059.00,0.6004
3058.00,0.6030
3057.00,0.6058
3056.00,0.6087
3055.00,0.6117
3054.00,0.6149
3053.00,0.6183
3052.00,0.6218
3051.00,0.6255
3050.00,0.6295
3049.00,0.6337
3048.00,0.6381
3047.00,0.6427
3046.00,0.6474
3045.00,0.6521
3044.00,0.6568
3043.00,0.6615
3042.00,0.6661
3041.00,0.6707
3040.00,0.6752
3039.00,0.6798
3038.00,0.6846
3037.00,0.6897
3036.00,0.6951
3035.00,0.7010
3034.00,0.7072
3033.00,0.7140
3032.00,0.7212
3031.00,0.7289
3030.00,0.7370
3029.00,0.7456
3028.00,0.7545
3027.00,0.7637
3026.00,0.7733
3025.00,0.7833
3024.00,0.7937
3023.00,0.8044
3022.00,0.8153
3021.00,0.8265
3020.00,0.8379
3019.00,0.8496
3018.00,0.8614
3017.00,0.8733
3016.00,0.8852
3015.00,0.8971
3014.00,0.9091
3013.00,0.9215
3012.00,0.9343
3011.00,0.9475
3010.00,0.9612
3009.00,0.9755
3008.00,0.9905
3007.00,1.0062
3006.00,1.0225
3005.00,1.0393
3004.00,1.0567
3003.00,1.0746
3002.00,1.0931
3001.00,1.1120
3000.00,1.1317
2999.00,1.1525
2998.00,1.1750
2997.00,1.1994
2996.00,1.2262
2995.00,1.2559
2994.00,1.2891
2993.00,1.3261
2992.00,1.3674
2991.00,1.4137
2990.00,1.4655
2989.00,1.5236
2988.00,1.5886
2987.00,1.6606
2986.00,1.7401
2985.00,1.8274
2984.00,1.9238
2983.00,2.0309
2982.00,2.1511
2981.00,2.2861
2980.00,2.4361
2979.00,2.6007
2978.00,2.7796
2977.00,2.9738
2976.00,3.1900
2975.00,3.4432
2974.00,3.7486
2973.00,4.0612
2972.00,4.1161
2971.00,3.9497
2970.00,3.8641
2969.00,3.8991
2968.00,3.9456
2967.00,3.8908
2966.00,3.8317
2965.00,3.8849
2964.00,4.0282
2963.00,4.1844
2962.00,4.4003
2961.00,4.6654
2960.00,4.9554
2959.00,4.4631
2958.00,4.1515
2957.00,4.0505
2956.00,4.0588
2955.00,4.0771
2954.00,3.9300
2953.00,3.7502
2952.00,3.6469
2951.00,3.6808
2950.00,3.9272
2949.00,4.2366
2948.00,4.1023
2947.00,3.9770
2946.00,4.1593
2945.00,4.4337
2944.00,4.1568
2943.00,4.0717
2942.00,4.3126
2941.00,4.5208
2940.00,4.2138
2939.00,3.9704
2938.00,3.9389
2937.00,4.0139
2936.00,4.1538
2935.00,4.2282
2934.00,4.1054
2933.00,4.0125
2932.00,4.0134
2931.00,4.0516
2930.00,4.0774
2929.00,4.0778
2928.00,4.0947
2927.00,4.1888
2926.00,4.3118
2925.00,4.2418
2924.00,4.0266
2923.00,3.8856
2922.00,3.8533
2921.00,3.8606
2920.00,3.8514
2919.00,3.8373
2918.00,3.8557
2917.00,3.9135
2916.00,3.9951
2915.00,4.1032
2914.00,4.2631
2913.00,4.4372
2912.00,4.3939
2911.00,4.1690
2910.00,4.0607
2909.00,4.1151
2908.00,4.1801
2907.00,4.1633
2906.00,4.0608
2905.00,3.9594
2904.00,3.8879
2903.00,3.9090
2902.00,4.0878
2901.00,4.1930
2900.00,4.1771
2899.00,4.2295
2898.00,4.2721
2897.00,4.1037
2896.00,3.9112
2895.00,3.8535
2894.00,3.8739
2893.00,3.9128
2892.00,3.9584
2891.00,3.9996
2890.00,4.0889
2889.00,4.2853
2888.00,4.4437
2887.00,4.3168
2886.00,4.1659
2885.00,4.0815
2884.00,4.0088
2883.00,3.9775
2882.00,4.0446
2881.00,4.1951
2880.00,4.2815
2879.00,4.2841
2878.00,4.3909
2877.00,4.5404
2876.00,4.6699
2875.00,4.6434
2874.00,4.2464
2873.00,3.9667
2872.00,3.8313
2871.00,3.8303
2870.00,3.8617
2869.00,3.9011
2868.00,4.0172
2867.00,4.1983
2866.00,4.2821
2865.00,4.2818
2864.00,4.4477
2863.00,4.5367
2862.00,4.1597
2861.00,3.9052
2860.00,3.8194
2859.00,3.8122
2858.00,3.8046
2857.00,3.9020
2856.00,4.1943
2855.00,4.2764
2854.00,4.0417
2853.00,3.8917
2852.00,3.9305
2851.00,4.0126
2850.00,4.0497
2849.00,4.0446
2848.00,3.9322
2847.00,3.8331
2846.00,3.8209
2845.00,3.8872
2844.00,3.9398
2843.00,3.9273
2842.00,3.8751
2841.00,3.7954
2840.00,3.6813
2839.00,3.5440
2838.00,3.3797
2837.00,3.1773
2836.00,2.9651
2835.00,2.7693
2834.00,2.5919
2833.00,2.4273
2832.00,2.2746
2831.00,2.1363
2830.00,2.0134
2829.00,1.9049
2828.00,1.8091
2827.00,1.7240
2826.00,1.6477
2825.00,1.5783
2824.00,1.5148
2823.00,1.4569
2822.00,1.4040
2821.00,1.3554
2820.00,1.3105
2819.00,1.2688
2818.00,1.2303
2817.00,1.1947
2816.00,1.1616
2815.00,1.1305
2814.00,1.1012
2813.00,1.0739
2812.00,1.0483
2811.00,1.0242
2810.00,1.0014
2809.00,0.9796
2808.00,0.9588
2807.00,0.9390
2806.00,0.9202
2805.00,0.9024
2804.00,0.8855
2803.00,0.8695
2802.00,0.8544
2801.00,0.8400
2800.00,0.8262
2799.00,0.8130
2798.00,0.8004
2797.00,0.7884
2796.00,0.7769
2795.00,0.7657
2794.00,0.7547
2793.00,0.7440
2792.00,0.7337
2791.00,0.7237
2790.00,0.7139
2789.00,0.7044
2788.00,0.6952
2787.00,0.6861
2786.00,0.6772
2785.00,0.6684
2784.00,0.6599
2783.00,0.6517
2782.00,0.6439
2781.00,0.6364
2780.00,0.6292
2779.00,0.6221
2778.00,0.6153
2777.00,0.6089
2776.00,0.6028
2775.00,0.5971
2774.00,0.5917
2773.00,0.5867
2772.00,0.5820
2771.00,0.5776
2770.00,0.5737
2769.00,0.5702
2768.00,0.5670
2767.00,0.5642
2766.00,0.5617
2765.00,0.5596
2764.00,0.5576
2763.00,0.5558
2762.00,0.5542
2761.00,0.5528
2760.00,0.5515
2759.00,0.5503
2758.00,0.5491
2757.00,0.5480
2756.00,0.5470
2755.00,0.5460
2754.00,0.5451
2753.00,0.5443
2752.00,0.5438
2751.00,0.5434
2750.00,0.5433
2749.00,0.5433
2748.00,0.5437
2747.00,0.5442
2746.00,0.5449
2745.00,0.5459
2744.00,0.5471
2743.00,0.5486
2742.00,0.5506
2741.00,0.5530
2740.00,0.5557
2739.00,0.5590
2738.00,0.5628
2737.00,0.5670
2736.00,0.5718
2735.00,0.5769
2734.00,0.5822
2733.00,0.5875
2732.00,0.5923
2731.00,0.5964
2730.00,0.5995
2729.00,0.6014
2728.00,0.6022
2727.00,0.6021
2726.00,0.6012
2725.00,0.5998
2724.00,0.5978
2723.00,0.5955
2722.00,0.5928
2721.00,0.5899
2720.00,0.5866
2719.00,0.5831
2718.00,0.5792
2717.00,0.5750
2716.00,0.5706
2715.00,0.5660
2714.00,0.5614
2713.00,0.5570
2712.00,0.5528
2711.00,0.5489
2710.00,0.5454
2709.00,0.5423
2708.00,0.5396
2707.00,0.5375
2706.00,0.5357
2705.00,0.5343
2704.00,0.5331
2703.00,0.5323
2702.00,0.5318
2701.00,0.5315
2700.00,0.5314
2699.00,0.5314
2698.00,0.5316
2697.00,0.5319
2696.00,0.5325
2695.00,0.5331
2694.00,0.5340
2693.00,0.5348
2692.00,0.5357
2691.00,0.5366
2690.00,0.5375
2689.00,0.5384
2688.00,0.5391
2687.00,0.5398
2686.00,0.5403
2685.00,0.5408
2684.00,0.5412
2683.00,0.5417
2682.00,0.5421
2681.00,0.5425
2680.00,0.5428
2679.00,0.5431
2678.00,0.5435
2677.00,0.5439
2676.00,0.5443
2675.00,0.5447
2674.00,0.5451
2673.00,0.5455
2672.00,0.5459
2671.00,0.5460
2670.00,0.5459
2669.00,0.5455
2668.00,0.5447
2667.00,0.5435
2666.00,0.5422
2665.00,0.5406
2664.00,0.5389
2663.00,0.5371
2662.00,0.5352
2661.00,0.5333
2660.00,0.5313
2659.00,0.5293
2658.00,0.5272
2657.00,0.5250
2656.00,0.5229
2655.00,0.5207
2654.00,0.5187
2653.00,0.5168
2652.00,0.5150
2651.00,0.5134
2650.00,0.5118
2649.00,0.5103
2648.00,0.5089
2647.00,0.5076
2646.00,0.5064
2645.00,0.5052
2644.00,0.5040
2643.00,0.5029
2642.00,0.5018
2641.00,0.5008
2640.00,0.4998
2639.00,0.4990
2638.00,0.4982
2637.00,0.4974
2636.00,0.4965
2635.00,0.4957
2634.00,0.4949
2633.00,0.4941
2632.00,0.4934
2631.00,0.4927
2630.00,0.4919
2629.00,0.4911
2628.00,0.4903
2627.00,0.4894
2626.00,0.4885
2625.00,0.4876
2624.00,0.4866
2623.00,0.4856
2622.00,0.4846
2621.00,0.4837
2620.00,0.4828
2619.00,0.4819
2618.00,0.4809
2617.00,0.4799
2616.00,0.4790
2615.00,0.4781
2614.00,0.4771
2613.00,0.4762
2612.00,0.4753
2611.00,0.4743
2610.00,0.4732
2609.00,0.4722
2608.00,0.4713
2607.00,0.4703
2606.00,0.4694
2605.00,0.4685
2604.00,0.4676
2603.00,0.4667
2602.00,0.4657
2601.00,0.4647
2600.00,0.4636
2599.00,0.4624
2598.00,0.4612
2597.00,0.4600
2596.00,0.4586
2595.00,0.4571
2594.00,0.4556
2593.00,0.4541
2592.00,0.4525
2591.00,0.4510
2590.00,0.4494
2589.00,0.4478
2588.00,0.4462
2587.00,0.4444
2586.00,0.4427
2585.00,0.4410
2584.00,0.4392
2583.00,0.4374
2582.00,0.4356
2581.00,0.4338
2580.00,0.4319
2579.00,0.4301
2578.00,0.4283
2577.00,0.4266
2576.00,0.4250
2575.00,0.4233
2574.00,0.4218
2573.00,0.4203
2572.00,0.4188
2571.00,0.4173
2570.00,0.4159
2569.00,0.4144
2568.00,0.4131
2567.00,0.4117
2566.00,0.4105
2565.00,0.4092
2564.00,0.4079
2563.00,0.4066
2562.00,0.4053
2561.00,0.4041
2560.00,0.4029
2559.00,0.4017
2558.00,0.4005
2557.00,0.3993
2556.00,0.3981
2555.00,0.3970
2554.00,0.3958
2553.00,0.3947
2552.00,0.3935
2551.00,0.3924
2550.00,0.3913
2549.00,0.3901
2548.00,0.3891
2547.00,0.3880
2546.00,0.3870
2545.00,0.3860
2544.00,0.3851
2543.00,0.3843
2542.00,0.3835
2541.00,0.3827
2540.00,0.3819
2539.00,0.3811
2538.00,0.3804
2537.00,0.3798
2536.00,0.3792
2535.00,0.3786
2534.00,0.3780
2533.00,0.3775
2532.00,0.3769
2531.00,0.3762
2530.00,0.3755
2529.00,0.3748
2528.00,0.3740
2527.00,0.3732
2526.00,0.3723
2525.00,0.3714
2524.00,0.3705
2523.00,0.3696
2522.00,0.3687
2521.00,0.3678
2520.00,0.3668
2519.00,0.3659
2518.00,0.3649
2517.00,0.3640
2516.00,0.3631
2515.00,0.3622
2514.00,0.3612
2513.00,0.3603
2512.00,0.3594
2511.00,0.3585
2510.00,0.3577
2509.00,0.3570
2508.00,0.3564
2507.00,0.3558
2506.00,0.3551
2505.00,0.3544
2504.00,0.3539
2503.00,0.3534
2502.00,0.3530
2501.00,0.3526
2500.00,0.3523
2499.00,0.3520
2498.00,0.3516
2497.00,0.3513
2496.00,0.3509
2495.00,0.3506
2494.00,0.3503
2493.00,0.3499
2492.00,0.3496
2491.00,0.3493
2490.00,0.3490
2489.00,0.3486
2488.00,0.3483
2487.00,0.3479
2486.00,0.3475
2485.00,0.3470
2484.00,0.3466
2483.00,0.3462
2482.00,0.3458
2481.00,0.3454
2480.00,0.3450
2479.00,0.3445
2478.00,0.3441
2477.00,0.3436
2476.00,0.3432
2475.00,0.3427
2474.00,0.3423
2473.00,0.3420
2472.00,0.3416
2471.00,0.3413
2470.00,0.3409
2469.00,0.3406
2468.00,0.3403
2467.00,0.3400
2466.00,0.3398
2465.00,0.3396
2464.00,0.3394
2463.00,0.3393
2462.00,0.3391
2461.00,0.3390
2460.00,0.3388
2459.00,0.3387
2458.00,0.3386
2457.00,0.3385
2456.00,0.3385
2455.00,0.3384
2454.00,0.3384
2453.00,0.3383
2452.00,0.3381
2451.00,0.3380
2450.00,0.3378
2449.00,0.3377
2448.00,0.3376
2447.00,0.3375
2446.00,0.3375
2445.00,0.3374
2444.00,0.3373
2443.00,0.3372
2442.00,0.3371
2441.00,0.3370
2440.00,0.3369
2439.00,0.3369
2438.00,0.3368
2437.00,0.3368
2436.00,0.3368
2435.00,0.3368
2434.00,0.3369
2433.00,0.3370
2432.00,0.3370
2431.00,0.3371
2430.00,0.3371
2429.00,0.3372
2428.00,0.3373
2427.00,0.3374
2426.00,0.3376
2425.00,0.3377
2424.00,0.3378
2423.00,0.3380
2422.00,0.3381
2421.00,0.3383
2420.00,0.3384
2419.00,0.3386
2418.00,0.3387
2417.00,0.3387
2416.00,0.3388
2415.00,0.3388
2414.00,0.3388
2413.00,0.3388
2412.00,0.3388
2411.00,0.3388
2410.00,0.3387
2409.00,0.3386
2408.00,0.3385
2407.00,0.3384
2406.00,0.3382
2405.00,0.3381
2404.00,0.3379
2403.00,0.3378
2402.00,0.3376
2401.00,0.3375
2400.00,0.3373
2399.00,0.3371
2398.00,0.3369
2397.00,0.3367
2396.00,0.3365
2395.00,0.3364
2394.00,0.3363
2393.00,0.3361
2392.00,0.3360
2391.00,0.3360
2390.00,0.3359
2389.00,0.3359
2388.00,0.3359
2387.00,0.3358
2386.00,0.3358
2385.00,0.3358
2384.00,0.3359
2383.00,0.3359
2382.00,0.3359
2381.00,0.3359
2380.00,0.3359
2379.00,0.3360
2378.00,0.3359
2377.00,0.3359
2376.00,0.3358
2375.00,0.3356
2374.00,0.3354
2373.00,0.3352
2372.00,0.3351
2371.00,0.3350
2370.00,0.3350
2369.00,0.3350
2368.00,0.3350
2367.00,0.3351
2366.00,0.3351
2365.00,0.3350
2364.00,0.3350
2363.00,0.3349
2362.00,0.3349
2361.00,0.3349
2360.00,0.3348
2359.00,0.3347
2358.00,0.3346
2357.00,0.3346
2356.00,0.3345
2355.00,0.3344
2354.00,0.3343
2353.00,0.3341
2352.00,0.3340
2351.00,0.3340
2350.00,0.3339
2349.00,0.3339
2348.00,0.3339
2347.00,0.3338
2346.00,0.3336
2345.00,0.3334
2344.00,0.3333
2343.00,0.3331
2342.00,0.3331
2341.00,0.3330
2340.00,0.3330
2339.00,0.3329
2338.00,0.3328
2337.00,0.3328
2336.00,0.3328
2335.00,0.3327
2334.00,0.3325
2333.00,0.3323
2332.00,0.3320
2331.00,0.3317
2330.00,0.3314
2329.00,0.3310
2328.00,0.3307
2327.00,0.3304
2326.00,0.3302
2325.00,0.3300
2324.00,0.3299
2323.00,0.3297
2322.00,0.3295
2321.00,0.3292
2320.00,0.3289
2319.00,0.3286
2318.00,0.3284
2317.00,0.3283
2316.00,0.3281
2315.00,0.3278
2314.00,0.3275
2313.00,0.3272
2312.00,0.3269
2311.00,0.3266
2310.00,0.3262
2309.00,0.3258
2308.00,0.3255
2307.00,0.3252
2306.00,0.3249
2305.00,0.3247
2304.00,0.3244
2303.00,0.3242
2302.00,0.3239
2301.00,0.3237
2300.00,0.3235
2299.00,0.3233
2298.00,0.3231
2297.00,0.3228
2296.00,0.3226
2295.00,0.3223
2294.00,0.3221
2293.00,0.3218
2292.00,0.3216
2291.00,0.3213
2290.00,0.3210
2289.00,0.3208
2288.00,0.3205
2287.00,0.3203
2286.00,0.3200
2285.00,0.3198
2284.00,0.3195
2283.00,0.3193
2282.00,0.3189
2281.00,0.3186
2280.00,0.3182
2279.00,0.3178
2278.00,0.3175
2277.00,0.3171
2276.00,0.3168
2275.00,0.3164
2274.00,0.3161
2273.00,0.3159
2272.00,0.3156
2271.00,0.3155
2270.00,0.3153
2269.00,0.3151
2268.00,0.3149
2267.00,0.3147
2266.00,0.3144
2265.00,0.3142
2264.00,0.3141
2263.00,0.3139
2262.00,0.3138
2261.00,0.3137
2260.00,0.3135
2259.00,0.3133
2258.00,0.3130
2257.00,0.3128
2256.00,0.3126
2255.00,0.3124
2254.00,0.3122
2253.00,0.3119
2252.00,0.3117
2251.00,0.3114
2250.00,0.3112
2249.00,0.3110
2248.00,0.3108
2247.00,0.3106
2246.00,0.3104
2245.00,0.3101
2244.00,0.3099
2243.00,0.3097
2242.00,0.3095
2241.00,0.3092
2240.00,0.3090
2239.00,0.3088
2238.00,0.3086
2237.00,0.3084
2236.00,0.3082
2235.00,0.3080
2234.00,0.3078
2233.00,0.3077
2232.00,0.3076
2231.00,0.3075
2230.00,0.3074
2229.00,0.3074
2228.00,0.3073
2227.00,0.3072
2226.00,0.3071
2225.00,0.3071
2224.00,0.3071
2223.00,0.3070
2222.00,0.3070
2221.00,0.3070
2220.00,0.3070
2219.00,0.3070
2218.00,0.3070
2217.00,0.3069
2216.00,0.3069
2215.00,0.3068
2214.00,0.3068
2213.00,0.3067
2212.00,0.3067
2211.00,0.3066
2210.00,0.3065
2209.00,0.3064
2208.00,0.3063
2207.00,0.3062
2206.00,0.3062
2205.00,0.3061
2204.00,0.3059
2203.00,0.3058
2202.00,0.3057
2201.00,0.3056
2200.00,0.3056
2199.00,0.3055
2198.00,0.3055
2197.00,0.3054
2196.00,0.3054
2195.00,0.3054
2194.00,0.3055
2193.00,0.3055
2192.00,0.3055
2191.00,0.3055
2190.00,0.3055
2189.00,0.3055
2188.00,0.3056
2187.00,0.3056
2186.00,0.3057
2185.00,0.3058
2184.00,0.3059
2183.00,0.3059
2182.00,0.3058
2181.00,0.3057
2180.00,0.3057
2179.00,0.3056
2178.00,0.3055
2177.00,0.3055
2176.00,0.3054
2175.00,0.3053
2174.00,0.3052
2173.00,0.3050
2172.00,0.3048
2171.00,0.3047
2170.00,0.3045
2169.00,0.3044
2168.00,0.3042
2167.00,0.3040
2166.00,0.3037
2165.00,0.3034
2164.00,0.3032
2163.00,0.3029
2162.00,0.3027
2161.00,0.3026
2160.00,0.3024
2159.00,0.3022
2158.00,0.3021
2157.00,0.3019
2156.00,0.3018
2155.00,0.3017
2154.00,0.3016
2153.00,0.3016
2152.00,0.3015
2151.00,0.3013
2150.00,0.3011
2149.00,0.3009
2148.00,0.3008
2147.00,0.3006
2146.00,0.3003
2145.00,0.3000
2144.00,0.2996
2143.00,0.2992
2142.00,0.2988
2141.00,0.2985
2140.00,0.2981
2139.00,0.2978
2138.00,0.2974
2137.00,0.2971
2136.00,0.2969
2135.00,0.2966
2134.00,0.2963
2133.00,0.2960
2132.00,0.2958
2131.00,0.2955
2130.00,0.2953
2129.00,0.2950
2128.00,0.2948
2127.00,0.2945
2126.00,0.2943
2125.00,0.2941
2124.00,0.2940
2123.00,0.2938
2122.00,0.2936
2121.00,0.2935
2120.00,0.2934
2119.00,0.2933
2118.00,0.2932
2117.00,0.2932
2116.00,0.2932
2115.00,0.2932
2114.00,0.2931
2113.00,0.2931
2112.00,0.2931
2111.00,0.2931
2110.00,0.2930
2109.00,0.2930
2108.00,0.2930
2107.00,0.2930
2106.00,0.2930
2105.00,0.2930
2104.00,0.2929
2103.00,0.2929
2102.00,0.2928
2101.00,0.2927
2100.00,0.2927
2099.00,0.2925
2098.00,0.2924
2097.00,0.2923
2096.00,0.2923
2095.00,0.2923
2094.00,0.2922
2093.00,0.2921
2092.00,0.2920
2091.00,0.2919
2090.00,0.2918
2089.00,0.2918
2088.00,0.2917
2087.00,0.2916
2086.00,0.2915
2085.00,0.2915
2084.00,0.2915
2083.00,0.2915
2082.00,0.2914
2081.00,0.2914
2080.00,0.2915
2079.00,0.2915
2078.00,0.2915
2077.00,0.2915
2076.00,0.2916
2075.00,0.2916
2074.00,0.2917
2073.00,0.2918
2072.00,0.2919
2071.00,0.2920
2070.00,0.2921
2069.00,0.2922
2068.00,0.2924
2067.00,0.2926
2066.00,0.2928
2065.00,0.2929
2064.00,0.2930
2063.00,0.2930
2062.00,0.2930
2061.00,0.2931
2060.00,0.2932
2059.00,0.2934
2058.00,0.2934
2057.00,0.2935
2056.00,0.2936
2055.00,0.2936
2054.00,0.2936
2053.00,0.2937
2052.00,0.2938
2051.00,0.2940
2050.00,0.2941
2049.00,0.2943
2048.00,0.2944
2047.00,0.2945
2046.00,0.2947
2045.00,0.2948
2044.00,0.2950
2043.00,0.2952
2042.00,0.2954
2041.00,0.2955
2040.00,0.2956
2039.00,0.2957
2038.00,0.2957
2037.00,0.2958
2036.00,0.2960
2035.00,0.2960
2034.00,0.2961
2033.00,0.2961
2032.00,0.2961
2031.00,0.2962
2030.00,0.2962
2029.00,0.2962
2028.00,0.2962
2027.00,0.2961
2026.00,0.2960
2025.00,0.2958
2024.00,0.2956
2023.00,0.2954
2022.00,0.2952
2021.00,0.2949
2020.00,0.2946
2019.00,0.2942
2018.00,0.2938
2017.00,0.2933
2016.00,0.2927
2015.00,0.2920
2014.00,0.2913
2013.00,0.2907
2012.00,0.2902
2011.00,0.2897
2010.00,0.2893
2009.00,0.2890
2008.00,0.2887
2007.00,0.2884
2006.00,0.2881
2005.00,0.2878
2004.00,0.2876
2003.00,0.2874
2002.00,0.2872
2001.00,0.2871
2000.00,0.2870
1999.00,0.2868
1998.00,0.2867
1997.00,0.2865
1996.00,0.2864
1995.00,0.2864
1994.00,0.2864
1993.00,0.2865
1992.00,0.2866
1991.00,0.2865
1990.00,0.2863
1989.00,0.2862
1988.00,0.2861
1987.00,0.2860
1986.00,0.2858
1985.00,0.2857
1984.00,0.2857
1983.00,0.2856
1982.00,0.2856
1981.00,0.2856
1980.00,0.2856
1979.00,0.2856
1978.00,0.2855
1977.00,0.2855
1976.00,0.2855
1975.00,0.2855
1974.00,0.2854
1973.00,0.2854
1972.00,0.2854
1971.00,0.2854
1970.00,0.2854
1969.00,0.2855
1968.00,0.2857
1967.00,0.2858
1966.00,0.2857
1965.00,0.2856
1964.00,0.2855
1963.00,0.2855
1962.00,0.2855
1961.00,0.2856
1960.00,0.2858
1959.00,0.2859
1958.00,0.2860
1957.00,0.2862
1956.00,0.2864
1955.00,0.2865
1954.00,0.2865
1953.00,0.2866
1952.00,0.2867
1951.00,0.2868
1950.00,0.2869
1949.00,0.2871
1948.00,0.2873
1947.00,0.2875
1946.00,0.2878
1945.00,0.2882
1944.00,0.2887
1943.00,0.2893
1942.00,0.2898
1941.00,0.2902
1940.00,0.2906
1939.00,0.2908
1938.00,0.2910
1937.00,0.2911
1936.00,0.2911
1935.00,0.2910
1934.00,0.2909
1933.00,0.2908
1932.00,0.2907
1931.00,0.2907
1930.00,0.2906
1929.00,0.2906
1928.00,0.2907
1927.00,0.2907
1926.00,0.2909
1925.00,0.2911
1924.00,0.2915
1923.00,0.2919
1922.00,0.2922
1921.00,0.2925
1920.00,0.2927
1919.00,0.2929
1918.00,0.2931
1917.00,0.2934
1916.00,0.2936
1915.00,0.2939
1914.00,0.2940
1913.00,0.2941
1912.00,0.2943
1911.00,0.2945
1910.00,0.2947
1909.00,0.2948
1908.00,0.2949
1907.00,0.2949
1906.00,0.2949
1905.00,0.2949
1904.00,0.2950
1903.00,0.2950
1902.00,0.2951
1901.00,0.2951
1900.00,0.2952
1899.00,0.2953
1898.00,0.2955
1897.00,0.2957
1896.00,0.2960
1895.00,0.2962
1894.00,0.2964
1893.00,0.2965
1892.00,0.2966
1891.00,0.2967
1890.00,0.2968
1889.00,0.2968
1888.00,0.2969
1887.00,0.2968
1886.00,0.2968
1885.00,0.2968
1884.00,0.2967
1883.00,0.2967
1882.00,0.2966
1881.00,0.2966
1880.00,0.2966
1879.00,0.2965
1878.00,0.2965
1877.00,0.2964
1876.00,0.2963
1875.00,0.2961
1874.00,0.2959
1873.00,0.2957
1872.00,0.2956
1871.00,0.2954
1870.00,0.2953
1869.00,0.2954
1868.00,0.2954
1867.00,0.2953
1866.00,0.2951
1865.00,0.2948
1864.00,0.2945
1863.00,0.2942
1862.00,0.2939
1861.00,0.2938
1860.00,0.2936
1859.00,0.2934
1858.00,0.2931
1857.00,0.2929
1856.00,0.2926
1855.00,0.2923
1854.00,0.2921
1853.00,0.2919
1852.00,0.2918
1851.00,0.2917
1850.00,0.2916
1849.00,0.2917
1848.00,0.2917
1847.00,0.2915
1846.00,0.2912
1845.00,0.2909
1844.00,0.2907
1843.00,0.2906
1842.00,0.2906
1841.00,0.2905
1840.00,0.2904
1839.00,0.2902
1838.00,0.2901
1837.00,0.2901
1836.00,0.2900
1835.00,0.2899
1834.00,0.2899
1833.00,0.2898
1832.00,0.2899
1831.00,0.2899
1830.00,0.2899
1829.00,0.2900
1828.00,0.2901
1827.00,0.2901
1826.00,0.2900
1825.00,0.2900
1824.00,0.2900
1823.00,0.2900
1822.00,0.2900
1821.00,0.2900
1820.00,0.2900
1819.00,0.2901
1818.00,0.2902
1817.00,0.2902
1816.00,0.2903
1815.00,0.2903
1814.00,0.2904
1813.00,0.2906
1812.00,0.2909
1811.00,0.2911
1810.00,0.2913
1809.00,0.2914
1808.00,0.2917
1807.00,0.2919
1806.00,0.2921
1805.00,0.2924
1804.00,0.2929
1803.00,0.2934
1802.00,0.2939
1801.00,0.2944
1800.00,0.2949
1799.00,0.2954
1798.00,0.2960
1797.00,0.2966
1796.00,0.2972
1795.00,0.2975
1794.00,0.2976
1793.00,0.2979
1792.00,0.2984
1791.00,0.2990
1790.00,0.2994
1789.00,0.2999
1788.00,0.3003
1787.00,0.3006
1786.00,0.3009
1785.00,0.3013
1784.00,0.3017
1783.00,0.3022
1782.00,0.3027
1781.00,0.3032
1780.00,0.3037
1779.00,0.3041
1778.00,0.3044
1777.00,0.3049
1776.00,0.3054
1775.00,0.3059
1774.00,0.3063
1773.00,0.3068
1772.00,0.3075
1771.00,0.3082
1770.00,0.3089
1769.00,0.3097
1768.00,0.3107
1767.00,0.3116
1766.00,0.3124
1765.00,0.3133
1764.00,0.3144
1763.00,0.3157
1762.00,0.3172
1761.00,0.3190
1760.00,0.3210
1759.00,0.3230
1758.00,0.3251
1757.00,0.3275
1756.00,0.3303
1755.00,0.3332
1754.00,0.3362
1753.00,0.3396
1752.00,0.3433
1751.00,0.3472
1750.00,0.3510
1749.00,0.3544
1748.00,0.3575
1747.00,0.3601
1746.00,0.3625
1745.00,0.3648
1744.00,0.3668
1743.00,0.3683
1742.00,0.3692
1741.00,0.3698
1740.00,0.3705
1739.00,0.3711
1738.00,0.3717
1737.00,0.3721
1736.00,0.3722
1735.00,0.3719
1734.00,0.3715
1733.00,0.3713
1732.00,0.3710
1731.00,0.3702
1730.00,0.3692
1729.00,0.3684
1728.00,0.3679
1727.00,0.3678
1726.00,0.3682
1725.00,0.3694
1724.00,0.3712
1723.00,0.3735
1722.00,0.3761
1721.00,0.3792
1720.00,0.3832
1719.00,0.3890
1718.00,0.3973
1717.00,0.4074
1716.00,0.4181
1715.00,0.4289
1714.00,0.4406
1713.00,0.4528
1712.00,0.4649
1711.00,0.4764
1710.00,0.4866
1709.00,0.4943
1708.00,0.4986
1707.00,0.4995
1706.00,0.4970
1705.00,0.4914
1704.00,0.4839
1703.00,0.4757
1702.00,0.4656
1701.00,0.4520
1700.00,0.4371
1699.00,0.4260
1698.00,0.4187
1697.00,0.4119
1696.00,0.4036
1695.00,0.3950
1694.00,0.3884
1693.00,0.3838
1692.00,0.3801
1691.00,0.3767
1690.00,0.3736
1689.00,0.3710
1688.00,0.3690
1687.00,0.3673
1686.00,0.3656
1685.00,0.3635
1684.00,0.3613
1683.00,0.3592
1682.00,0.3581
1681.00,0.3575
1680.00,0.3567
1679.00,0.3557
1678.00,0.3544
1677.00,0.3531
1676.00,0.3519
1675.00,0.3512
1674.00,0.3511
1673.00,0.3514
1672.00,0.3515
1671.00,0.3512
1670.00,0.3509
1669.00,0.3508
1668.00,0.3509
1667.00,0.3511
1666.00,0.3512
1665.00,0.3511
1664.00,0.3510
1663.00,0.3510
1662.00,0.3512
1661.00,0.3517
1660.00,0.3523
1659.00,0.3527
1658.00,0.3529
1657.00,0.3532
1656.00,0.3536
1655.00,0.3539
1654.00,0.3544
1653.00,0.3556
1652.00,0.3570
1651.00,0.3582
1650.00,0.3586
1649.00,0.3590
1648.00,0.3599
1647.00,0.3611
1646.00,0.3624
1645.00,0.3638
1644.00,0.3654
1643.00,0.3668
1642.00,0.3682
1641.00,0.3698
1640.00,0.3715
1639.00,0.3731
1638.00,0.3747
1637.00,0.3765
1636.00,0.3788
1635.00,0.3810
1634.00,0.3833
1633.00,0.3858
1632.00,0.3883
1631.00,0.3905
1630.00,0.3926
1629.00,0.3950
1628.00,0.3978
1627.00,0.4006
1626.00,0.4034
1625.00,0.4066
1624.00,0.4105
1623.00,0.4150
1622.00,0.4200
1621.00,0.4255
1620.00,0.4313
1619.00,0.4378
1618.00,0.4457
1617.00,0.4560
1616.00,0.4675
1615.00,0.4782
1614.00,0.4876
1613.00,0.4970
1612.00,0.5071
1611.00,0.5173
1610.00,0.5276
1609.00,0.5377
1608.00,0.5476
1607.00,0.5561
1606.00,0.5633
1605.00,0.5700
1604.00,0.5765
1603.00,0.5827
1602.00,0.5884
1601.00,0.5946
1600.00,0.6016
1599.00,0.6094
1598.00,0.6181
1597.00,0.6292
1596.00,0.6438
1595.00,0.6621
1594.00,0.6849
1593.00,0.7141
1592.00,0.7518
1591.00,0.7992
1590.00,0.8586
1589.00,0.9343
1588.00,1.0314
1587.00,1.1535
1586.00,1.3034
1585.00,1.4860
1584.00,1.7071
1583.00,1.9483
1582.00,2.1272
1581.00,2.1546
1580.00,2.0551
1579.00,1.8810
1578.00,1.6681
1577.00,1.4561
1576.00,1.2765
1575.00,1.1440
1574.00,1.0539
1573.00,0.9919
1572.00,0.9459
1571.00,0.9096
1570.00,0.8832
1569.00,0.8711
1568.00,0.8749
1567.00,0.8934
1566.00,0.9273
1565.00,0.9798
1564.00,1.0490
1563.00,1.1239
1562.00,1.1914
1561.00,1.2411
1560.00,1.2478
1559.00,1.1762
1558.00,1.0662
1557.00,0.9751
1556.00,0.9025
1555.00,0.8343
1554.00,0.7710
1553.00,0.7196
1552.00,0.6811
1551.00,0.6506
1550.00,0.6246
1549.00,0.6031
1548.00,0.5869
1547.00,0.5743
1546.00,0.5637
1545.00,0.5547
1544.00,0.5475
1543.00,0.5415
1542.00,0.5360
1541.00,0.5311
1540.00,0.5263
1539.00,0.5212
1538.00,0.5167
1537.00,0.5133
1536.00,0.5103
1535.00,0.5072
1534.00,0.5040
1533.00,0.5018
1532.00,0.5011
1531.00,0.5014
1530.00,0.5021
1529.00,0.5033
1528.00,0.5046
1527.00,0.5053
1526.00,0.5051
1525.00,0.5047
1524.00,0.5047
1523.00,0.5051
1522.00,0.5062
1521.00,0.5082
1520.00,0.5108
1519.00,0.5136
1518.00,0.5169
1517.00,0.5209
1516.00,0.5247
1515.00,0.5272
1514.00,0.5284
1513.00,0.5292
1512.00,0.5302
1511.00,0.5317
1510.00,0.5342
1509.00,0.5383
1508.00,0.5452
1507.00,0.5546
1506.00,0.5651
1505.00,0.5759
1504.00,0.5859
1503.00,0.5944
1502.00,0.6021
1501.00,0.6097
1500.00,0.6170
1499.00,0.6239
1498.00,0.6314
1497.00,0.6409
1496.00,0.6518
1495.00,0.6623
1494.00,0.6724
1493.00,0.6832
1492.00,0.6958
1491.00,0.7104
1490.00,0.7272
1489.00,0.7458
1488.00,0.7653
1487.00,0.7855
1486.00,0.8081
1485.00,0.8347
1484.00,0.8656
1483.00,0.9013
1482.00,0.9440
1481.00,0.9947
1480.00,1.0516
1479.00,1.1132
1478.00,1.1832
1477.00,1.2673
1476.00,1.3666
1475.00,1.4798
1474.00,1.6155
1473.00,1.7943
1472.00,2.0286
1471.00,2.3056
1470.00,2.6104
1469.00,2.9549
1468.00,3.3035
1467.00,3.4713
1466.00,3.5438
1465.00,3.7929
1464.00,4.0443
1463.00,3.9786
1462.00,4.0993
1461.00,3.8792
1460.00,3.6074
1459.00,3.6267
1458.00,3.6785
1457.00,3.5625
1456.00,3.6381
1455.00,4.1645
1454.00,4.2627
1453.00,4.0994
1452.00,3.9766
1451.00,3.6817
1450.00,3.4782
1449.00,3.4111
1448.00,3.3048
1447.00,3.1229
1446.00,2.9856
1445.00,2.8689
1444.00,2.7134
1443.00,2.5391
1442.00,2.3896
1441.00,2.2662
1440.00,2.1519
1439.00,2.0383
1438.00,1.9220
1437.00,1.7996
1436.00,1.6786
1435.00,1.5721
1434.00,1.4806
1433.00,1.3951
1432.00,1.3103
1431.00,1.2285
1430.00,1.1543
1429.00,1.0908
1428.00,1.0388
1427.00,0.9978
1426.00,0.9647
1425.00,0.9367
1424.00,0.9132
1423.00,0.8951
1422.00,0.8819
1421.00,0.8711
1420.00,0.8609
1419.00,0.8514
1418.00,0.8431
1417.00,0.8358
1416.00,0.8298
1415.00,0.8251
1414.00,0.8215
1413.00,0.8190
1412.00,0.8174
1411.00,0.8165
1410.00,0.8154
1409.00,0.8128
1408.00,0.8080
1407.00,0.8009
1406.00,0.7912
1405.00,0.7789
1404.00,0.7653
1403.00,0.7524
1402.00,0.7410
1401.00,0.7309
1400.00,0.7220
1399.00,0.7153
1398.00,0.7110
1397.00,0.7088
1396.00,0.7092
1395.00,0.7131
1394.00,0.7210
1393.00,0.7335
1392.00,0.7521
1391.00,0.7788
1390.00,0.8160
1389.00,0.8669
1388.00,0.9357
1387.00,1.0233
1386.00,1.1236
1385.00,1.2289
1384.00,1.3377
1383.00,1.4543
1382.00,1.5826
1381.00,1.7256
1380.00,1.8855
1379.00,2.0522
1378.00,2.1846
1377.00,2.2292
1376.00,2.1730
1375.00,2.0431
1374.00,1.8803
1373.00,1.7242
1372.00,1.5941
1371.00,1.4924
1370.00,1.4167
1369.00,1.3653
1368.00,1.3339
1367.00,1.3118
1366.00,1.2842
1365.00,1.2396
1364.00,1.1770
1363.00,1.1058
1362.00,1.0390
1361.00,0.9844
1360.00,0.9431
1359.00,0.9128
1358.00,0.8908
1357.00,0.8752
1356.00,0.8647
1355.00,0.8582
1354.00,0.8544
1353.00,0.8522
1352.00,0.8506
1351.00,0.8489
1350.00,0.8465
1349.00,0.8435
1348.00,0.8402
1347.00,0.8370
1346.00,0.8343
1345.00,0.8321
1344.00,0.8303
1343.00,0.8285
1342.00,0.8260
1341.00,0.8219
1340.00,0.8153
1339.00,0.8062
1338.00,0.7947
1337.00,0.7813
1336.00,0.7667
1335.00,0.7518
1334.00,0.7374
1333.00,0.7242
1332.00,0.7126
1331.00,0.7029
1330.00,0.6951
1329.00,0.6890
1328.00,0.6844
1327.00,0.6814
1326.00,0.6797
1325.00,0.6791
1324.00,0.6794
1323.00,0.6801
1322.00,0.6810
1321.00,0.6820
1320.00,0.6830
1319.00,0.6841
1318.00,0.6856
1317.00,0.6874
1316.00,0.6896
1315.00,0.6925
1314.00,0.6960
1313.00,0.6998
1312.00,0.7037
1311.00,0.7075
1310.00,0.7110
1309.00,0.7141
1308.00,0.7166
1307.00,0.7185
1306.00,0.7196
1305.00,0.7196
1304.00,0.7181
1303.00,0.7153
1302.00,0.7113
1301.00,0.7065
1300.00,0.7011
1299.00,0.6955
1298.00,0.6899
1297.00,0.6843
1296.00,0.6788
1295.00,0.6736
1294.00,0.6688
1293.00,0.6646
1292.00,0.6608
1291.00,0.6573
1290.00,0.6539
1289.00,0.6506
1288.00,0.6472
1287.00,0.6438
1286.00,0.6402
1285.00,0.6363
1284.00,0.6320
1283.00,0.6279
1282.00,0.6242
1281.00,0.6211
1280.00,0.6186
1279.00,0.6166
1278.00,0.6146
1277.00,0.6125
1276.00,0.6101
1275.00,0.6078
1274.00,0.6056
1273.00,0.6038
1272.00,0.6025
1271.00,0.6017
1270.00,0.6012
1269.00,0.6006
1268.00,0.5993
1267.00,0.5969
1266.00,0.5933
1265.00,0.5891
1264.00,0.5849
1263.00,0.5812
1262.00,0.5784
1261.00,0.5763
1260.00,0.5747
1259.00,0.5734
1258.00,0.5719
1257.00,0.5701
1256.00,0.5681
1255.00,0.5662
1254.00,0.5646
1253.00,0.5633
1252.00,0.5621
1251.00,0.5612
1250.00,0.5602
1249.00,0.5590
1248.00,0.5575
1247.00,0.5557
1246.00,0.5537
1245.00,0.5513
1244.00,0.5485
1243.00,0.5455
1242.00,0.5425
1241.00,0.5394
1240.00,0.5365
1239.00,0.5339
1238.00,0.5316
1237.00,0.5297
1236.00,0.5282
1235.00,0.5271
1234.00,0.5264
1233.00,0.5262
1232.00,0.5263
1231.00,0.5267
1230.00,0.5272
1229.00,0.5271
1228.00,0.5259
1227.00,0.5237
1226.00,0.5207
1225.00,0.5173
1224.00,0.5137
1223.00,0.5106
1222.00,0.5081
1221.00,0.5061
1220.00,0.5048
1219.00,0.5040
1218.00,0.5036
1217.00,0.5037
1216.00,0.5042
1215.00,0.5053
1214.00,0.5064
1213.00,0.5070
1212.00,0.5068
1211.00,0.5060
1210.00,0.5048
1209.00,0.5034
1208.00,0.5019
1207.00,0.5003
1206.00,0.4987
1205.00,0.4971
1204.00,0.4954
1203.00,0.4940
1202.00,0.4928
1201.00,0.4919
1200.00,0.4913
1199.00,0.4911
1198.00,0.4911
1197.00,0.4909
1196.00,0.4904
1195.00,0.4896
1194.00,0.4889
1193.00,0.4881
1192.00,0.4875
1191.00,0.4869
1190.00,0.4863
1189.00,0.4858
1188.00,0.4852
1187.00,0.4847
1186.00,0.4843
1185.00,0.4838
1184.00,0.4833
1183.00,0.4830
1182.00,0.4829
1181.00,0.4831
1180.00,0.4835
1179.00,0.4844
1178.00,0.4858
1177.00,0.4876
1176.00,0.4899
1175.00,0.4930
1174.00,0.4970
1173.00,0.5017
1172.00,0.5067
1171.00,0.5112
1170.00,0.5144
1169.00,0.5159
1168.00,0.5158
1167.00,0.5147
1166.00,0.5132
1165.00,0.5117
1164.00,0.5107
1163.00,0.5102
1162.00,0.5103
1161.00,0.5111
1160.00,0.5124
1159.00,0.5140
1158.00,0.5154
1157.00,0.5165
1156.00,0.5170
1155.00,0.5169
1154.00,0.5161
1153.00,0.5146
1152.00,0.5124
1151.00,0.5101
1150.00,0.5078
1149.00,0.5054
1148.00,0.5030
1147.00,0.5006
1146.00,0.4984
1145.00,0.4966
1144.00,0.4955
1143.00,0.4954
1142.00,0.4964
1141.00,0.4984
1140.00,0.5017
1139.00,0.5061
1138.00,0.5119
1137.00,0.5188
1136.00,0.5268
1135.00,0.5352
1134.00,0.5427
1133.00,0.5473
1132.00,0.5475
1131.00,0.5432
1130.00,0.5359
1129.00,0.5276
1128.00,0.5203
1127.00,0.5149
1126.00,0.5113
1125.00,0.5088
1124.00,0.5069
1123.00,0.5051
1122.00,0.5034
1121.00,0.5017
1120.00,0.5002
1119.00,0.4997
1118.00,0.5005
1117.00,0.5027
1116.00,0.5059
1115.00,0.5092
1114.00,0.5110
1113.00,0.5100
1112.00,0.5060
1111.00,0.5000
1110.00,0.4935
1109.00,0.4876
1108.00,0.4829
1107.00,0.4795
1106.00,0.4774
1105.00,0.4761
1104.00,0.4753
1103.00,0.4748
1102.00,0.4743
1101.00,0.4735
1100.00,0.4723
1099.00,0.4710
1098.00,0.4697
1097.00,0.4685
1096.00,0.4677
1095.00,0.4673
1094.00,0.4673
1093.00,0.4675
1092.00,0.4680
1091.00,0.4689
1090.00,0.4701
1089.00,0.4718
1088.00,0.4741
1087.00,0.4772
1086.00,0.4811
1085.00,0.4859
1084.00,0.4914
1083.00,0.4978
1082.00,0.5050
1081.00,0.5127
1080.00,0.5203
1079.00,0.5271
1078.00,0.5322
1077.00,0.5349
1076.00,0.5349
1075.00,0.5322
1074.00,0.5272
1073.00,0.5209
1072.00,0.5143
1071.00,0.5085
1070.00,0.5040
1069.00,0.5005
1068.00,0.4980
1067.00,0.4961
1066.00,0.4948
1065.00,0.4939
1064.00,0.4935
1063.00,0.4936
1062.00,0.4941
1061.00,0.4949
1060.00,0.4957
1059.00,0.4962
1058.00,0.4963
1057.00,0.4958
1056.00,0.4949
1055.00,0.4940
1054.00,0.4934
1053.00,0.4931
1052.00,0.4934
1051.00,0.4943
1050.00,0.4958
1049.00,0.4976
1048.00,0.4995
1047.00,0.5013
1046.00,0.5028
1045.00,0.5038
1044.00,0.5042
1043.00,0.5043
1042.00,0.5043
1041.00,0.5042
1040.00,0.5039
1039.00,0.5034
1038.00,0.5027
1037.00,0.5019
1036.00,0.5012
1035.00,0.5012
1034.00,0.5018
1033.00,0.5031
1032.00,0.5048
1031.00,0.5067
1030.00,0.5082
1029.00,0.5091
1028.00,0.5088
1027.00,0.5072
1026.00,0.5039
1025.00,0.4992
1024.00,0.4936
1023.00,0.4879
1022.00,0.4824
1021.00,0.4774
1020.00,0.4729
1019.00,0.4689
1018.00,0.4655
1017.00,0.4625
1016.00,0.4599
1015.00,0.4579
1014.00,0.4562
1013.00,0.4548
1012.00,0.4535
1011.00,0.4526
1010.00,0.4520
1009.00,0.4518
1008.00,0.4520
1007.00,0.4527
1006.00,0.4538
1005.00,0.4552
1004.00,0.4568
1003.00,0.4585
1002.00,0.4603
1001.00,0.4619
1000.00,0.4633
999.00,0.4642
998.00,0.4646
997.00,0.4641
996.00,0.4629
995.00,0.4609
994.00,0.4583
993.00,0.4553
992.00,0.4520
991.00,0.4487
990.00,0.4457
989.00,0.4431
988.00,0.4410
987.00,0.4398
986.00,0.4395
985.00,0.4400
984.00,0.4413
983.00,0.4432
982.00,0.4453
981.00,0.4476
980.00,0.4500
979.00,0.4526
978.00,0.4551
977.00,0.4575
976.00,0.4593
975.00,0.4607
974.00,0.4616
973.00,0.4620
972.00,0.4623
971.00,0.4624
970.00,0.4625
969.00,0.4625
968.00,0.4624
967.00,0.4621
966.00,0.4616
965.00,0.4607
964.00,0.4596
963.00,0.4583
962.00,0.4570
961.00,0.4557
960.00,0.4545
959.00,0.4536
958.00,0.4529
957.00,0.4524
956.00,0.4520
955.00,0.4516
954.00,0.4509
953.00,0.4500
952.00,0.4488
951.00,0.4477
950.00,0.4468
949.00,0.4463
948.00,0.4461
947.00,0.4464
946.00,0.4473
945.00,0.4485
944.00,0.4500
943.00,0.4517
942.00,0.4535
941.00,0.4551
940.00,0.4564
939.00,0.4573
938.00,0.4577
937.00,0.4574
936.00,0.4565
935.00,0.4550
934.00,0.4531
933.00,0.4509
932.00,0.4485
931.00,0.4463
930.00,0.4443
929.00,0.4427
928.00,0.4418
927.00,0.4421
926.00,0.4438
925.00,0.4468
924.00,0.4511
923.00,0.4563
922.00,0.4612
921.00,0.4643
920.00,0.4643
919.00,0.4607
918.00,0.4541
917.00,0.4458
916.00,0.4372
915.00,0.4295
914.00,0.4232
913.00,0.4182
912.00,0.4143
911.00,0.4114
910.00,0.4092
909.00,0.4075
908.00,0.4060
907.00,0.4050
906.00,0.4043
905.00,0.4040
904.00,0.4040
903.00,0.4045
902.00,0.4057
901.00,0.4075
900.00,0.4099
899.00,0.4127
898.00,0.4160
897.00,0.4196
896.00,0.4233
895.00,0.4272
894.00,0.4312
893.00,0.4352
892.00,0.4391
891.00,0.4425
890.00,0.4452
889.00,0.4467
888.00,0.4469
887.00,0.4459
886.00,0.4441
885.00,0.4421
884.00,0.4404
883.00,0.4395
882.00,0.4396
881.00,0.4406
880.00,0.4420
879.00,0.4434
878.00,0.4443
877.00,0.4444
876.00,0.4440
875.00,0.4433
874.00,0.4430
873.00,0.4431
872.00,0.4435
871.00,0.4441
870.00,0.4451
869.00,0.4465
868.00,0.4482
867.00,0.4506
866.00,0.4537
865.00,0.4575
864.00,0.4614
863.00,0.4645
862.00,0.4654
861.00,0.4633
860.00,0.4582
859.00,0.4512
858.00,0.4441
857.00,0.4380
856.00,0.4334
855.00,0.4303
854.00,0.4283
853.00,0.4270
852.00,0.4260
851.00,0.4251
850.00,0.4239
849.00,0.4222
848.00,0.4198
847.00,0.4172
846.00,0.4144
845.00,0.4117
844.00,0.4092
843.00,0.4074
842.00,0.4068
841.00,0.4078
840.00,0.4107
839.00,0.4156
838.00,0.4219
837.00,0.4282
836.00,0.4326
835.00,0.4337
834.00,0.4314
833.00,0.4270
832.00,0.4224
831.00,0.4195
830.00,0.4188
829.00,0.4201
828.00,0.4230
827.00,0.4271
826.00,0.4323
825.00,0.4382
824.00,0.4448
823.00,0.4518
822.00,0.4590
821.00,0.4661
820.00,0.4728
819.00,0.4791
818.00,0.4845
817.00,0.4885
816.00,0.4907
815.00,0.4908
814.00,0.4889
813.00,0.4850
812.00,0.4797
811.00,0.4736
810.00,0.4675
809.00,0.4617
808.00,0.4564
807.00,0.4519
806.00,0.4477
805.00,0.4432
804.00,0.4382
803.00,0.4326
802.00,0.4266
801.00,0.4208
800.00,0.4155
799.00,0.4114
798.00,0.4086
797.00,0.4067
796.00,0.4052
795.00,0.4042
794.00,0.4036
793.00,0.4036
792.00,0.4045
791.00,0.4062
790.00,0.4086
789.00,0.4112
788.00,0.4140
787.00,0.4171
786.00,0.4207
785.00,0.4248
784.00,0.4291
783.00,0.4332
782.00,0.4368
781.00,0.4397
780.00,0.4422
779.00,0.4446
778.00,0.4468
777.00,0.4487
776.00,0.4505
775.00,0.4523
774.00,0.4542
773.00,0.4565
772.00,0.4590
771.00,0.4620
770.00,0.4652
769.00,0.4687
768.00,0.4721
767.00,0.4751
766.00,0.4776
765.00,0.4795
764.00,0.4808
763.00,0.4824
762.00,0.4847
761.00,0.4880
760.00,0.4921
759.00,0.4963
758.00,0.5000
757.00,0.5028
756.00,0.5051
755.00,0.5076
754.00,0.5106
753.00,0.5142
752.00,0.5185
751.00,0.5234
750.00,0.5286
749.00,0.5336
748.00,0.5379
747.00,0.5417
746.00,0.5451
745.00,0.5486
744.00,0.5525
743.00,0.5574
742.00,0.5629
741.00,0.5685
740.00,0.5734
739.00,0.5773
738.00,0.5808
737.00,0.5843
736.00,0.5881
735.00,0.5925
734.00,0.5979
733.00,0.6042
732.00,0.6119
731.00,0.6216
730.00,0.6339
729.00,0.6491
728.00,0.6676
727.00,0.6899
726.00,0.7161
725.00,0.7454
724.00,0.7749
723.00,0.7996
722.00,0.8117
721.00,0.8039
720.00,0.7749
719.00,0.7317
718.00,0.6846
717.00,0.6409
716.00,0.6040
715.00,0.5745
714.00,0.5513
713.00,0.5329
712.00,0.5178
711.00,0.5052
710.00,0.4950
709.00,0.4867
708.00,0.4802
707.00,0.4749
706.00,0.4703
705.00,0.4659
704.00,0.4618
703.00,0.4585
702.00,0.4564
701.00,0.4553
700.00,0.4535
699.00,0.4487
698.00,0.4390
697.00,0.4248
696.00,0.4086
695.00,0.3937
694.00,0.3819
693.00,0.3733
692.00,0.3671
691.00,0.3625
690.00,0.3590
689.00,0.3563
688.00,0.3540
687.00,0.3522
686.00,0.3511
685.00,0.3503
684.00,0.3497
683.00,0.3492
682.00,0.3487
681.00,0.3484
680.00,0.3481
679.00,0.3479
678.00,0.3477
677.00,0.3475
676.00,0.3473
675.00,0.3474
674.00,0.3475
673.00,0.3476
672.00,0.3476
671.00,0.3478
670.00,0.3482
669.00,0.3486
668.00,0.3484
667.00,0.3481
666.00,0.3485
665.00,0.3493
664.00,0.3501
663.00,0.3509
662.00,0.3516
661.00,0.3524
660.00,0.3532
659.00,0.3544
658.00,0.3558
657.00,0.3571
656.00,0.3581
655.00,0.3590
654.00,0.3599
653.00,0.3609
652.00,0.3618
651.00,0.3629
650.00,0.3640
649.00,0.3651
648.00,0.3663
647.00,0.3675
646.00,0.3689
645.00,0.3703
644.00,0.3719
643.00,0.3735
642.00,0.3751
641.00,0.3766
640.00,0.3777
639.00,0.3787
638.00,0.3797
637.00,0.3806
636.00,0.3813
635.00,0.3817
634.00,0.3820
633.00,0.3823
632.00,0.3828
631.00,0.3836
630.00,0.3846
629.00,0.3857
628.00,0.3872
627.00,0.3891
626.00,0.3914
625.00,0.3935
624.00,0.3954
623.00,0.3971
622.00,0.3990
621.00,0.4009
620.00,0.4026
619.00,0.4041
618.00,0.4052
617.00,0.4061
616.00,0.4068
615.00,0.4071
614.00,0.4069
613.00,0.4061
612.00,0.4051
611.00,0.4043
610.00,0.4038
609.00,0.4032
608.00,0.4025
607.00,0.4017
606.00,0.4008
605.00,0.3995
604.00,0.3979
603.00,0.3964
602.00,0.3956
601.00,0.3954
600.00,0.3958
599.00,0.3964
598.00,0.3972
597.00,0.3982
596.00,0.3993
595.00,0.4006
594.00,0.4023
593.00,0.4041
592.00,0.4060
591.00,0.4079
590.00,0.4099
589.00,0.4117
588.00,0.4135
587.00,0.4154
586.00,0.4176
585.00,0.4196
584.00,0.4217
583.00,0.4243
582.00,0.4277
581.00,0.4312
580.00,0.4343
579.00,0.4367
578.00,0.4388
577.00,0.4407
576.00,0.4427
575.00,0.4449
574.00,0.4472
573.00,0.4492
572.00,0.4512
571.00,0.4534
570.00,0.4556
569.00,0.4575
568.00,0.4590
567.00,0.4606
566.00,0.4627
565.00,0.4647
564.00,0.4660
563.00,0.4668
562.00,0.4672
561.00,0.4675
560.00,0.4679
559.00,0.4686
558.00,0.4695
557.00,0.4704
556.00,0.4713
555.00,0.4722
554.00,0.4733
553.00,0.4744
552.00,0.4753
551.00,0.4760
550.00,0.4770
