Created as New Dataset,
cm-1,A
4000.00,0.3638
3999.00,0.3634
3998.00,0.3631
3997.00,0.3627
3996.00,0.3623
3995.00,0.3618
3994.00,0.3615
3993.00,0.3611
3992.00,0.3608
3991.00,0.3604
3990.00,0.3600
3989.00,0.3596
3988.00,0.3592
3987.00,0.3588
3986.00,0.3584
3985.00,0.3581
3984.00,0.3577
3983.00,0.3573
3982.00,0.3569
3981.00,0.3566
3980.00,0.3563
3979.00,0.3561
3978.00,0.3559
3977.00,0.3556
3976.00,0.3554
3975.00,0.3551
3974.00,0.3548
3973.00,0.3546
3972.00,0.3544
3971.00,0.3543
3970.00,0.3541
3969.00,0.3539
3968.00,0.3538
3967.00,0.3536
3966.00,0.3534
3965.00,0.3533
3964.00,0.3531
3963.00,0.3529
3962.00,0.3528
3961.00,0.3526
3960.00,0.3524
3959.00,0.3521
3958.00,0.3520
3957.00,0.3518
3956.00,0.3517
3955.00,0.3514
3954.00,0.3512
3953.00,0.3509
3952.00,0.3507
3951.00,0.3505
3950.00,0.3504
3949.00,0.3502
3948.00,0.3501
3947.00,0.3500
3946.00,0.3499
3945.00,0.3498
3944.00,0.3496
3943.00,0.3494
3942.00,0.3493
3941.00,0.3492
3940.00,0.3491
3939.00,0.3490
3938.00,0.3490
3937.00,0.3490
3936.00,0.3490
3935.00,0.3490
3934.00,0.3490
3933.00,0.3490
3932.00,0.3490
3931.00,0.3490
3930.00,0.3490
3929.00,0.3490
3928.00,0.3489
3927.00,0.3489
3926.00,0.3490
3925.00,0.3490
3924.00,0.3490
3923.00,0.3490
3922.00,0.3489
3921.00,0.3489
3920.00,0.3488
3919.00,0.3488
3918.00,0.3487
3917.00,0.3486
3916.00,0.3484
3915.00,0.3483
3914.00,0.3481
3913.00,0.3479
3912.00,0.3478
3911.00,0.3477
3910.00,0.3477
3909.00,0.3477
3908.00,0.3478
3907.00,0.3479
3906.00,0.3480
3905.00,0.3481
3904.00,0.3481
3903.00,0.3481
3902.00,0.3481
3901.00,0.3482
3900.00,0.3483
3899.00,0.3483
3898.00,0.3482
3897.00,0.3481
3896.00,0.3479
3895.00,0.3478
3894.00,0.3477
3893.00,0.3476
3892.00,0.3474
3891.00,0.3473
3890.00,0.3472
3889.00,0.3472
3888.00,0.3472
3887.00,0.3472
3886.00,0.3472
3885.00,0.3472
3884.00,0.3471
3883.00,0.3471
3882.00,0.3470
3881.00,0.3469
3880.00,0.3467
3879.00,0.3465
3878.00,0.3463
3877.00,0.3463
3876.00,0.3463
3875.00,0.3463
3874.00,0.3461
3873.00,0.3458
3872.00,0.3456
3871.00,0.3455
3870.00,0.3454
3869.00,0.3454
3868.00,0.3454
3867.00,0.3454
3866.00,0.3454
3865.00,0.3453
3864.00,0.3451
3863.00,0.3449
3862.00,0.3446
3861.00,0.3444
3860.00,0.3443
3859.00,0.3444
3858.00,0.3445
3857.00,0.3446
3856.00,0.3446
3855.00,0.3447
3854.00,0.3447
3853.00,0.3448
3852.00,0.3449
3851.00,0.3450
3850.00,0.3449
3849.00,0.3446
3848.00,0.3443
3847.00,0.3440
3846.00,0.3438
3845.00,0.3436
3844.00,0.3434
3843.00,0.3434
3842.00,0.3434
3841.00,0.3435
3840.00,0.3436
3839.00,0.3436
3838.00,0.3435
3837.00,0.3434
3836.00,0.3434
3835.00,0.3433
3834.00,0.3432
3833.00,0.3430
3832.00,0.3428
3831.00,0.3426
3830.00,0.3424
3829.00,0.3422
3828.00,0.3421
3827.00,0.3420
3826.00,0.3419
3825.00,0.3418
3824.00,0.3418
3823.00,0.3418
3822.00,0.3419
3821.00,0.3420
3820.00,0.3419
3819.00,0.3418
3818.00,0.3417
3817.00,0.3415
3816.00,0.3414
3815.00,0.3411
3814.00,0.3408
3813.00,0.3405
3812.00,0.3402
3811.00,0.3399
3810.00,0.3397
3809.00,0.3395
3808.00,0.3392
3807.00,0.3390
3806.00,0.3389
3805.00,0.3387
3804.00,0.3386
3803.00,0.3384
3802.00,0.3383
3801.00,0.3383
3800.00,0.3382
3799.00,0.3380
3798.00,0.3379
3797.00,0.3377
3796.00,0.3374
3795.00,0.3371
3794.00,0.3368
3793.00,0.3365
3792.00,0.3363
3791.00,0.3361
3790.00,0.3358
3789.00,0.3356
3788.00,0.3354
3787.00,0.3353
3786.00,0.3352
3785.00,0.3351
3784.00,0.3350
3783.00,0.3349
3782.00,0.3348
3781.00,0.3347
3780.00,0.3345
3779.00,0.3344
3778.00,0.3342
3777.00,0.3341
3776.00,0.3341
3775.00,0.3339
3774.00,0.3337
3773.00,0.3335
3772.00,0.3333
3771.00,0.3331
3770.00,0.3330
3769.00,0.3329
3768.00,0.3327
3767.00,0.3326
3766.00,0.3325
3765.00,0.3323
3764.00,0.3322
3763.00,0.3320
3762.00,0.3319
3761.00,0.3317
3760.00,0.3315
3759.00,0.3313
3758.00,0.3311
3757.00,0.3310
3756.00,0.3309
3755.00,0.3308
3754.00,0.3308
3753.00,0.3308
3752.00,0.3309
3751.00,0.3309
3750.00,0.3310
3749.00,0.3311
3748.00,0.3312
3747.00,0.3312
3746.00,0.3312
3745.00,0.3311
3744.00,0.3309
3743.00,0.3306
3742.00,0.3304
3741.00,0.3302
3740.00,0.3300
3739.00,0.3298
3738.00,0.3296
3737.00,0.3294
3736.00,0.3293
3735.00,0.3292
3734.00,0.3291
3733.00,0.3290
3732.00,0.3288
3731.00,0.3286
3730.00,0.3283
3729.00,0.3280
3728.00,0.3277
3727.00,0.3275
3726.00,0.3272
3725.00,0.3270
3724.00,0.3268
3723.00,0.3266
3722.00,0.3264
3721.00,0.3262
3720.00,0.3261
3719.00,0.3259
3718.00,0.3258
3717.00,0.3256
3716.00,0.3255
3715.00,0.3254
3714.00,0.3254
3713.00,0.3255
3712.00,0.3256
3711.00,0.3257
3710.00,0.3258
3709.00,0.3257
3708.00,0.3257
3707.00,0.3255
3706.00,0.3254
3705.00,0.3253
3704.00,0.3252
3703.00,0.3251
3702.00,0.3249
3701.00,0.3248
3700.00,0.3247
3699.00,0.3246
3698.00,0.3246
3697.00,0.3246
3696.00,0.3246
3695.00,0.3246
3694.00,0.3245
3693.00,0.3246
3692.00,0.3247
3691.00,0.3248
3690.00,0.3250
3689.00,0.3252
3688.00,0.3253
3687.00,0.3252
3686.00,0.3250
3685.00,0.3248
3684.00,0.3246
3683.00,0.3244
3682.00,0.3243
3681.00,0.3241
3680.00,0.3240
3679.00,0.3240
3678.00,0.3241
3677.00,0.3243
3676.00,0.3246
3675.00,0.3248
3674.00,0.3248
3673.00,0.3248
3672.00,0.3248
3671.00,0.3248
3670.00,0.3247
3669.00,0.3245
3668.00,0.3243
3667.00,0.3241
3666.00,0.3239
3665.00,0.3237
3664.00,0.3235
3663.00,0.3234
3662.00,0.3233
3661.00,0.3233
3660.00,0.3234
3659.00,0.3235
3658.00,0.3236
3657.00,0.3238
3656.00,0.3240
3655.00,0.3242
3654.00,0.3245
3653.00,0.3248
3652.00,0.3251
3651.00,0.3254
3650.00,0.3257
3649.00,0.3260
3648.00,0.3263
3647.00,0.3265
3646.00,0.3266
3645.00,0.3266
3644.00,0.3265
3643.00,0.3265
3642.00,0.3265
3641.00,0.3265
3640.00,0.3266
3639.00,0.3268
3638.00,0.3269
3637.00,0.3270
3636.00,0.3272
3635.00,0.3275
3634.00,0.3279
3633.00,0.3283
3632.00,0.3288
3631.00,0.3294
3630.00,0.3302
3629.00,0.3310
3628.00,0.3319
3627.00,0.3327
3626.00,0.3333
3625.00,0.3337
3624.00,0.3340
3623.00,0.3340
3622.00,0.3339
3621.00,0.3335
3620.00,0.3330
3619.00,0.3323
3618.00,0.3317
3617.00,0.3311
3616.00,0.3307
3615.00,0.3303
3614.00,0.3301
3613.00,0.3299
3612.00,0.3297
3611.00,0.3296
3610.00,0.3296
3609.00,0.3295
3608.00,0.3295
3607.00,0.3295
3606.00,0.3295
3605.00,0.3294
3604.00,0.3292
3603.00,0.3291
3602.00,0.3288
3601.00,0.3285
3600.00,0.3280
3599.00,0.3275
3598.00,0.3269
3597.00,0.3263
3596.00,0.3258
3595.00,0.3252
3594.00,0.3247
3593.00,0.3242
3592.00,0.3238
3591.00,0.3234
3590.00,0.3230
3589.00,0.3227
3588.00,0.3224
3587.00,0.3222
3586.00,0.3220
3585.00,0.3218
3584.00,0.3217
3583.00,0.3215
3582.00,0.3214
3581.00,0.3213
3580.00,0.3212
3579.00,0.3211
3578.00,0.3211
3577.00,0.3210
3576.00,0.3210
3575.00,0.3210
3574.00,0.3211
3573.00,0.3212
3572.00,0.3213
3571.00,0.3215
3570.00,0.3217
3569.00,0.3219
3568.00,0.3221
3567.00,0.3223
3566.00,0.3224
3565.00,0.3225
3564.00,0.3226
3563.00,0.3228
3562.00,0.3229
3561.00,0.3230
3560.00,0.3231
3559.00,0.3232
3558.00,0.3233
3557.00,0.3235
3556.00,0.3237
3555.00,0.3240
3554.00,0.3242
3553.00,0.3245
3552.00,0.3248
3551.00,0.3251
3550.00,0.3254
3549.00,0.3258
3548.00,0.3262
3547.00,0.3266
3546.00,0.3269
3545.00,0.3273
3544.00,0.3277
3543.00,0.3281
3542.00,0.3285
3541.00,0.3289
3540.00,0.3292
3539.00,0.3296
3538.00,0.3300
3537.00,0.3303
3536.00,0.3306
3535.00,0.3309
3534.00,0.3312
3533.00,0.3315
3532.00,0.3319
3531.00,0.3322
3530.00,0.3326
3529.00,0.3330
3528.00,0.3333
3527.00,0.3336
3526.00,0.3339
3525.00,0.3342
3524.00,0.3345
3523.00,0.3348
3522.00,0.3350
3521.00,0.3352
3520.00,0.3354
3519.00,0.3357
3518.00,0.3361
3517.00,0.3365
3516.00,0.3369
3515.00,0.3373
3514.00,0.3378
3513.00,0.3383
3512.00,0.3388
3511.00,0.3393
3510.00,0.3399
3509.00,0.3404
3508.00,0.3410
3507.00,0.3415
3506.00,0.3421
3505.00,0.3427
3504.00,0.3432
3503.00,0.3437
3502.00,0.3443
3501.00,0.3449
3500.00,0.3455
3499.00,0.3460
3498.00,0.3466
3497.00,0.3471
3496.00,0.3478
3495.00,0.3484
3494.00,0.3490
3493.00,0.3497
3492.00,0.3503
3491.00,0.3510
3490.00,0.3517
3489.00,0.3525
3488.00,0.3533
3487.00,0.3540
3486.00,0.3547
3485.00,0.3553
3484.00,0.3559
3483.00,0.3564
3482.00,0.3570
3481.00,0.3575
3480.00,0.3581
3479.00,0.3587
3478.00,0.3592
3477.00,0.3597
3476.00,0.3602
3475.00,0.3607
3474.00,0.3612
3473.00,0.3618
3472.00,0.3624
3471.00,0.3631
3470.00,0.3637
3469.00,0.3644
3468.00,0.3650
3467.00,0.3656
3466.00,0.3662
3465.00,0.3668
3464.00,0.3675
3463.00,0.3682
3462.00,0.3689
3461.00,0.3696
3460.00,0.3703
3459.00,0.3709
3458.00,0.3716
3457.00,0.3723
3456.00,0.3730
3455.00,0.3737
3454.00,0.3745
3453.00,0.3752
3452.00,0.3760
3451.00,0.3768
3450.00,0.3775
3449.00,0.3782
3448.00,0.3790
3447.00,0.3798
3446.00,0.3805
3445.00,0.3813
3444.00,0.3821
3443.00,0.3828
3442.00,0.3837
3441.00,0.3845
3440.00,0.3854
3439.00,0.3863
3438.00,0.3871
3437.00,0.3878
3436.00,0.3885
3435.00,0.3893
3434.00,0.3902
3433.00,0.3911
3432.00,0.3919
3431.00,0.3928
3430.00,0.3936
3429.00,0.3945
3428.00,0.3954
3427.00,0.3963
3426.00,0.3972
3425.00,0.3981
3424.00,0.3991
3423.00,0.4001
3422.00,0.4011
3421.00,0.4020
3420.00,0.4030
3419.00,0.4039
3418.00,0.4049
3417.00,0.4058
3416.00,0.4067
3415.00,0.4077
3414.00,0.4086
3413.00,0.4096
3412.00,0.4106
3411.00,0.4116
3410.00,0.4127
3409.00,0.4137
3408.00,0.4148
3407.00,0.4158
3406.00,0.4168
3405.00,0.4179
3404.00,0.4189
3403.00,0.4199
3402.00,0.4210
3401.00,0.4220
3400.00,0.4230
3399.00,0.4241
3398.00,0.4252
3397.00,0.4263
3396.00,0.4273
3395.00,0.4283
3394.00,0.4293
3393.00,0.4304
3392.00,0.4314
3391.00,0.4325
3390.00,0.4335
3389.00,0.4344
3388.00,0.4354
3387.00,0.4363
3386.00,0.4374
3385.00,0.4386
3384.00,0.4398
3383.00,0.4410
3382.00,0.4421
3381.00,0.4431
3380.00,0.4441
3379.00,0.4451
3378.00,0.4461
3377.00,0.4472
3376.00,0.4483
3375.00,0.4494
3374.00,0.4506
3373.00,0.4518
3372.00,0.4530
3371.00,0.4542
3370.00,0.4553
3369.00,0.4565
3368.00,0.4577
3367.00,0.4589
3366.00,0.4603
3365.00,0.4617
3364.00,0.4632
3363.00,0.4646
3362.00,0.4660
3361.00,0.4674
3360.00,0.4689
3359.00,0.4704
3358.00,0.4718
3357.00,0.4733
3356.00,0.4748
3355.00,0.4762
3354.00,0.4777
3353.00,0.4791
3352.00,0.4805
3351.00,0.4818
3350.00,0.4832
3349.00,0.4845
3348.00,0.4859
3347.00,0.4873
3346.00,0.4887
3345.00,0.4900
3344.00,0.4913
3343.00,0.4925
3342.00,0.4937
3341.00,0.4949
3340.00,0.4959
3339.00,0.4970
3338.00,0.4980
3337.00,0.4989
3336.00,0.4997
3335.00,0.5004
3334.00,0.5011
3333.00,0.5016
3332.00,0.5021
3331.00,0.5026
3330.00,0.5030
3329.00,0.5033
3328.00,0.5035
3327.00,0.5037
3326.00,0.5038
3325.00,0.5039
3324.00,0.5038
3323.00,0.5037
3322.00,0.5034
3321.00,0.5032
3320.00,0.5028
3319.00,0.5025
3318.00,0.5020
3317.00,0.5015
3316.00,0.5010
3315.00,0.5004
3314.00,0.4998
3313.00,0.4991
3312.00,0.4985
3311.00,0.4979
3310.00,0.4972
3309.00,0.4964
3308.00,0.4956
3307.00,0.4948
3306.00,0.4940
3305.00,0.4933
3304.00,0.4926
3303.00,0.4920
3302.00,0.4913
3301.00,0.4906
3300.00,0.4899
3299.00,0.4892
3298.00,0.4886
3297.00,0.4880
3296.00,0.4875
3295.00,0.4870
3294.00,0.4867
3293.00,0.4863
3292.00,0.4860
3291.00,0.4856
3290.00,0.4853
3289.00,0.4850
3288.00,0.4848
3287.00,0.4847
3286.00,0.4847
3285.00,0.4847
3284.00,0.4847
3283.00,0.4847
3282.00,0.4847
3281.00,0.4846
3280.00,0.4846
3279.00,0.4847
3278.00,0.4849
3277.00,0.4851
3276.00,0.4854
3275.00,0.4857
3274.00,0.4861
3273.00,0.4865
3272.00,0.4869
3271.00,0.4873
3270.00,0.4876
3269.00,0.4879
3268.00,0.4882
3267.00,0.4886
3266.00,0.4890
3265.00,0.4894
3264.00,0.4897
3263.00,0.4902
3262.00,0.4907
3261.00,0.4911
3260.00,0.4916
3259.00,0.4920
3258.00,0.4925
3257.00,0.4929
3256.00,0.4934
3255.00,0.4938
3254.00,0.4942
3253.00,0.4947
3252.00,0.4951
3251.00,0.4956
3250.00,0.4960
3249.00,0.4963
3248.00,0.4966
3247.00,0.4969
3246.00,0.4972
3245.00,0.4975
3244.00,0.4978
3243.00,0.4980
3242.00,0.4982
3241.00,0.4984
3240.00,0.4986
3239.00,0.4988
3238.00,0.4989
3237.00,0.4990
3236.00,0.4990
3235.00,0.4990
3234.00,0.4990
3233.00,0.4990
3232.00,0.4989
3231.00,0.4988
3230.00,0.4986
3229.00,0.4984
3228.00,0.4983
3227.00,0.4982
3226.00,0.4981
3225.00,0.4979
3224.00,0.4978
3223.00,0.4976
3222.00,0.4974
3221.00,0.4971
3220.00,0.4967
3219.00,0.4964
3218.00,0.4960
3217.00,0.4958
3216.00,0.4955
3215.00,0.4953
3214.00,0.4951
3213.00,0.4948
3212.00,0.4946
3211.00,0.4944
3210.00,0.4941
3209.00,0.4938
3208.00,0.4935
3207.00,0.4932
3206.00,0.4929
3205.00,0.4926
3204.00,0.4923
3203.00,0.4920
3202.00,0.4917
3201.00,0.4914
3200.00,0.4912
3199.00,0.4908
3198.00,0.4904
3197.00,0.4900
3196.00,0.4896
3195.00,0.4891
3194.00,0.4887
3193.00,0.4883
3192.00,0.4879
3191.00,0.4874
3190.00,0.4868
3189.00,0.4863
3188.00,0.4857
3187.00,0.4851
3186.00,0.4845
3185.00,0.4840
3184.00,0.4834
3183.00,0.4829
3182.00,0.4823
3181.00,0.4816
3180.00,0.4809
3179.00,0.4802
3178.00,0.4794
3177.00,0.4787
3176.00,0.4781
3175.00,0.4774
3174.00,0.4768
3173.00,0.4761
3172.00,0.4753
3171.00,0.4745
3170.00,0.4738
3169.00,0.4731
3168.00,0.4724
3167.00,0.4717
3166.00,0.4708
3165.00,0.4700
3164.00,0.4691
3163.00,0.4684
3162.00,0.4676
3161.00,0.4669
3160.00,0.4660
3159.00,0.4652
3158.00,0.4643
3157.00,0.4634
3156.00,0.4625
3155.00,0.4617
3154.00,0.4609
3153.00,0.4601
3152.00,0.4594
3151.00,0.4587
3150.00,0.4580
3149.00,0.4573
3148.00,0.4566
3147.00,0.4560
3146.00,0.4553
3145.00,0.4548
3144.00,0.4542
3143.00,0.4537
3142.00,0.4532
3141.00,0.4527
3140.00,0.4522
3139.00,0.4517
3138.00,0.4513
3137.00,0.4509
3136.00,0.4505
3135.00,0.4502
3134.00,0.4499
3133.00,0.4497
3132.00,0.4493
3131.00,0.4490
3130.00,0.4488
3129.00,0.4486
3128.00,0.4485
3127.00,0.4485
3126.00,0.4484
3125.00,0.4484
3124.00,0.4484
3123.00,0.4485
3122.00,0.4485
3121.00,0.4486
3120.00,0.4488
3119.00,0.4489
3118.00,0.4491
3117.00,0.4493
3116.00,0.4497
3115.00,0.4502
3114.00,0.4507
3113.00,0.4513
3112.00,0.4520
3111.00,0.4527
3110.00,0.4534
3109.00,0.4541
3108.00,0.4549
3107.00,0.4557
3106.00,0.4565
3105.00,0.4573
3104.00,0.4581
3103.00,0.4589
3102.00,0.4597
3101.00,0.4606
3100.00,0.4614
3099.00,0.4624
3098.00,0.4634
3097.00,0.4645
3096.00,0.4658
3095.00,0.4671
3094.00,0.4685
3093.00,0.4701
3092.00,0.4719
3091.00,0.4738
3090.00,0.4760
3089.00,0.4783
3088.00,0.4808
3087.00,0.4834
3086.00,0.4861
3085.00,0.4888
3084.00,0.4917
3083.00,0.4946
3082.00,0.4978
3081.00,0.5012
3080.00,0.5048
3079.00,0.5087
3078.00,0.5127
3077.00,0.5168
3076.00,0.5209
3075.00,0.5251
3074.00,0.5293
3073.00,0.5337
3072.00,0.5381
3071.00,0.5424
3070.00,0.5467
3069.00,0.5510
3068.00,0.5553
3067.00,0.5597
3066.00,0.5639
3065.00,0.5680
3064.00,0.5719
3063.00,0.5755
3062.00,0.5788
3061.00,0.5819
3060.00,0.5847
3059.00,0.5874
3058.00,0.5900
3057.00,0.5927
3056.00,0.5956
3055.00,0.5986
3054.00,0.6019
3053.00,0.6054
3052.00,0.6090
3051.00,0.6129
3050.00,0.6170
3049.00,0.6212
3048.00,0.6256
3047.00,0.6301
3046.00,0.6347
3045.00,0.6394
3044.00,0.6441
3043.00,0.6488
3042.00,0.6534
3041.00,0.6580
3040.00,0.6626
3039.00,0.6672
3038.00,0.6720
3037.00,0.6771
3036.00,0.6825
3035.00,0.6883
3034.00,0.6946
3033.00,0.7013
3032.00,0.7084
3031.00,0.7160
3030.00,0.7241
3029.00,0.7327
3028.00,0.7417
3027.00,0.7509
3026.00,0.7604
3025.00,0.7702
3024.00,0.7804
3023.00,0.7908
3022.00,0.8017
3021.00,0.8129
3020.00,0.8243
3019.00,0.8359
3018.00,0.8477
3017.00,0.8596
3016.00,0.8716
3015.00,0.8837
3014.00,0.8959
3013.00,0.9084
3012.00,0.9212
3011.00,0.9346
3010.00,0.9486
3009.00,0.9632
3008.00,0.9785
3007.00,0.9943
3006.00,1.0106
3005.00,1.0276
3004.00,1.0451
3003.00,1.0631
3002.00,1.0818
3001.00,1.1011
3000.00,1.1212
2999.00,1.1424
2998.00,1.1653
2997.00,1.1904
2996.00,1.2179
2995.00,1.2481
2994.00,1.2814
2993.00,1.3181
2992.00,1.3589
2991.00,1.4049
2990.00,1.4570
2989.00,1.5158
2988.00,1.5811
2987.00,1.6533
2986.00,1.7332
2985.00,1.8222
2984.00,1.9208
2983.00,2.0291
2982.00,2.1468
2981.00,2.2746
2980.00,2.4150
2979.00,2.5718
2978.00,2.7484
2977.00,2.9415
2976.00,3.1374
2975.00,3.3168
2974.00,3.4762
2973.00,3.6124
2972.00,3.7217
2971.00,3.8025
2970.00,3.9714
2969.00,4.2561
2968.00,4.1130
2967.00,3.9085
2966.00,3.8691
2965.00,4.0025
2964.00,3.9597
2963.00,3.8413
2962.00,3.8335
2961.00,3.9087
2960.00,3.9499
2959.00,3.9635
2958.00,4.0141
2957.00,4.0344
2956.00,4.0047
2955.00,3.9072
2954.00,3.8042
2953.00,3.7560
2952.00,3.7932
2951.00,3.8711
2950.00,3.9630
2949.00,4.1632
2948.00,4.2905
2947.00,4.1459
2946.00,4.0987
2945.00,4.2527
2944.00,4.2820
2943.00,4.0324
2942.00,3.8878
2941.00,3.9711
2940.00,4.1410
2939.00,4.2923
2938.00,4.4869
2937.00,4.6339
2936.00,4.8196
2935.00,4.7778
2934.00,4.6515
2933.00,4.2826
2932.00,3.9636
2931.00,3.8327
2930.00,3.8700
2929.00,3.9718
2928.00,4.0106
2927.00,4.1140
2926.00,4.1674
2925.00,3.9457
2924.00,3.7524
2923.00,3.6863
2922.00,3.7319
2921.00,3.7882
2920.00,3.8991
2919.00,4.0843
2918.00,4.0778
2917.00,3.9582
2916.00,3.9149
2915.00,4.0396
2914.00,4.3018
2913.00,4.4444
2912.00,4.3053
2911.00,4.0766
2910.00,3.9196
2909.00,3.8368
2908.00,3.7970
2907.00,3.7903
2906.00,3.7873
2905.00,3.7850
2904.00,3.7942
2903.00,3.8185
2902.00,3.8798
2901.00,4.0424
2900.00,4.4043
2899.00,4.5853
2898.00,4.2357
2897.00,4.0384
2896.00,4.1223
2895.00,4.2283
2894.00,4.0584
2893.00,3.9336
2892.00,3.9900
2891.00,4.3163
2890.00,4.4962
2889.00,4.4470
2888.00,4.5072
2887.00,4.3081
2886.00,4.0649
2885.00,3.8584
2884.00,3.8284
2883.00,3.9087
2882.00,3.9569
2881.00,3.9374
2880.00,3.9059
2879.00,3.9551
2878.00,4.0292
2877.00,4.0273
2876.00,4.0733
2875.00,4.2737
2874.00,4.6934
2873.00,5.3793
2872.00,4.9521
2871.00,4.5922
2870.00,4.5003
2869.00,4.6745
2868.00,4.6512
2867.00,4.2229
2866.00,3.9939
2865.00,4.0208
2864.00,4.2091
2863.00,4.0636
2862.00,3.8074
2861.00,3.6682
2860.00,3.6744
2859.00,3.7194
2858.00,3.6974
2857.00,3.6711
2856.00,3.7530
2855.00,4.0148
2854.00,4.2321
2853.00,4.2064
2852.00,4.1709
2851.00,4.2577
2850.00,4.3222
2849.00,4.2585
2848.00,4.1127
2847.00,3.9471
2846.00,3.8611
2845.00,3.8515
2844.00,3.8750
2843.00,3.9023
2842.00,3.9408
2841.00,3.9742
2840.00,3.9578
2839.00,3.8545
2838.00,3.6153
2837.00,3.3067
2836.00,3.0221
2835.00,2.7871
2834.00,2.5914
2833.00,2.4222
2832.00,2.2728
2831.00,2.1393
2830.00,2.0190
2829.00,1.9105
2828.00,1.8131
2827.00,1.7258
2826.00,1.6470
2825.00,1.5754
2824.00,1.5106
2823.00,1.4522
2822.00,1.3993
2821.00,1.3508
2820.00,1.3062
2819.00,1.2650
2818.00,1.2265
2817.00,1.1904
2816.00,1.1565
2815.00,1.1250
2814.00,1.0958
2813.00,1.0686
2812.00,1.0431
2811.00,1.0189
2810.00,0.9957
2809.00,0.9736
2808.00,0.9526
2807.00,0.9328
2806.00,0.9141
2805.00,0.8964
2804.00,0.8796
2803.00,0.8635
2802.00,0.8482
2801.00,0.8335
2800.00,0.8194
2799.00,0.8060
2798.00,0.7931
2797.00,0.7809
2796.00,0.7691
2795.00,0.7578
2794.00,0.7468
2793.00,0.7362
2792.00,0.7259
2791.00,0.7158
2790.00,0.7061
2789.00,0.6965
2788.00,0.6872
2787.00,0.6780
2786.00,0.6690
2785.00,0.6603
2784.00,0.6518
2783.00,0.6436
2782.00,0.6357
2781.00,0.6282
2780.00,0.6209
2779.00,0.6139
2778.00,0.6071
2777.00,0.6007
2776.00,0.5945
2775.00,0.5887
2774.00,0.5833
2773.00,0.5783
2772.00,0.5737
2771.00,0.5694
2770.00,0.5654
2769.00,0.5617
2768.00,0.5584
2767.00,0.5554
2766.00,0.5528
2765.00,0.5506
2764.00,0.5487
2763.00,0.5470
2762.00,0.5456
2761.00,0.5443
2760.00,0.5432
2759.00,0.5421
2758.00,0.5409
2757.00,0.5397
2756.00,0.5385
2755.00,0.5373
2754.00,0.5363
2753.00,0.5354
2752.00,0.5348
2751.00,0.5345
2750.00,0.5343
2749.00,0.5344
2748.00,0.5346
2747.00,0.5351
2746.00,0.5358
2745.00,0.5369
2744.00,0.5382
2743.00,0.5399
2742.00,0.5419
2741.00,0.5443
2740.00,0.5471
2739.00,0.5504
2738.00,0.5542
2737.00,0.5586
2736.00,0.5634
2735.00,0.5686
2734.00,0.5738
2733.00,0.5790
2732.00,0.5839
2731.00,0.5879
2730.00,0.5910
2729.00,0.5930
2728.00,0.5938
2727.00,0.5936
2726.00,0.5926
2725.00,0.5910
2724.00,0.5889
2723.00,0.5865
2722.00,0.5838
2721.00,0.5808
2720.00,0.5776
2719.00,0.5740
2718.00,0.5701
2717.00,0.5660
2716.00,0.5616
2715.00,0.5570
2714.00,0.5524
2713.00,0.5480
2712.00,0.5438
2711.00,0.5400
2710.00,0.5367
2709.00,0.5338
2708.00,0.5312
2707.00,0.5291
2706.00,0.5273
2705.00,0.5258
2704.00,0.5247
2703.00,0.5238
2702.00,0.5232
2701.00,0.5229
2700.00,0.5227
2699.00,0.5227
2698.00,0.5229
2697.00,0.5232
2696.00,0.5236
2695.00,0.5242
2694.00,0.5248
2693.00,0.5255
2692.00,0.5263
2691.00,0.5272
2690.00,0.5280
2689.00,0.5289
2688.00,0.5297
2687.00,0.5304
2686.00,0.5310
2685.00,0.5316
2684.00,0.5320
2683.00,0.5323
2682.00,0.5326
2681.00,0.5330
2680.00,0.5333
2679.00,0.5337
2678.00,0.5341
2677.00,0.5345
2676.00,0.5350
2675.00,0.5355
2674.00,0.5359
2673.00,0.5363
2672.00,0.5365
2671.00,0.5365
2670.00,0.5363
2669.00,0.5358
2668.00,0.5351
2667.00,0.5340
2666.00,0.5328
2665.00,0.5313
2664.00,0.5296
2663.00,0.5278
2662.00,0.5259
2661.00,0.5238
2660.00,0.5216
2659.00,0.5194
2658.00,0.5172
2657.00,0.5150
2656.00,0.5130
2655.00,0.5111
2654.00,0.5093
2653.00,0.5075
2652.00,0.5058
2651.00,0.5041
2650.00,0.5026
2649.00,0.5012
2648.00,0.4998
2647.00,0.4985
2646.00,0.4972
2645.00,0.4960
2644.00,0.4949
2643.00,0.4939
2642.00,0.4929
2641.00,0.4919
2640.00,0.4910
2639.00,0.4901
2638.00,0.4892
2637.00,0.4884
2636.00,0.4875
2635.00,0.4867
2634.00,0.4859
2633.00,0.4851
2632.00,0.4844
2631.00,0.4836
2630.00,0.4828
2629.00,0.4819
2628.00,0.4809
2627.00,0.4799
2626.00,0.4789
2625.00,0.4779
2624.00,0.4769
2623.00,0.4759
2622.00,0.4750
2621.00,0.4741
2620.00,0.4731
2619.00,0.4720
2618.00,0.4710
2617.00,0.4701
2616.00,0.4691
2615.00,0.4682
2614.00,0.4673
2613.00,0.4664
2612.00,0.4656
2611.00,0.4647
2610.00,0.4639
2609.00,0.4631
2608.00,0.4623
2607.00,0.4615
2606.00,0.4606
2605.00,0.4596
2604.00,0.4587
2603.00,0.4577
2602.00,0.4567
2601.00,0.4557
2600.00,0.4546
2599.00,0.4534
2598.00,0.4521
2597.00,0.4507
2596.00,0.4492
2595.00,0.4477
2594.00,0.4462
2593.00,0.4446
2592.00,0.4431
2591.00,0.4415
2590.00,0.4399
2589.00,0.4383
2588.00,0.4365
2587.00,0.4348
2586.00,0.4329
2585.00,0.4311
2584.00,0.4293
2583.00,0.4276
2582.00,0.4258
2581.00,0.4241
2580.00,0.4224
2579.00,0.4207
2578.00,0.4191
2577.00,0.4174
2576.00,0.4158
2575.00,0.4143
2574.00,0.4128
2573.00,0.4113
2572.00,0.4098
2571.00,0.4084
2570.00,0.4070
2569.00,0.4057
2568.00,0.4045
2567.00,0.4032
2566.00,0.4019
2565.00,0.4005
2564.00,0.3992
2563.00,0.3978
2562.00,0.3964
2561.00,0.3950
2560.00,0.3937
2559.00,0.3924
2558.00,0.3911
2557.00,0.3899
2556.00,0.3886
2555.00,0.3874
2554.00,0.3862
2553.00,0.3850
2552.00,0.3839
2551.00,0.3827
2550.00,0.3815
2549.00,0.3804
2548.00,0.3793
2547.00,0.3783
2546.00,0.3773
2545.00,0.3765
2544.00,0.3757
2543.00,0.3750
2542.00,0.3743
2541.00,0.3735
2540.00,0.3728
2539.00,0.3721
2538.00,0.3715
2537.00,0.3710
2536.00,0.3705
2535.00,0.3699
2534.00,0.3693
2533.00,0.3687
2532.00,0.3681
2531.00,0.3674
2530.00,0.3667
2529.00,0.3660
2528.00,0.3652
2527.00,0.3643
2526.00,0.3634
2525.00,0.3624
2524.00,0.3614
2523.00,0.3604
2522.00,0.3594
2521.00,0.3583
2520.00,0.3572
2519.00,0.3562
2518.00,0.3551
2517.00,0.3542
2516.00,0.3532
2515.00,0.3523
2514.00,0.3513
2513.00,0.3505
2512.00,0.3497
2511.00,0.3490
2510.00,0.3483
2509.00,0.3476
2508.00,0.3470
2507.00,0.3463
2506.00,0.3458
2505.00,0.3453
2504.00,0.3448
2503.00,0.3444
2502.00,0.3440
2501.00,0.3437
2500.00,0.3434
2499.00,0.3431
2498.00,0.3429
2497.00,0.3427
2496.00,0.3424
2495.00,0.3422
2494.00,0.3419
2493.00,0.3416
2492.00,0.3412
2491.00,0.3407
2490.00,0.3403
2489.00,0.3399
2488.00,0.3394
2487.00,0.3390
2486.00,0.3385
2485.00,0.3380
2484.00,0.3375
2483.00,0.3370
2482.00,0.3365
2481.00,0.3360
2480.00,0.3355
2479.00,0.3350
2478.00,0.3345
2477.00,0.3340
2476.00,0.3337
2475.00,0.3333
2474.00,0.3330
2473.00,0.3328
2472.00,0.3325
2471.00,0.3323
2470.00,0.3321
2469.00,0.3319
2468.00,0.3317
2467.00,0.3315
2466.00,0.3313
2465.00,0.3311
2464.00,0.3309
2463.00,0.3308
2462.00,0.3306
2461.00,0.3305
2460.00,0.3303
2459.00,0.3301
2458.00,0.3300
2457.00,0.3299
2456.00,0.3298
2455.00,0.3297
2454.00,0.3296
2453.00,0.3294
2452.00,0.3292
2451.00,0.3290
2450.00,0.3289
2449.00,0.3287
2448.00,0.3286
2447.00,0.3285
2446.00,0.3284
2445.00,0.3283
2444.00,0.3282
2443.00,0.3281
2442.00,0.3280
2441.00,0.3279
2440.00,0.3279
2439.00,0.3278
2438.00,0.3278
2437.00,0.3278
2436.00,0.3278
2435.00,0.3278
2434.00,0.3279
2433.00,0.3281
2432.00,0.3282
2431.00,0.3283
2430.00,0.3284
2429.00,0.3285
2428.00,0.3285
2427.00,0.3286
2426.00,0.3288
2425.00,0.3289
2424.00,0.3291
2423.00,0.3293
2422.00,0.3295
2421.00,0.3296
2420.00,0.3297
2419.00,0.3298
2418.00,0.3298
2417.00,0.3298
2416.00,0.3298
2415.00,0.3299
2414.00,0.3299
2413.00,0.3299
2412.00,0.3298
2411.00,0.3297
2410.00,0.3296
2409.00,0.3295
2408.00,0.3294
2407.00,0.3293
2406.00,0.3292
2405.00,0.3291
2404.00,0.3290
2403.00,0.3288
2402.00,0.3287
2401.00,0.3286
2400.00,0.3285
2399.00,0.3283
2398.00,0.3282
2397.00,0.3280
2396.00,0.3279
2395.00,0.3277
2394.00,0.3275
2393.00,0.3274
2392.00,0.3274
2391.00,0.3273
2390.00,0.3273
2389.00,0.3273
2388.00,0.3273
2387.00,0.3273
2386.00,0.3274
2385.00,0.3274
2384.00,0.3275
2383.00,0.3276
2382.00,0.3277
2381.00,0.3277
2380.00,0.3277
2379.00,0.3277
2378.00,0.3277
2377.00,0.3277
2376.00,0.3276
2375.00,0.3275
2374.00,0.3274
2373.00,0.3273
2372.00,0.3271
2371.00,0.3270
2370.00,0.3269
2369.00,0.3270
2368.00,0.3271
2367.00,0.3271
2366.00,0.3271
2365.00,0.3271
2364.00,0.3271
2363.00,0.3270
2362.00,0.3270
2361.00,0.3269
2360.00,0.3268
2359.00,0.3267
2358.00,0.3266
2357.00,0.3266
2356.00,0.3266
2355.00,0.3265
2354.00,0.3264
2353.00,0.3263
2352.00,0.3262
2351.00,0.3261
2350.00,0.3260
2349.00,0.3259
2348.00,0.3259
2347.00,0.3258
2346.00,0.3258
2345.00,0.3257
2344.00,0.3256
2343.00,0.3255
2342.00,0.3254
2341.00,0.3254
2340.00,0.3253
2339.00,0.3251
2338.00,0.3250
2337.00,0.3248
2336.00,0.3247
2335.00,0.3244
2334.00,0.3242
2333.00,0.3240
2332.00,0.3237
2331.00,0.3234
2330.00,0.3231
2329.00,0.3229
2328.00,0.3226
2327.00,0.3224
2326.00,0.3223
2325.00,0.3221
2324.00,0.3220
2323.00,0.3218
2322.00,0.3216
2321.00,0.3212
2320.00,0.3208
2319.00,0.3204
2318.00,0.3200
2317.00,0.3199
2316.00,0.3197
2315.00,0.3196
2314.00,0.3193
2313.00,0.3190
2312.00,0.3187
2311.00,0.3184
2310.00,0.3181
2309.00,0.3178
2308.00,0.3175
2307.00,0.3171
2306.00,0.3168
2305.00,0.3165
2304.00,0.3163
2303.00,0.3159
2302.00,0.3156
2301.00,0.3153
2300.00,0.3151
2299.00,0.3148
2298.00,0.3146
2297.00,0.3143
2296.00,0.3141
2295.00,0.3138
2294.00,0.3135
2293.00,0.3132
2292.00,0.3129
2291.00,0.3126
2290.00,0.3124
2289.00,0.3121
2288.00,0.3118
2287.00,0.3115
2286.00,0.3111
2285.00,0.3108
2284.00,0.3105
2283.00,0.3103
2282.00,0.3100
2281.00,0.3097
2280.00,0.3094
2279.00,0.3091
2278.00,0.3087
2277.00,0.3084
2276.00,0.3081
2275.00,0.3078
2274.00,0.3076
2273.00,0.3074
2272.00,0.3072
2271.00,0.3069
2270.00,0.3068
2269.00,0.3066
2268.00,0.3064
2267.00,0.3063
2266.00,0.3061
2265.00,0.3059
2264.00,0.3058
2263.00,0.3056
2262.00,0.3054
2261.00,0.3051
2260.00,0.3049
2259.00,0.3047
2258.00,0.3044
2257.00,0.3041
2256.00,0.3039
2255.00,0.3037
2254.00,0.3035
2253.00,0.3033
2252.00,0.3031
2251.00,0.3028
2250.00,0.3025
2249.00,0.3023
2248.00,0.3020
2247.00,0.3017
2246.00,0.3015
2245.00,0.3012
2244.00,0.3010
2243.00,0.3008
2242.00,0.3005
2241.00,0.3003
2240.00,0.3001
2239.00,0.3000
2238.00,0.2998
2237.00,0.2997
2236.00,0.2995
2235.00,0.2993
2234.00,0.2991
2233.00,0.2990
2232.00,0.2990
2231.00,0.2989
2230.00,0.2989
2229.00,0.2988
2228.00,0.2988
2227.00,0.2988
2226.00,0.2987
2225.00,0.2986
2224.00,0.2985
2223.00,0.2984
2222.00,0.2984
2221.00,0.2983
2220.00,0.2983
2219.00,0.2983
2218.00,0.2982
2217.00,0.2982
2216.00,0.2982
2215.00,0.2980
2214.00,0.2979
2213.00,0.2978
2212.00,0.2977
2211.00,0.2977
2210.00,0.2975
2209.00,0.2975
2208.00,0.2974
2207.00,0.2973
2206.00,0.2972
2205.00,0.2971
2204.00,0.2970
2203.00,0.2970
2202.00,0.2969
2201.00,0.2968
2200.00,0.2968
2199.00,0.2967
2198.00,0.2968
2197.00,0.2968
2196.00,0.2969
2195.00,0.2969
2194.00,0.2969
2193.00,0.2969
2192.00,0.2969
2191.00,0.2970
2190.00,0.2970
2189.00,0.2971
2188.00,0.2972
2187.00,0.2973
2186.00,0.2974
2185.00,0.2974
2184.00,0.2974
2183.00,0.2973
2182.00,0.2972
2181.00,0.2972
2180.00,0.2971
2179.00,0.2969
2178.00,0.2968
2177.00,0.2966
2176.00,0.2964
2175.00,0.2963
2174.00,0.2961
2173.00,0.2960
2172.00,0.2959
2171.00,0.2958
2170.00,0.2956
2169.00,0.2955
2168.00,0.2953
2167.00,0.2952
2166.00,0.2949
2165.00,0.2947
2164.00,0.2945
2163.00,0.2944
2162.00,0.2943
2161.00,0.2942
2160.00,0.2941
2159.00,0.2940
2158.00,0.2937
2157.00,0.2936
2156.00,0.2934
2155.00,0.2933
2154.00,0.2932
2153.00,0.2931
2152.00,0.2930
2151.00,0.2929
2150.00,0.2928
2149.00,0.2926
2148.00,0.2925
2147.00,0.2922
2146.00,0.2918
2145.00,0.2914
2144.00,0.2910
2143.00,0.2906
2142.00,0.2902
2141.00,0.2898
2140.00,0.2893
2139.00,0.2889
2138.00,0.2885
2137.00,0.2882
2136.00,0.2880
2135.00,0.2878
2134.00,0.2875
2133.00,0.2872
2132.00,0.2869
2131.00,0.2866
2130.00,0.2864
2129.00,0.2862
2128.00,0.2861
2127.00,0.2859
2126.00,0.2857
2125.00,0.2856
2124.00,0.2854
2123.00,0.2852
2122.00,0.2851
2121.00,0.2850
2120.00,0.2849
2119.00,0.2849
2118.00,0.2848
2117.00,0.2847
2116.00,0.2847
2115.00,0.2847
2114.00,0.2846
2113.00,0.2846
2112.00,0.2845
2111.00,0.2845
2110.00,0.2844
2109.00,0.2843
2108.00,0.2843
2107.00,0.2843
2106.00,0.2842
2105.00,0.2842
2104.00,0.2842
2103.00,0.2841
2102.00,0.2840
2101.00,0.2839
2100.00,0.2838
2099.00,0.2837
2098.00,0.2836
2097.00,0.2836
2096.00,0.2835
2095.00,0.2834
2094.00,0.2833
2093.00,0.2832
2092.00,0.2832
2091.00,0.2832
2090.00,0.2831
2089.00,0.2830
2088.00,0.2830
2087.00,0.2830
2086.00,0.2829
2085.00,0.2829
2084.00,0.2828
2083.00,0.2828
2082.00,0.2828
2081.00,0.2828
2080.00,0.2829
2079.00,0.2829
2078.00,0.2829
2077.00,0.2830
2076.00,0.2831
2075.00,0.2832
2074.00,0.2832
2073.00,0.2833
2072.00,0.2834
2071.00,0.2835
2070.00,0.2836
2069.00,0.2837
2068.00,0.2838
2067.00,0.2839
2066.00,0.2839
2065.00,0.2840
2064.00,0.2840
2063.00,0.2841
2062.00,0.2842
2061.00,0.2843
2060.00,0.2844
2059.00,0.2845
2058.00,0.2846
2057.00,0.2847
2056.00,0.2849
2055.00,0.2850
2054.00,0.2851
2053.00,0.2853
2052.00,0.2854
2051.00,0.2855
2050.00,0.2856
2049.00,0.2858
2048.00,0.2860
2047.00,0.2862
2046.00,0.2864
2045.00,0.2865
2044.00,0.2866
2043.00,0.2867
2042.00,0.2867
2041.00,0.2869
2040.00,0.2870
2039.00,0.2871
2038.00,0.2872
2037.00,0.2874
2036.00,0.2875
2035.00,0.2875
2034.00,0.2875
2033.00,0.2875
2032.00,0.2876
2031.00,0.2877
2030.00,0.2877
2029.00,0.2877
2028.00,0.2877
2027.00,0.2877
2026.00,0.2875
2025.00,0.2874
2024.00,0.2872
2023.00,0.2871
2022.00,0.2869
2021.00,0.2866
2020.00,0.2862
2019.00,0.2857
2018.00,0.2852
2017.00,0.2846
2016.00,0.2841
2015.00,0.2836
2014.00,0.2830
2013.00,0.2824
2012.00,0.2819
2011.00,0.2814
2010.00,0.2808
2009.00,0.2804
2008.00,0.2801
2007.00,0.2797
2006.00,0.2794
2005.00,0.2791
2004.00,0.2788
2003.00,0.2785
2002.00,0.2783
2001.00,0.2782
2000.00,0.2781
1999.00,0.2779
1998.00,0.2778
1997.00,0.2778
1996.00,0.2778
1995.00,0.2778
1994.00,0.2777
1993.00,0.2775
1992.00,0.2774
1991.00,0.2774
1990.00,0.2774
1989.00,0.2774
1988.00,0.2774
1987.00,0.2774
1986.00,0.2773
1985.00,0.2773
1984.00,0.2773
1983.00,0.2772
1982.00,0.2771
1981.00,0.2771
1980.00,0.2771
1979.00,0.2770
1978.00,0.2770
1977.00,0.2769
1976.00,0.2769
1975.00,0.2769
1974.00,0.2768
1973.00,0.2768
1972.00,0.2768
1971.00,0.2767
1970.00,0.2767
1969.00,0.2766
1968.00,0.2766
1967.00,0.2767
1966.00,0.2767
1965.00,0.2768
1964.00,0.2768
1963.00,0.2768
1962.00,0.2767
1961.00,0.2768
1960.00,0.2769
1959.00,0.2771
1958.00,0.2772
1957.00,0.2774
1956.00,0.2777
1955.00,0.2778
1954.00,0.2779
1953.00,0.2780
1952.00,0.2781
1951.00,0.2782
1950.00,0.2783
1949.00,0.2785
1948.00,0.2788
1947.00,0.2790
1946.00,0.2794
1945.00,0.2797
1944.00,0.2801
1943.00,0.2805
1942.00,0.2809
1941.00,0.2815
1940.00,0.2821
1939.00,0.2824
1938.00,0.2826
1937.00,0.2826
1936.00,0.2825
1935.00,0.2823
1934.00,0.2821
1933.00,0.2819
1932.00,0.2818
1931.00,0.2817
1930.00,0.2818
1929.00,0.2818
1928.00,0.2819
1927.00,0.2820
1926.00,0.2821
1925.00,0.2822
1924.00,0.2824
1923.00,0.2827
1922.00,0.2832
1921.00,0.2837
1920.00,0.2842
1919.00,0.2844
1918.00,0.2846
1917.00,0.2850
1916.00,0.2854
1915.00,0.2857
1914.00,0.2857
1913.00,0.2857
1912.00,0.2858
1911.00,0.2859
1910.00,0.2861
1909.00,0.2863
1908.00,0.2865
1907.00,0.2867
1906.00,0.2867
1905.00,0.2867
1904.00,0.2867
1903.00,0.2866
1902.00,0.2866
1901.00,0.2866
1900.00,0.2867
1899.00,0.2868
1898.00,0.2869
1897.00,0.2871
1896.00,0.2872
1895.00,0.2873
1894.00,0.2875
1893.00,0.2878
1892.00,0.2879
1891.00,0.2878
1890.00,0.2877
1889.00,0.2877
1888.00,0.2879
1887.00,0.2879
1886.00,0.2879
1885.00,0.2879
1884.00,0.2879
1883.00,0.2879
1882.00,0.2879
1881.00,0.2878
1880.00,0.2878
1879.00,0.2877
1878.00,0.2876
1877.00,0.2876
1876.00,0.2875
1875.00,0.2874
1874.00,0.2873
1873.00,0.2873
1872.00,0.2873
1871.00,0.2872
1870.00,0.2870
1869.00,0.2870
1868.00,0.2871
1867.00,0.2871
1866.00,0.2870
1865.00,0.2866
1864.00,0.2862
1863.00,0.2858
1862.00,0.2854
1861.00,0.2851
1860.00,0.2848
1859.00,0.2845
1858.00,0.2842
1857.00,0.2839
1856.00,0.2837
1855.00,0.2835
1854.00,0.2832
1853.00,0.2830
1852.00,0.2830
1851.00,0.2828
1850.00,0.2826
1849.00,0.2824
1848.00,0.2825
1847.00,0.2825
1846.00,0.2823
1845.00,0.2821
1844.00,0.2821
1843.00,0.2822
1842.00,0.2823
1841.00,0.2822
1840.00,0.2820
1839.00,0.2817
1838.00,0.2816
1837.00,0.2816
1836.00,0.2816
1835.00,0.2816
1834.00,0.2817
1833.00,0.2818
1832.00,0.2819
1831.00,0.2819
1830.00,0.2820
1829.00,0.2823
1828.00,0.2825
1827.00,0.2823
1826.00,0.2818
1825.00,0.2814
1824.00,0.2814
1823.00,0.2815
1822.00,0.2815
1821.00,0.2813
1820.00,0.2811
1819.00,0.2810
1818.00,0.2809
1817.00,0.2809
1816.00,0.2811
1815.00,0.2813
1814.00,0.2814
1813.00,0.2816
1812.00,0.2818
1811.00,0.2820
1810.00,0.2822
1809.00,0.2824
1808.00,0.2826
1807.00,0.2828
1806.00,0.2831
1805.00,0.2835
1804.00,0.2839
1803.00,0.2843
1802.00,0.2848
1801.00,0.2854
1800.00,0.2862
1799.00,0.2870
1798.00,0.2875
1797.00,0.2881
1796.00,0.2887
1795.00,0.2892
1794.00,0.2895
1793.00,0.2899
1792.00,0.2905
1791.00,0.2911
1790.00,0.2916
1789.00,0.2920
1788.00,0.2922
1787.00,0.2922
1786.00,0.2922
1785.00,0.2925
1784.00,0.2930
1783.00,0.2936
1782.00,0.2940
1781.00,0.2943
1780.00,0.2947
1779.00,0.2952
1778.00,0.2957
1777.00,0.2963
1776.00,0.2970
1775.00,0.2979
1774.00,0.2987
1773.00,0.2995
1772.00,0.3005
1771.00,0.3015
1770.00,0.3021
1769.00,0.3025
1768.00,0.3029
1767.00,0.3037
1766.00,0.3048
1765.00,0.3060
1764.00,0.3072
1763.00,0.3083
1762.00,0.3099
1761.00,0.3119
1760.00,0.3142
1759.00,0.3163
1758.00,0.3183
1757.00,0.3206
1756.00,0.3236
1755.00,0.3268
1754.00,0.3298
1753.00,0.3328
1752.00,0.3361
1751.00,0.3399
1750.00,0.3439
1749.00,0.3476
1748.00,0.3507
1747.00,0.3532
1746.00,0.3551
1745.00,0.3567
1744.00,0.3581
1743.00,0.3593
1742.00,0.3602
1741.00,0.3606
1740.00,0.3606
1739.00,0.3605
1738.00,0.3604
1737.00,0.3601
1736.00,0.3592
1735.00,0.3576
1734.00,0.3562
1733.00,0.3557
1732.00,0.3553
1731.00,0.3543
1730.00,0.3531
1729.00,0.3525
1728.00,0.3525
1727.00,0.3529
1726.00,0.3537
1725.00,0.3549
1724.00,0.3568
1723.00,0.3592
1722.00,0.3622
1721.00,0.3658
1720.00,0.3701
1719.00,0.3755
1718.00,0.3829
1717.00,0.3923
1716.00,0.4023
1715.00,0.4122
1714.00,0.4226
1713.00,0.4334
1712.00,0.4440
1711.00,0.4540
1710.00,0.4629
1709.00,0.4698
1708.00,0.4738
1707.00,0.4745
1706.00,0.4719
1705.00,0.4667
1704.00,0.4602
1703.00,0.4531
1702.00,0.4442
1701.00,0.4323
1700.00,0.4195
1699.00,0.4098
1698.00,0.4029
1697.00,0.3959
1696.00,0.3878
1695.00,0.3802
1694.00,0.3747
1693.00,0.3706
1692.00,0.3669
1691.00,0.3635
1690.00,0.3606
1689.00,0.3586
1688.00,0.3574
1687.00,0.3566
1686.00,0.3555
1685.00,0.3541
1684.00,0.3527
1683.00,0.3518
1682.00,0.3509
1681.00,0.3497
1680.00,0.3484
1679.00,0.3475
1678.00,0.3469
1677.00,0.3464
1676.00,0.3459
1675.00,0.3456
1674.00,0.3459
1673.00,0.3464
1672.00,0.3464
1671.00,0.3461
1670.00,0.3459
1669.00,0.3459
1668.00,0.3460
1667.00,0.3460
1666.00,0.3460
1665.00,0.3460
1664.00,0.3460
1663.00,0.3462
1662.00,0.3466
1661.00,0.3471
1660.00,0.3475
1659.00,0.3478
1658.00,0.3484
1657.00,0.3494
1656.00,0.3507
1655.00,0.3519
1654.00,0.3531
1653.00,0.3549
1652.00,0.3571
1651.00,0.3585
1650.00,0.3589
1649.00,0.3591
1648.00,0.3598
1647.00,0.3611
1646.00,0.3628
1645.00,0.3645
1644.00,0.3659
1643.00,0.3669
1642.00,0.3680
1641.00,0.3695
1640.00,0.3715
1639.00,0.3737
1638.00,0.3760
1637.00,0.3785
1636.00,0.3813
1635.00,0.3839
1634.00,0.3861
1633.00,0.3878
1632.00,0.3894
1631.00,0.3910
1630.00,0.3928
1629.00,0.3952
1628.00,0.3979
1627.00,0.4007
1626.00,0.4035
1625.00,0.4067
1624.00,0.4104
1623.00,0.4147
1622.00,0.4196
1621.00,0.4250
1620.00,0.4308
1619.00,0.4373
1618.00,0.4452
1617.00,0.4555
1616.00,0.4673
1615.00,0.4782
1614.00,0.4877
1613.00,0.4968
1612.00,0.5066
1611.00,0.5169
1610.00,0.5273
1609.00,0.5378
1608.00,0.5480
1607.00,0.5571
1606.00,0.5650
1605.00,0.5722
1604.00,0.5794
1603.00,0.5861
1602.00,0.5926
1601.00,0.5996
1600.00,0.6075
1599.00,0.6162
1598.00,0.6260
1597.00,0.6384
1596.00,0.6543
1595.00,0.6742
1594.00,0.6986
1593.00,0.7296
1592.00,0.7690
1591.00,0.8184
1590.00,0.8798
1589.00,0.9579
1588.00,1.0579
1587.00,1.1833
1586.00,1.3371
1585.00,1.5264
1584.00,1.7623
1583.00,2.0414
1582.00,2.3137
1581.00,2.5040
1580.00,2.5647
1579.00,2.4131
1578.00,2.1086
1577.00,1.8055
1576.00,1.5583
1575.00,1.3742
1574.00,1.2439
1573.00,1.1507
1572.00,1.0797
1571.00,1.0223
1570.00,0.9788
1569.00,0.9548
1568.00,0.9523
1567.00,0.9687
1566.00,1.0039
1565.00,1.0608
1564.00,1.1382
1563.00,1.2244
1562.00,1.3046
1561.00,1.3666
1560.00,1.3798
1559.00,1.3008
1558.00,1.1762
1557.00,1.0705
1556.00,0.9833
1555.00,0.9008
1554.00,0.8249
1553.00,0.7635
1552.00,0.7173
1551.00,0.6801
1550.00,0.6482
1549.00,0.6224
1548.00,0.6031
1547.00,0.5880
1546.00,0.5750
1545.00,0.5641
1544.00,0.5557
1543.00,0.5493
1542.00,0.5436
1541.00,0.5380
1540.00,0.5321
1539.00,0.5259
1538.00,0.5204
1537.00,0.5162
1536.00,0.5126
1535.00,0.5091
1534.00,0.5057
1533.00,0.5038
1532.00,0.5035
1531.00,0.5041
1530.00,0.5051
1529.00,0.5065
1528.00,0.5082
1527.00,0.5093
1526.00,0.5095
1525.00,0.5095
1524.00,0.5097
1523.00,0.5098
1522.00,0.5102
1521.00,0.5119
1520.00,0.5147
1519.00,0.5177
1518.00,0.5205
1517.00,0.5238
1516.00,0.5270
1515.00,0.5293
1514.00,0.5302
1513.00,0.5305
1512.00,0.5312
1511.00,0.5324
1510.00,0.5347
1509.00,0.5387
1508.00,0.5452
1507.00,0.5548
1506.00,0.5662
1505.00,0.5771
1504.00,0.5862
1503.00,0.5935
1502.00,0.6003
1501.00,0.6074
1500.00,0.6147
1499.00,0.6215
1498.00,0.6285
1497.00,0.6372
1496.00,0.6476
1495.00,0.6582
1494.00,0.6685
1493.00,0.6795
1492.00,0.6919
1491.00,0.7061
1490.00,0.7225
1489.00,0.7409
1488.00,0.7605
1487.00,0.7808
1486.00,0.8033
1485.00,0.8297
1484.00,0.8604
1483.00,0.8959
1482.00,0.9382
1481.00,0.9888
1480.00,1.0458
1479.00,1.1079
1478.00,1.1784
1477.00,1.2630
1476.00,1.3630
1475.00,1.4771
1474.00,1.6129
1473.00,1.7902
1472.00,2.0212
1471.00,2.2929
1470.00,2.5900
1469.00,2.9284
1468.00,3.3174
1467.00,3.6486
1466.00,3.9507
1465.00,4.2040
1464.00,4.2305
1463.00,4.4085
1462.00,4.0800
1461.00,4.2163
1460.00,4.4180
1459.00,3.7288
1458.00,3.5436
1457.00,3.6051
1456.00,3.7336
1455.00,3.9407
1454.00,3.9446
1453.00,3.9246
1452.00,3.8530
1451.00,3.5998
1450.00,3.4553
1449.00,3.4294
1448.00,3.3339
1447.00,3.1583
1446.00,3.0132
1445.00,2.8843
1444.00,2.7268
1443.00,2.5568
1442.00,2.4099
1441.00,2.2856
1440.00,2.1680
1439.00,2.0501
1438.00,1.9306
1437.00,1.8071
1436.00,1.6862
1435.00,1.5786
1434.00,1.4848
1433.00,1.3969
1432.00,1.3106
1431.00,1.2283
1430.00,1.1542
1429.00,1.0907
1428.00,1.0388
1427.00,0.9977
1426.00,0.9648
1425.00,0.9373
1424.00,0.9151
1423.00,0.8987
1422.00,0.8871
1421.00,0.8777
1420.00,0.8691
1419.00,0.8614
1418.00,0.8550
1417.00,0.8496
1416.00,0.8452
1415.00,0.8422
1414.00,0.8404
1413.00,0.8397
1412.00,0.8399
1411.00,0.8407
1410.00,0.8411
1409.00,0.8396
1408.00,0.8353
1407.00,0.8277
1406.00,0.8163
1405.00,0.8016
1404.00,0.7856
1403.00,0.7704
1402.00,0.7567
1401.00,0.7442
1400.00,0.7329
1399.00,0.7241
1398.00,0.7181
1397.00,0.7147
1396.00,0.7141
1395.00,0.7171
1394.00,0.7244
1393.00,0.7364
1392.00,0.7544
1391.00,0.7806
1390.00,0.8174
1389.00,0.8679
1388.00,0.9363
1387.00,1.0234
1386.00,1.1234
1385.00,1.2286
1384.00,1.3370
1383.00,1.4527
1382.00,1.5799
1381.00,1.7217
1380.00,1.8794
1379.00,2.0414
1378.00,2.1685
1377.00,2.2134
1376.00,2.1641
1375.00,2.0410
1374.00,1.8812
1373.00,1.7249
1372.00,1.5934
1371.00,1.4901
1370.00,1.4135
1369.00,1.3624
1368.00,1.3320
1367.00,1.3107
1366.00,1.2829
1365.00,1.2372
1364.00,1.1732
1363.00,1.1011
1362.00,1.0338
1361.00,0.9791
1360.00,0.9377
1359.00,0.9072
1358.00,0.8847
1357.00,0.8688
1356.00,0.8581
1355.00,0.8516
1354.00,0.8481
1353.00,0.8462
1352.00,0.8448
1351.00,0.8431
1350.00,0.8407
1349.00,0.8377
1348.00,0.8345
1347.00,0.8316
1346.00,0.8292
1345.00,0.8273
1344.00,0.8255
1343.00,0.8235
1342.00,0.8205
1341.00,0.8157
1340.00,0.8086
1339.00,0.7992
1338.00,0.7875
1337.00,0.7741
1336.00,0.7595
1335.00,0.7445
1334.00,0.7300
1333.00,0.7167
1332.00,0.7049
1331.00,0.6951
1330.00,0.6872
1329.00,0.6812
1328.00,0.6768
1327.00,0.6740
1326.00,0.6724
1325.00,0.6717
1324.00,0.6716
1323.00,0.6719
1322.00,0.6724
1321.00,0.6730
1320.00,0.6735
1319.00,0.6743
1318.00,0.6754
1317.00,0.6772
1316.00,0.6796
1315.00,0.6826
1314.00,0.6861
1313.00,0.6898
1312.00,0.6938
1311.00,0.6978
1310.00,0.7016
1309.00,0.7049
1308.00,0.7075
1307.00,0.7094
1306.00,0.7103
1305.00,0.7099
1304.00,0.7081
1303.00,0.7051
1302.00,0.7010
1301.00,0.6961
1300.00,0.6907
1299.00,0.6851
1298.00,0.6794
1297.00,0.6737
1296.00,0.6682
1295.00,0.6632
1294.00,0.6588
1293.00,0.6549
1292.00,0.6512
1291.00,0.6477
1290.00,0.6444
1289.00,0.6411
1288.00,0.6377
1287.00,0.6343
1286.00,0.6305
1285.00,0.6263
1284.00,0.6221
1283.00,0.6183
1282.00,0.6149
1281.00,0.6121
1280.00,0.6098
1279.00,0.6078
1278.00,0.6058
1277.00,0.6035
1276.00,0.6010
1275.00,0.5985
1274.00,0.5963
1273.00,0.5944
1272.00,0.5930
1271.00,0.5923
1270.00,0.5920
1269.00,0.5913
1268.00,0.5896
1267.00,0.5867
1266.00,0.5827
1265.00,0.5780
1264.00,0.5736
1263.00,0.5700
1262.00,0.5672
1261.00,0.5650
1260.00,0.5633
1259.00,0.5618
1258.00,0.5604
1257.00,0.5587
1256.00,0.5568
1255.00,0.5550
1254.00,0.5535
1253.00,0.5523
1252.00,0.5512
1251.00,0.5501
1250.00,0.5491
1249.00,0.5478
1248.00,0.5463
1247.00,0.5445
1246.00,0.5423
1245.00,0.5397
1244.00,0.5367
1243.00,0.5336
1242.00,0.5304
1241.00,0.5272
1240.00,0.5241
1239.00,0.5213
1238.00,0.5190
1237.00,0.5171
1236.00,0.5155
1235.00,0.5144
1234.00,0.5138
1233.00,0.5138
1232.00,0.5141
1231.00,0.5149
1230.00,0.5157
1229.00,0.5160
1228.00,0.5152
1227.00,0.5132
1226.00,0.5104
1225.00,0.5070
1224.00,0.5035
1223.00,0.5003
1222.00,0.4977
1221.00,0.4956
1220.00,0.4941
1219.00,0.4934
1218.00,0.4933
1217.00,0.4937
1216.00,0.4944
1215.00,0.4953
1214.00,0.4962
1213.00,0.4967
1212.00,0.4966
1211.00,0.4957
1210.00,0.4945
1209.00,0.4930
1208.00,0.4914
1207.00,0.4899
1206.00,0.4884
1205.00,0.4868
1204.00,0.4853
1203.00,0.4841
1202.00,0.4832
1201.00,0.4825
1200.00,0.4820
1199.00,0.4817
1198.00,0.4815
1197.00,0.4810
1196.00,0.4801
1195.00,0.4793
1194.00,0.4785
1193.00,0.4777
1192.00,0.4771
1191.00,0.4765
1190.00,0.4760
1189.00,0.4753
1188.00,0.4746
1187.00,0.4740
1186.00,0.4734
1185.00,0.4728
1184.00,0.4723
1183.00,0.4720
1182.00,0.4720
1181.00,0.4722
1180.00,0.4726
1179.00,0.4734
1178.00,0.4746
1177.00,0.4764
1176.00,0.4787
1175.00,0.4818
1174.00,0.4857
1173.00,0.4904
1172.00,0.4954
1171.00,0.5001
1170.00,0.5037
1169.00,0.5054
1168.00,0.5053
1167.00,0.5043
1166.00,0.5030
1165.00,0.5018
1164.00,0.5010
1163.00,0.5008
1162.00,0.5013
1161.00,0.5022
1160.00,0.5036
1159.00,0.5053
1158.00,0.5070
1157.00,0.5082
1156.00,0.5087
1155.00,0.5085
1154.00,0.5075
1153.00,0.5059
1152.00,0.5039
1151.00,0.5016
1150.00,0.4993
1149.00,0.4968
1148.00,0.4944
1147.00,0.4923
1146.00,0.4906
1145.00,0.4895
1144.00,0.4891
1143.00,0.4895
1142.00,0.4908
1141.00,0.4933
1140.00,0.4969
1139.00,0.5019
1138.00,0.5082
1137.00,0.5156
1136.00,0.5241
1135.00,0.5327
1134.00,0.5400
1133.00,0.5439
1132.00,0.5433
1131.00,0.5384
1130.00,0.5305
1129.00,0.5217
1128.00,0.5136
1127.00,0.5074
1126.00,0.5031
1125.00,0.5004
1124.00,0.4985
1123.00,0.4969
1122.00,0.4953
1121.00,0.4937
1120.00,0.4925
1119.00,0.4923
1118.00,0.4937
1117.00,0.4967
1116.00,0.5008
1115.00,0.5048
1114.00,0.5071
1113.00,0.5061
1112.00,0.5016
1111.00,0.4946
1110.00,0.4868
1109.00,0.4797
1108.00,0.4739
1107.00,0.4699
1106.00,0.4675
1105.00,0.4663
1104.00,0.4658
1103.00,0.4657
1102.00,0.4655
1101.00,0.4652
1100.00,0.4645
1099.00,0.4637
1098.00,0.4628
1097.00,0.4619
1096.00,0.4611
1095.00,0.4607
1094.00,0.4607
1093.00,0.4611
1092.00,0.4618
1091.00,0.4631
1090.00,0.4647
1089.00,0.4668
1088.00,0.4696
1087.00,0.4733
1086.00,0.4780
1085.00,0.4837
1084.00,0.4900
1083.00,0.4973
1082.00,0.5053
1081.00,0.5136
1080.00,0.5215
1079.00,0.5284
1078.00,0.5334
1077.00,0.5358
1076.00,0.5350
1075.00,0.5315
1074.00,0.5260
1073.00,0.5195
1072.00,0.5129
1071.00,0.5067
1070.00,0.5014
1069.00,0.4972
1068.00,0.4941
1067.00,0.4919
1066.00,0.4903
1065.00,0.4892
1064.00,0.4885
1063.00,0.4881
1062.00,0.4880
1061.00,0.4882
1060.00,0.4886
1059.00,0.4889
1058.00,0.4888
1057.00,0.4883
1056.00,0.4872
1055.00,0.4861
1054.00,0.4852
1053.00,0.4846
1052.00,0.4847
1051.00,0.4855
1050.00,0.4871
1049.00,0.4890
1048.00,0.4907
1047.00,0.4923
1046.00,0.4934
1045.00,0.4940
1044.00,0.4942
1043.00,0.4940
1042.00,0.4935
1041.00,0.4928
1040.00,0.4923
1039.00,0.4919
1038.00,0.4916
1037.00,0.4911
1036.00,0.4908
1035.00,0.4910
1034.00,0.4920
1033.00,0.4940
1032.00,0.4965
1031.00,0.4991
1030.00,0.5014
1029.00,0.5026
1028.00,0.5027
1027.00,0.5012
1026.00,0.4979
1025.00,0.4931
1024.00,0.4872
1023.00,0.4809
1022.00,0.4750
1021.00,0.4695
1020.00,0.4645
1019.00,0.4603
1018.00,0.4568
1017.00,0.4538
1016.00,0.4513
1015.00,0.4491
1014.00,0.4472
1013.00,0.4454
1012.00,0.4439
1011.00,0.4431
1010.00,0.4427
1009.00,0.4427
1008.00,0.4430
1007.00,0.4437
1006.00,0.4450
1005.00,0.4465
1004.00,0.4483
1003.00,0.4502
1002.00,0.4523
1001.00,0.4544
1000.00,0.4562
999.00,0.4575
998.00,0.4580
997.00,0.4576
996.00,0.4562
995.00,0.4542
994.00,0.4516
993.00,0.4485
992.00,0.4452
991.00,0.4418
990.00,0.4385
989.00,0.4356
988.00,0.4332
987.00,0.4318
986.00,0.4313
985.00,0.4316
984.00,0.4327
983.00,0.4343
982.00,0.4365
981.00,0.4389
980.00,0.4414
979.00,0.4439
978.00,0.4463
977.00,0.4484
976.00,0.4502
975.00,0.4516
974.00,0.4524
973.00,0.4527
972.00,0.4528
971.00,0.4527
970.00,0.4526
969.00,0.4524
968.00,0.4522
967.00,0.4520
966.00,0.4518
965.00,0.4513
964.00,0.4504
963.00,0.4493
962.00,0.4480
961.00,0.4465
960.00,0.4452
959.00,0.4443
958.00,0.4437
957.00,0.4434
956.00,0.4431
955.00,0.4429
954.00,0.4425
953.00,0.4419
952.00,0.4410
951.00,0.4400
950.00,0.4393
949.00,0.4388
948.00,0.4386
947.00,0.4389
946.00,0.4397
945.00,0.4408
944.00,0.4423
943.00,0.4440
942.00,0.4458
941.00,0.4473
940.00,0.4485
939.00,0.4492
938.00,0.4494
937.00,0.4489
936.00,0.4478
935.00,0.4463
934.00,0.4445
933.00,0.4424
932.00,0.4401
931.00,0.4378
930.00,0.4357
929.00,0.4342
928.00,0.4336
927.00,0.4340
926.00,0.4358
925.00,0.4389
924.00,0.4433
923.00,0.4487
922.00,0.4541
921.00,0.4578
920.00,0.4585
919.00,0.4554
918.00,0.4492
917.00,0.4408
916.00,0.4317
915.00,0.4232
914.00,0.4158
913.00,0.4098
912.00,0.4050
911.00,0.4014
910.00,0.3987
909.00,0.3967
908.00,0.3952
907.00,0.3941
906.00,0.3935
905.00,0.3932
904.00,0.3933
903.00,0.3939
902.00,0.3950
901.00,0.3965
900.00,0.3986
899.00,0.4014
898.00,0.4050
897.00,0.4088
896.00,0.4127
895.00,0.4166
894.00,0.4205
893.00,0.4245
892.00,0.4285
891.00,0.4323
890.00,0.4355
889.00,0.4374
888.00,0.4377
887.00,0.4366
886.00,0.4345
885.00,0.4320
884.00,0.4297
883.00,0.4284
882.00,0.4284
881.00,0.4294
880.00,0.4307
879.00,0.4318
878.00,0.4322
877.00,0.4321
876.00,0.4318
875.00,0.4319
874.00,0.4324
873.00,0.4331
872.00,0.4339
871.00,0.4349
870.00,0.4362
869.00,0.4379
868.00,0.4400
867.00,0.4429
866.00,0.4467
865.00,0.4512
864.00,0.4559
863.00,0.4600
862.00,0.4622
861.00,0.4612
860.00,0.4570
859.00,0.4505
858.00,0.4431
857.00,0.4362
856.00,0.4303
855.00,0.4257
854.00,0.4223
853.00,0.4197
852.00,0.4177
851.00,0.4160
850.00,0.4145
849.00,0.4126
848.00,0.4102
847.00,0.4074
846.00,0.4046
845.00,0.4020
844.00,0.3998
843.00,0.3984
842.00,0.3979
841.00,0.3991
840.00,0.4023
839.00,0.4080
838.00,0.4153
837.00,0.4226
836.00,0.4275
835.00,0.4286
834.00,0.4258
833.00,0.4205
832.00,0.4150
831.00,0.4111
830.00,0.4095
829.00,0.4101
828.00,0.4124
827.00,0.4163
826.00,0.4213
825.00,0.4267
824.00,0.4327
823.00,0.4393
822.00,0.4465
821.00,0.4538
820.00,0.4606
819.00,0.4669
818.00,0.4722
817.00,0.4763
816.00,0.4786
815.00,0.4791
814.00,0.4776
813.00,0.4739
812.00,0.4687
811.00,0.4626
810.00,0.4564
809.00,0.4505
808.00,0.4452
807.00,0.4406
806.00,0.4363
805.00,0.4319
804.00,0.4271
803.00,0.4217
802.00,0.4159
801.00,0.4103
800.00,0.4053
799.00,0.4016
798.00,0.3990
797.00,0.3972
796.00,0.3958
795.00,0.3948
794.00,0.3944
793.00,0.3946
792.00,0.3954
791.00,0.3970
790.00,0.3992
789.00,0.4017
788.00,0.4043
787.00,0.4073
786.00,0.4108
785.00,0.4148
784.00,0.4190
783.00,0.4231
782.00,0.4270
781.00,0.4303
780.00,0.4330
779.00,0.4350
778.00,0.4369
777.00,0.4386
776.00,0.4402
775.00,0.4421
774.00,0.4443
773.00,0.4468
772.00,0.4496
771.00,0.4526
770.00,0.4560
769.00,0.4594
768.00,0.4627
767.00,0.4656
766.00,0.4679
765.00,0.4696
764.00,0.4710
763.00,0.4728
762.00,0.4755
761.00,0.4791
760.00,0.4829
759.00,0.4867
758.00,0.4899
757.00,0.4925
756.00,0.4946
755.00,0.4967
754.00,0.4994
753.00,0.5029
752.00,0.5070
751.00,0.5118
750.00,0.5170
749.00,0.5222
748.00,0.5269
747.00,0.5308
746.00,0.5344
745.00,0.5382
744.00,0.5428
743.00,0.5484
742.00,0.5547
741.00,0.5611
740.00,0.5668
739.00,0.5717
738.00,0.5762
737.00,0.5808
736.00,0.5855
735.00,0.5907
734.00,0.5967
733.00,0.6036
732.00,0.6119
731.00,0.6221
730.00,0.6351
729.00,0.6511
728.00,0.6706
727.00,0.6941
726.00,0.7218
725.00,0.7526
724.00,0.7830
723.00,0.8068
722.00,0.8163
721.00,0.8050
720.00,0.7733
719.00,0.7288
718.00,0.6814
717.00,0.6379
716.00,0.6012
715.00,0.5719
714.00,0.5488
713.00,0.5305
712.00,0.5157
711.00,0.5036
710.00,0.4938
709.00,0.4856
708.00,0.4787
707.00,0.4730
706.00,0.4680
705.00,0.4634
704.00,0.4590
703.00,0.4552
702.00,0.4527
701.00,0.4511
700.00,0.4487
699.00,0.4434
698.00,0.4335
697.00,0.4194
696.00,0.4036
695.00,0.3889
694.00,0.3768
693.00,0.3675
692.00,0.3606
691.00,0.3557
690.00,0.3521
689.00,0.3493
688.00,0.3469
687.00,0.3450
686.00,0.3437
685.00,0.3429
684.00,0.3422
683.00,0.3417
682.00,0.3413
681.00,0.3408
680.00,0.3402
679.00,0.3396
678.00,0.3394
677.00,0.3393
676.00,0.3394
675.00,0.3394
674.00,0.3393
673.00,0.3393
672.00,0.3392
671.00,0.3393
670.00,0.3396
669.00,0.3401
668.00,0.3402
667.00,0.3400
666.00,0.3404
665.00,0.3411
664.00,0.3416
663.00,0.3423
662.00,0.3434
661.00,0.3446
660.00,0.3459
659.00,0.3471
658.00,0.3482
657.00,0.3492
656.00,0.3501
655.00,0.3511
654.00,0.3520
653.00,0.3527
652.00,0.3533
651.00,0.3542
650.00,0.3555
649.00,0.3568
648.00,0.3581
647.00,0.3592
646.00,0.3604
645.00,0.3618
644.00,0.3633
643.00,0.3650
642.00,0.3666
641.00,0.3677
640.00,0.3687
639.00,0.3696
638.00,0.3704
637.00,0.3707
636.00,0.3707
635.00,0.3707
634.00,0.3710
633.00,0.3715
632.00,0.3722
631.00,0.3732
630.00,0.3745
629.00,0.3761
628.00,0.3781
627.00,0.3803
626.00,0.3827
625.00,0.3851
624.00,0.3872
623.00,0.3891
622.00,0.3908
621.00,0.3923
620.00,0.3936
619.00,0.3948
618.00,0.3958
617.00,0.3964
616.00,0.3967
615.00,0.3968
614.00,0.3968
613.00,0.3961
612.00,0.3950
611.00,0.3939
610.00,0.3932
609.00,0.3924
608.00,0.3913
607.00,0.3900
606.00,0.3887
605.00,0.3876
604.00,0.3866
603.00,0.3861
602.00,0.3862
601.00,0.3869
600.00,0.3878
599.00,0.3885
598.00,0.3890
597.00,0.3897
596.00,0.3905
595.00,0.3915
594.00,0.3927
593.00,0.3941
592.00,0.3957
591.00,0.3978
590.00,0.4000
589.00,0.4021
588.00,0.4040
587.00,0.4062
586.00,0.4084
585.00,0.4106
584.00,0.4127
583.00,0.4150
582.00,0.4179
581.00,0.4213
580.00,0.4248
579.00,0.4279
578.00,0.4304
577.00,0.4323
576.00,0.4342
575.00,0.4364
574.00,0.4389
573.00,0.4414
572.00,0.4438
571.00,0.4461
570.00,0.4485
569.00,0.4508
568.00,0.4527
567.00,0.4542
566.00,0.4557
565.00,0.4571
564.00,0.4585
563.00,0.4599
562.00,0.4613
561.00,0.4628
560.00,0.4643
559.00,0.4658
558.00,0.4670
557.00,0.4676
556.00,0.4678
555.00,0.4680
554.00,0.4684
553.00,0.4692
552.00,0.4704
551.00,0.4717
550.00,0.4729
