Created as New Dataset,
cm-1,A
4000.00,0.3126
3999.00,0.3123
3998.00,0.3120
3997.00,0.3118
3996.00,0.3115
3995.00,0.3112
3994.00,0.3109
3993.00,0.3107
3992.00,0.3103
3991.00,0.3100
3990.00,0.3097
3989.00,0.3093
3988.00,0.3088
3987.00,0.3084
3986.00,0.3081
3985.00,0.3078
3984.00,0.3074
3983.00,0.3071
3982.00,0.3067
3981.00,0.3063
3980.00,0.3059
3979.00,0.3055
3978.00,0.3051
3977.00,0.3048
3976.00,0.3046
3975.00,0.3044
3974.00,0.3042
3973.00,0.3040
3972.00,0.3038
3971.00,0.3035
3970.00,0.3032
3969.00,0.3030
3968.00,0.3027
3967.00,0.3025
3966.00,0.3023
3965.00,0.3022
3964.00,0.3021
3963.00,0.3020
3962.00,0.3018
3961.00,0.3016
3960.00,0.3014
3959.00,0.3013
3958.00,0.3013
3957.00,0.3012
3956.00,0.3010
3955.00,0.3009
3954.00,0.3008
3953.00,0.3007
3952.00,0.3006
3951.00,0.3004
3950.00,0.3003
3949.00,0.3001
3948.00,0.2999
3947.00,0.2997
3946.00,0.2995
3945.00,0.2995
3944.00,0.2994
3943.00,0.2993
3942.00,0.2992
3941.00,0.2991
3940.00,0.2989
3939.00,0.2988
3938.00,0.2986
3937.00,0.2985
3936.00,0.2983
3935.00,0.2982
3934.00,0.2983
3933.00,0.2983
3932.00,0.2984
3931.00,0.2985
3930.00,0.2985
3929.00,0.2986
3928.00,0.2986
3927.00,0.2986
3926.00,0.2985
3925.00,0.2984
3924.00,0.2983
3923.00,0.2983
3922.00,0.2984
3921.00,0.2986
3920.00,0.2987
3919.00,0.2988
3918.00,0.2988
3917.00,0.2987
3916.00,0.2986
3915.00,0.2985
3914.00,0.2984
3913.00,0.2983
3912.00,0.2981
3911.00,0.2978
3910.00,0.2975
3909.00,0.2974
3908.00,0.2974
3907.00,0.2976
3906.00,0.2978
3905.00,0.2981
3904.00,0.2983
3903.00,0.2985
3902.00,0.2989
3901.00,0.2992
3900.00,0.2994
3899.00,0.2992
3898.00,0.2988
3897.00,0.2984
3896.00,0.2980
3895.00,0.2977
3894.00,0.2975
3893.00,0.2974
3892.00,0.2973
3891.00,0.2971
3890.00,0.2970
3889.00,0.2971
3888.00,0.2973
3887.00,0.2975
3886.00,0.2974
3885.00,0.2973
3884.00,0.2973
3883.00,0.2975
3882.00,0.2977
3881.00,0.2977
3880.00,0.2974
3879.00,0.2971
3878.00,0.2968
3877.00,0.2967
3876.00,0.2967
3875.00,0.2966
3874.00,0.2964
3873.00,0.2964
3872.00,0.2965
3871.00,0.2967
3870.00,0.2967
3869.00,0.2966
3868.00,0.2964
3867.00,0.2965
3866.00,0.2965
3865.00,0.2963
3864.00,0.2960
3863.00,0.2956
3862.00,0.2953
3861.00,0.2950
3860.00,0.2948
3859.00,0.2947
3858.00,0.2947
3857.00,0.2949
3856.00,0.2952
3855.00,0.2955
3854.00,0.2958
3853.00,0.2961
3852.00,0.2964
3851.00,0.2965
3850.00,0.2964
3849.00,0.2960
3848.00,0.2954
3847.00,0.2947
3846.00,0.2942
3845.00,0.2939
3844.00,0.2938
3843.00,0.2938
3842.00,0.2938
3841.00,0.2940
3840.00,0.2943
3839.00,0.2946
3838.00,0.2948
3837.00,0.2950
3836.00,0.2950
3835.00,0.2951
3834.00,0.2950
3833.00,0.2947
3832.00,0.2943
3831.00,0.2937
3830.00,0.2931
3829.00,0.2927
3828.00,0.2924
3827.00,0.2921
3826.00,0.2919
3825.00,0.2918
3824.00,0.2920
3823.00,0.2924
3822.00,0.2927
3821.00,0.2928
3820.00,0.2928
3819.00,0.2928
3818.00,0.2930
3817.00,0.2930
3816.00,0.2926
3815.00,0.2919
3814.00,0.2914
3813.00,0.2910
3812.00,0.2907
3811.00,0.2904
3810.00,0.2900
3809.00,0.2898
3808.00,0.2896
3807.00,0.2893
3806.00,0.2891
3805.00,0.2892
3804.00,0.2895
3803.00,0.2899
3802.00,0.2900
3801.00,0.2898
3800.00,0.2896
3799.00,0.2895
3798.00,0.2894
3797.00,0.2891
3796.00,0.2885
3795.00,0.2879
3794.00,0.2873
3793.00,0.2869
3792.00,0.2865
3791.00,0.2861
3790.00,0.2857
3789.00,0.2854
3788.00,0.2851
3787.00,0.2850
3786.00,0.2849
3785.00,0.2848
3784.00,0.2847
3783.00,0.2847
3782.00,0.2847
3781.00,0.2847
3780.00,0.2846
3779.00,0.2844
3778.00,0.2842
3777.00,0.2841
3776.00,0.2840
3775.00,0.2838
3774.00,0.2836
3773.00,0.2834
3772.00,0.2833
3771.00,0.2833
3770.00,0.2833
3769.00,0.2833
3768.00,0.2834
3767.00,0.2836
3766.00,0.2836
3765.00,0.2834
3764.00,0.2830
3763.00,0.2828
3762.00,0.2826
3761.00,0.2824
3760.00,0.2822
3759.00,0.2820
3758.00,0.2819
3757.00,0.2818
3756.00,0.2818
3755.00,0.2818
3754.00,0.2819
3753.00,0.2820
3752.00,0.2820
3751.00,0.2820
3750.00,0.2823
3749.00,0.2825
3748.00,0.2828
3747.00,0.2832
3746.00,0.2836
3745.00,0.2835
3744.00,0.2828
3743.00,0.2821
3742.00,0.2817
3741.00,0.2815
3740.00,0.2813
3739.00,0.2810
3738.00,0.2807
3737.00,0.2804
3736.00,0.2804
3735.00,0.2805
3734.00,0.2808
3733.00,0.2810
3732.00,0.2808
3731.00,0.2803
3730.00,0.2798
3729.00,0.2794
3728.00,0.2790
3727.00,0.2785
3726.00,0.2780
3725.00,0.2777
3724.00,0.2775
3723.00,0.2774
3722.00,0.2773
3721.00,0.2771
3720.00,0.2768
3719.00,0.2766
3718.00,0.2763
3717.00,0.2761
3716.00,0.2759
3715.00,0.2758
3714.00,0.2758
3713.00,0.2758
3712.00,0.2759
3711.00,0.2761
3710.00,0.2763
3709.00,0.2764
3708.00,0.2763
3707.00,0.2760
3706.00,0.2757
3705.00,0.2754
3704.00,0.2752
3703.00,0.2750
3702.00,0.2749
3701.00,0.2749
3700.00,0.2748
3699.00,0.2748
3698.00,0.2747
3697.00,0.2746
3696.00,0.2745
3695.00,0.2745
3694.00,0.2746
3693.00,0.2749
3692.00,0.2752
3691.00,0.2756
3690.00,0.2759
3689.00,0.2761
3688.00,0.2762
3687.00,0.2762
3686.00,0.2760
3685.00,0.2758
3684.00,0.2753
3683.00,0.2748
3682.00,0.2744
3681.00,0.2742
3680.00,0.2741
3679.00,0.2742
3678.00,0.2744
3677.00,0.2748
3676.00,0.2751
3675.00,0.2755
3674.00,0.2759
3673.00,0.2764
3672.00,0.2767
3671.00,0.2767
3670.00,0.2764
3669.00,0.2759
3668.00,0.2754
3667.00,0.2751
3666.00,0.2748
3665.00,0.2744
3664.00,0.2740
3663.00,0.2737
3662.00,0.2735
3661.00,0.2734
3660.00,0.2735
3659.00,0.2737
3658.00,0.2740
3657.00,0.2743
3656.00,0.2745
3655.00,0.2748
3654.00,0.2753
3653.00,0.2759
3652.00,0.2764
3651.00,0.2768
3650.00,0.2771
3649.00,0.2775
3648.00,0.2780
3647.00,0.2783
3646.00,0.2782
3645.00,0.2778
3644.00,0.2773
3643.00,0.2767
3642.00,0.2761
3641.00,0.2756
3640.00,0.2753
3639.00,0.2752
3638.00,0.2752
3637.00,0.2754
3636.00,0.2756
3635.00,0.2759
3634.00,0.2761
3633.00,0.2764
3632.00,0.2769
3631.00,0.2775
3630.00,0.2782
3629.00,0.2788
3628.00,0.2793
3627.00,0.2796
3626.00,0.2799
3625.00,0.2800
3624.00,0.2800
3623.00,0.2799
3622.00,0.2799
3621.00,0.2800
3620.00,0.2801
3619.00,0.2802
3618.00,0.2803
3617.00,0.2803
3616.00,0.2804
3615.00,0.2804
3614.00,0.2803
3613.00,0.2801
3612.00,0.2800
3611.00,0.2800
3610.00,0.2799
3609.00,0.2799
3608.00,0.2798
3607.00,0.2796
3606.00,0.2793
3605.00,0.2791
3604.00,0.2787
3603.00,0.2782
3602.00,0.2777
3601.00,0.2772
3600.00,0.2768
3599.00,0.2763
3598.00,0.2759
3597.00,0.2755
3596.00,0.2751
3595.00,0.2746
3594.00,0.2741
3593.00,0.2737
3592.00,0.2734
3591.00,0.2733
3590.00,0.2733
3589.00,0.2733
3588.00,0.2733
3587.00,0.2733
3586.00,0.2732
3585.00,0.2731
3584.00,0.2729
3583.00,0.2727
3582.00,0.2723
3581.00,0.2719
3580.00,0.2716
3579.00,0.2714
3578.00,0.2713
3577.00,0.2713
3576.00,0.2713
3575.00,0.2713
3574.00,0.2714
3573.00,0.2715
3572.00,0.2716
3571.00,0.2718
3570.00,0.2721
3569.00,0.2724
3568.00,0.2728
3567.00,0.2733
3566.00,0.2738
3565.00,0.2742
3564.00,0.2744
3563.00,0.2745
3562.00,0.2745
3561.00,0.2745
3560.00,0.2745
3559.00,0.2746
3558.00,0.2747
3557.00,0.2750
3556.00,0.2753
3555.00,0.2756
3554.00,0.2760
3553.00,0.2763
3552.00,0.2766
3551.00,0.2770
3550.00,0.2774
3549.00,0.2778
3548.00,0.2782
3547.00,0.2787
3546.00,0.2791
3545.00,0.2795
3544.00,0.2799
3543.00,0.2802
3542.00,0.2804
3541.00,0.2806
3540.00,0.2807
3539.00,0.2808
3538.00,0.2810
3537.00,0.2812
3536.00,0.2815
3535.00,0.2818
3534.00,0.2821
3533.00,0.2824
3532.00,0.2827
3531.00,0.2829
3530.00,0.2831
3529.00,0.2834
3528.00,0.2837
3527.00,0.2840
3526.00,0.2843
3525.00,0.2847
3524.00,0.2851
3523.00,0.2855
3522.00,0.2858
3521.00,0.2861
3520.00,0.2864
3519.00,0.2868
3518.00,0.2871
3517.00,0.2875
3516.00,0.2879
3515.00,0.2883
3514.00,0.2886
3513.00,0.2890
3512.00,0.2894
3511.00,0.2898
3510.00,0.2902
3509.00,0.2906
3508.00,0.2910
3507.00,0.2915
3506.00,0.2920
3505.00,0.2924
3504.00,0.2928
3503.00,0.2932
3502.00,0.2936
3501.00,0.2940
3500.00,0.2945
3499.00,0.2950
3498.00,0.2954
3497.00,0.2958
3496.00,0.2964
3495.00,0.2970
3494.00,0.2977
3493.00,0.2984
3492.00,0.2990
3491.00,0.2996
3490.00,0.3003
3489.00,0.3010
3488.00,0.3017
3487.00,0.3024
3486.00,0.3031
3485.00,0.3038
3484.00,0.3044
3483.00,0.3049
3482.00,0.3054
3481.00,0.3060
3480.00,0.3065
3479.00,0.3070
3478.00,0.3074
3477.00,0.3077
3476.00,0.3081
3475.00,0.3084
3474.00,0.3088
3473.00,0.3092
3472.00,0.3096
3471.00,0.3101
3470.00,0.3105
3469.00,0.3110
3468.00,0.3115
3467.00,0.3119
3466.00,0.3124
3465.00,0.3128
3464.00,0.3132
3463.00,0.3138
3462.00,0.3143
3461.00,0.3149
3460.00,0.3154
3459.00,0.3159
3458.00,0.3164
3457.00,0.3170
3456.00,0.3175
3455.00,0.3181
3454.00,0.3187
3453.00,0.3193
3452.00,0.3200
3451.00,0.3206
3450.00,0.3213
3449.00,0.3220
3448.00,0.3227
3447.00,0.3234
3446.00,0.3240
3445.00,0.3247
3444.00,0.3254
3443.00,0.3260
3442.00,0.3266
3441.00,0.3272
3440.00,0.3279
3439.00,0.3285
3438.00,0.3292
3437.00,0.3298
3436.00,0.3304
3435.00,0.3310
3434.00,0.3316
3433.00,0.3322
3432.00,0.3329
3431.00,0.3336
3430.00,0.3342
3429.00,0.3348
3428.00,0.3354
3427.00,0.3360
3426.00,0.3366
3425.00,0.3373
3424.00,0.3380
3423.00,0.3388
3422.00,0.3396
3421.00,0.3404
3420.00,0.3412
3419.00,0.3420
3418.00,0.3428
3417.00,0.3435
3416.00,0.3443
3415.00,0.3451
3414.00,0.3459
3413.00,0.3468
3412.00,0.3477
3411.00,0.3486
3410.00,0.3495
3409.00,0.3503
3408.00,0.3511
3407.00,0.3520
3406.00,0.3528
3405.00,0.3537
3404.00,0.3546
3403.00,0.3555
3402.00,0.3563
3401.00,0.3572
3400.00,0.3582
3399.00,0.3591
3398.00,0.3601
3397.00,0.3610
3396.00,0.3619
3395.00,0.3628
3394.00,0.3637
3393.00,0.3647
3392.00,0.3656
3391.00,0.3666
3390.00,0.3675
3389.00,0.3685
3388.00,0.3694
3387.00,0.3704
3386.00,0.3714
3385.00,0.3724
3384.00,0.3735
3383.00,0.3746
3382.00,0.3757
3381.00,0.3768
3380.00,0.3779
3379.00,0.3790
3378.00,0.3801
3377.00,0.3812
3376.00,0.3823
3375.00,0.3834
3374.00,0.3846
3373.00,0.3858
3372.00,0.3870
3371.00,0.3882
3370.00,0.3894
3369.00,0.3907
3368.00,0.3920
3367.00,0.3934
3366.00,0.3947
3365.00,0.3960
3364.00,0.3973
3363.00,0.3987
3362.00,0.4000
3361.00,0.4015
3360.00,0.4029
3359.00,0.4043
3358.00,0.4057
3357.00,0.4071
3356.00,0.4085
3355.00,0.4100
3354.00,0.4116
3353.00,0.4132
3352.00,0.4148
3351.00,0.4163
3350.00,0.4177
3349.00,0.4191
3348.00,0.4205
3347.00,0.4219
3346.00,0.4233
3345.00,0.4247
3344.00,0.4261
3343.00,0.4274
3342.00,0.4286
3341.00,0.4298
3340.00,0.4310
3339.00,0.4321
3338.00,0.4331
3337.00,0.4341
3336.00,0.4350
3335.00,0.4359
3334.00,0.4366
3333.00,0.4374
3332.00,0.4380
3331.00,0.4386
3330.00,0.4390
3329.00,0.4394
3328.00,0.4397
3327.00,0.4400
3326.00,0.4402
3325.00,0.4403
3324.00,0.4403
3323.00,0.4402
3322.00,0.4399
3321.00,0.4397
3320.00,0.4393
3319.00,0.4390
3318.00,0.4385
3317.00,0.4381
3316.00,0.4376
3315.00,0.4371
3314.00,0.4364
3313.00,0.4358
3312.00,0.4351
3311.00,0.4344
3310.00,0.4338
3309.00,0.4332
3308.00,0.4325
3307.00,0.4318
3306.00,0.4310
3305.00,0.4302
3304.00,0.4293
3303.00,0.4284
3302.00,0.4276
3301.00,0.4268
3300.00,0.4262
3299.00,0.4256
3298.00,0.4249
3297.00,0.4243
3296.00,0.4238
3295.00,0.4232
3294.00,0.4227
3293.00,0.4222
3292.00,0.4217
3291.00,0.4212
3290.00,0.4208
3289.00,0.4204
3288.00,0.4201
3287.00,0.4198
3286.00,0.4196
3285.00,0.4195
3284.00,0.4194
3283.00,0.4194
3282.00,0.4194
3281.00,0.4195
3280.00,0.4196
3279.00,0.4198
3278.00,0.4199
3277.00,0.4201
3276.00,0.4203
3275.00,0.4205
3274.00,0.4208
3273.00,0.4212
3272.00,0.4216
3271.00,0.4219
3270.00,0.4223
3269.00,0.4227
3268.00,0.4231
3267.00,0.4235
3266.00,0.4239
3265.00,0.4243
3264.00,0.4247
3263.00,0.4251
3262.00,0.4256
3261.00,0.4260
3260.00,0.4265
3259.00,0.4270
3258.00,0.4276
3257.00,0.4281
3256.00,0.4286
3255.00,0.4290
3254.00,0.4295
3253.00,0.4301
3252.00,0.4306
3251.00,0.4312
3250.00,0.4317
3249.00,0.4322
3248.00,0.4327
3247.00,0.4331
3246.00,0.4336
3245.00,0.4341
3244.00,0.4345
3243.00,0.4349
3242.00,0.4353
3241.00,0.4356
3240.00,0.4359
3239.00,0.4362
3238.00,0.4365
3237.00,0.4367
3236.00,0.4369
3235.00,0.4371
3234.00,0.4373
3233.00,0.4375
3232.00,0.4376
3231.00,0.4376
3230.00,0.4376
3229.00,0.4375
3228.00,0.4375
3227.00,0.4375
3226.00,0.4374
3225.00,0.4374
3224.00,0.4374
3223.00,0.4373
3222.00,0.4372
3221.00,0.4371
3220.00,0.4369
3219.00,0.4368
3218.00,0.4366
3217.00,0.4366
3216.00,0.4365
3215.00,0.4364
3214.00,0.4363
3213.00,0.4362
3212.00,0.4362
3211.00,0.4361
3210.00,0.4360
3209.00,0.4359
3208.00,0.4357
3207.00,0.4356
3206.00,0.4354
3205.00,0.4353
3204.00,0.4351
3203.00,0.4349
3202.00,0.4348
3201.00,0.4346
3200.00,0.4343
3199.00,0.4340
3198.00,0.4337
3197.00,0.4334
3196.00,0.4331
3195.00,0.4328
3194.00,0.4326
3193.00,0.4323
3192.00,0.4319
3191.00,0.4315
3190.00,0.4311
3189.00,0.4307
3188.00,0.4302
3187.00,0.4297
3186.00,0.4292
3185.00,0.4288
3184.00,0.4283
3183.00,0.4279
3182.00,0.4274
3181.00,0.4268
3180.00,0.4263
3179.00,0.4257
3178.00,0.4250
3177.00,0.4245
3176.00,0.4239
3175.00,0.4234
3174.00,0.4229
3173.00,0.4224
3172.00,0.4217
3171.00,0.4211
3170.00,0.4204
3169.00,0.4198
3168.00,0.4192
3167.00,0.4186
3166.00,0.4179
3165.00,0.4172
3164.00,0.4165
3163.00,0.4157
3162.00,0.4149
3161.00,0.4142
3160.00,0.4134
3159.00,0.4126
3158.00,0.4118
3157.00,0.4111
3156.00,0.4103
3155.00,0.4096
3154.00,0.4089
3153.00,0.4082
3152.00,0.4075
3151.00,0.4067
3150.00,0.4060
3149.00,0.4054
3148.00,0.4048
3147.00,0.4042
3146.00,0.4036
3145.00,0.4030
3144.00,0.4025
3143.00,0.4020
3142.00,0.4016
3141.00,0.4012
3140.00,0.4008
3139.00,0.4003
3138.00,0.3999
3137.00,0.3996
3136.00,0.3993
3135.00,0.3991
3134.00,0.3989
3133.00,0.3987
3132.00,0.3985
3131.00,0.3983
3130.00,0.3982
3129.00,0.3981
3128.00,0.3980
3127.00,0.3979
3126.00,0.3979
3125.00,0.3979
3124.00,0.3979
3123.00,0.3980
3122.00,0.3981
3121.00,0.3983
3120.00,0.3986
3119.00,0.3989
3118.00,0.3992
3117.00,0.3995
3116.00,0.3998
3115.00,0.4001
3114.00,0.4004
3113.00,0.4009
3112.00,0.4014
3111.00,0.4021
3110.00,0.4028
3109.00,0.4037
3108.00,0.4045
3107.00,0.4055
3106.00,0.4064
3105.00,0.4073
3104.00,0.4082
3103.00,0.4091
3102.00,0.4099
3101.00,0.4108
3100.00,0.4117
3099.00,0.4126
3098.00,0.4135
3097.00,0.4146
3096.00,0.4158
3095.00,0.4172
3094.00,0.4188
3093.00,0.4205
3092.00,0.4224
3091.00,0.4243
3090.00,0.4265
3089.00,0.4288
3088.00,0.4313
3087.00,0.4338
3086.00,0.4363
3085.00,0.4390
3084.00,0.4419
3083.00,0.4448
3082.00,0.4479
3081.00,0.4512
3080.00,0.4547
3079.00,0.4583
3078.00,0.4622
3077.00,0.4663
3076.00,0.4705
3075.00,0.4749
3074.00,0.4792
3073.00,0.4836
3072.00,0.4880
3071.00,0.4923
3070.00,0.4966
3069.00,0.5009
3068.00,0.5053
3067.00,0.5096
3066.00,0.5139
3065.00,0.5181
3064.00,0.5219
3063.00,0.5254
3062.00,0.5286
3061.00,0.5315
3060.00,0.5342
3059.00,0.5368
3058.00,0.5394
3057.00,0.5421
3056.00,0.5449
3055.00,0.5479
3054.00,0.5511
3053.00,0.5545
3052.00,0.5581
3051.00,0.5618
3050.00,0.5658
3049.00,0.5701
3048.00,0.5745
3047.00,0.5790
3046.00,0.5837
3045.00,0.5884
3044.00,0.5931
3043.00,0.5978
3042.00,0.6024
3041.00,0.6070
3040.00,0.6116
3039.00,0.6162
3038.00,0.6210
3037.00,0.6260
3036.00,0.6313
3035.00,0.6370
3034.00,0.6432
3033.00,0.6499
3032.00,0.6571
3031.00,0.6648
3030.00,0.6728
3029.00,0.6812
3028.00,0.6900
3027.00,0.6992
3026.00,0.7088
3025.00,0.7186
3024.00,0.7286
3023.00,0.7389
3022.00,0.7495
3021.00,0.7605
3020.00,0.7720
3019.00,0.7838
3018.00,0.7957
3017.00,0.8076
3016.00,0.8196
3015.00,0.8315
3014.00,0.8436
3013.00,0.8559
3012.00,0.8686
3011.00,0.8817
3010.00,0.8953
3009.00,0.9094
3008.00,0.9242
3007.00,0.9398
3006.00,0.9561
3005.00,0.9730
3004.00,0.9903
3003.00,1.0079
3002.00,1.0260
3001.00,1.0447
3000.00,1.0644
2999.00,1.0854
2998.00,1.1080
2997.00,1.1323
2996.00,1.1589
2995.00,1.1885
2994.00,1.2215
2993.00,1.2580
2992.00,1.2983
2991.00,1.3435
2990.00,1.3944
2989.00,1.4516
2988.00,1.5152
2987.00,1.5854
2986.00,1.6630
2985.00,1.7492
2984.00,1.8450
2983.00,1.9519
2982.00,2.0707
2981.00,2.2002
2980.00,2.3370
2979.00,2.4785
2978.00,2.6267
2977.00,2.7858
2976.00,2.9569
2975.00,3.1311
2974.00,3.2828
2973.00,3.3815
2972.00,3.4334
2971.00,3.4798
2970.00,3.5399
2969.00,3.5892
2968.00,3.6073
2967.00,3.6174
2966.00,3.6300
2965.00,3.6426
2964.00,3.6792
2963.00,3.7621
2962.00,3.8371
2961.00,3.8109
2960.00,3.7291
2959.00,3.6909
2958.00,3.7179
2957.00,3.7738
2956.00,3.8300
2955.00,3.8632
2954.00,3.8431
2953.00,3.7718
2952.00,3.7046
2951.00,3.6937
2950.00,3.7318
2949.00,3.7908
2948.00,3.8826
2947.00,4.0651
2946.00,4.3048
2945.00,4.2743
2944.00,4.0429
2943.00,3.9171
2942.00,3.9085
2941.00,3.9218
2940.00,3.9185
2939.00,3.9045
2938.00,3.8813
2937.00,3.8447
2936.00,3.9002
2935.00,4.1889
2934.00,4.3707
2933.00,3.9497
2932.00,3.6473
2931.00,3.5338
2930.00,3.5541
2929.00,3.6544
2928.00,3.8785
2927.00,4.1827
2926.00,4.0742
2925.00,3.8615
2924.00,3.7743
2923.00,3.8705
2922.00,4.0411
2921.00,4.1490
2920.00,4.2138
2919.00,4.1919
2918.00,4.0919
2917.00,3.9663
2916.00,3.9130
2915.00,3.9311
2914.00,3.9531
2913.00,3.9713
2912.00,4.0458
2911.00,4.2473
2910.00,4.4782
2909.00,4.3418
2908.00,4.0476
2907.00,3.8785
2906.00,3.8281
2905.00,3.8122
2904.00,3.7952
2903.00,3.8019
2902.00,3.8429
2901.00,3.8813
2900.00,3.9256
2899.00,4.0422
2898.00,4.0561
2897.00,3.8546
2896.00,3.6789
2895.00,3.6296
2894.00,3.6978
2893.00,3.8740
2892.00,4.1935
2891.00,4.6276
2890.00,4.5900
2889.00,4.0959
2888.00,3.8518
2887.00,3.7361
2886.00,3.6962
2885.00,3.6649
2884.00,3.6432
2883.00,3.6749
2882.00,3.7355
2881.00,3.7864
2880.00,3.8245
2879.00,3.8560
2878.00,3.8219
2877.00,3.7324
2876.00,3.6627
2875.00,3.6568
2874.00,3.6922
2873.00,3.7333
2872.00,3.7765
2871.00,3.7882
2870.00,3.7139
2869.00,3.5916
2868.00,3.5113
2867.00,3.5094
2866.00,3.5707
2865.00,3.6470
2864.00,3.6955
2863.00,3.7071
2862.00,3.6757
2861.00,3.6079
2860.00,3.5422
2859.00,3.5080
2858.00,3.5018
2857.00,3.5055
2856.00,3.5182
2855.00,3.5619
2854.00,3.6544
2853.00,3.7654
2852.00,3.8224
2851.00,3.8445
2850.00,3.9094
2849.00,4.0115
2848.00,4.0114
2847.00,3.8875
2846.00,3.7594
2845.00,3.6922
2844.00,3.7156
2843.00,3.8323
2842.00,3.9387
2841.00,3.8407
2840.00,3.6387
2839.00,3.4560
2838.00,3.2762
2837.00,3.0741
2836.00,2.8687
2835.00,2.6771
2834.00,2.4991
2833.00,2.3331
2832.00,2.1819
2831.00,2.0481
2830.00,1.9305
2829.00,1.8261
2828.00,1.7327
2827.00,1.6490
2826.00,1.5737
2825.00,1.5053
2824.00,1.4427
2823.00,1.3854
2822.00,1.3327
2821.00,1.2844
2820.00,1.2398
2819.00,1.1988
2818.00,1.1607
2817.00,1.1252
2816.00,1.0922
2815.00,1.0615
2814.00,1.0330
2813.00,1.0062
2812.00,0.9808
2811.00,0.9569
2810.00,0.9343
2809.00,0.9129
2808.00,0.8925
2807.00,0.8730
2806.00,0.8544
2805.00,0.8367
2804.00,0.8199
2803.00,0.8039
2802.00,0.7888
2801.00,0.7745
2800.00,0.7610
2799.00,0.7480
2798.00,0.7356
2797.00,0.7236
2796.00,0.7120
2795.00,0.7007
2794.00,0.6899
2793.00,0.6794
2792.00,0.6693
2791.00,0.6595
2790.00,0.6500
2789.00,0.6406
2788.00,0.6313
2787.00,0.6222
2786.00,0.6133
2785.00,0.6047
2784.00,0.5963
2783.00,0.5882
2782.00,0.5804
2781.00,0.5729
2780.00,0.5657
2779.00,0.5588
2778.00,0.5521
2777.00,0.5458
2776.00,0.5398
2775.00,0.5342
2774.00,0.5289
2773.00,0.5239
2772.00,0.5193
2771.00,0.5150
2770.00,0.5110
2769.00,0.5074
2768.00,0.5042
2767.00,0.5013
2766.00,0.4987
2765.00,0.4964
2764.00,0.4944
2763.00,0.4926
2762.00,0.4911
2761.00,0.4899
2760.00,0.4887
2759.00,0.4875
2758.00,0.4863
2757.00,0.4852
2756.00,0.4841
2755.00,0.4831
2754.00,0.4823
2753.00,0.4816
2752.00,0.4811
2751.00,0.4808
2750.00,0.4807
2749.00,0.4807
2748.00,0.4810
2747.00,0.4815
2746.00,0.4822
2745.00,0.4832
2744.00,0.4844
2743.00,0.4859
2742.00,0.4878
2741.00,0.4901
2740.00,0.4929
2739.00,0.4961
2738.00,0.4998
2737.00,0.5041
2736.00,0.5087
2735.00,0.5138
2734.00,0.5190
2733.00,0.5242
2732.00,0.5289
2731.00,0.5329
2730.00,0.5360
2729.00,0.5380
2728.00,0.5389
2727.00,0.5389
2726.00,0.5381
2725.00,0.5367
2724.00,0.5348
2723.00,0.5326
2722.00,0.5301
2721.00,0.5271
2720.00,0.5238
2719.00,0.5202
2718.00,0.5164
2717.00,0.5123
2716.00,0.5079
2715.00,0.5035
2714.00,0.4990
2713.00,0.4947
2712.00,0.4905
2711.00,0.4866
2710.00,0.4831
2709.00,0.4801
2708.00,0.4775
2707.00,0.4753
2706.00,0.4735
2705.00,0.4721
2704.00,0.4710
2703.00,0.4701
2702.00,0.4695
2701.00,0.4692
2700.00,0.4690
2699.00,0.4691
2698.00,0.4694
2697.00,0.4698
2696.00,0.4703
2695.00,0.4709
2694.00,0.4716
2693.00,0.4724
2692.00,0.4734
2691.00,0.4745
2690.00,0.4755
2689.00,0.4764
2688.00,0.4772
2687.00,0.4779
2686.00,0.4785
2685.00,0.4791
2684.00,0.4796
2683.00,0.4801
2682.00,0.4805
2681.00,0.4807
2680.00,0.4810
2679.00,0.4812
2678.00,0.4815
2677.00,0.4819
2676.00,0.4824
2675.00,0.4828
2674.00,0.4832
2673.00,0.4835
2672.00,0.4837
2671.00,0.4836
2670.00,0.4833
2669.00,0.4829
2668.00,0.4821
2667.00,0.4812
2666.00,0.4799
2665.00,0.4784
2664.00,0.4768
2663.00,0.4751
2662.00,0.4733
2661.00,0.4714
2660.00,0.4694
2659.00,0.4673
2658.00,0.4653
2657.00,0.4632
2656.00,0.4612
2655.00,0.4593
2654.00,0.4574
2653.00,0.4556
2652.00,0.4539
2651.00,0.4523
2650.00,0.4507
2649.00,0.4492
2648.00,0.4478
2647.00,0.4464
2646.00,0.4450
2645.00,0.4437
2644.00,0.4425
2643.00,0.4414
2642.00,0.4404
2641.00,0.4394
2640.00,0.4384
2639.00,0.4374
2638.00,0.4365
2637.00,0.4355
2636.00,0.4347
2635.00,0.4338
2634.00,0.4330
2633.00,0.4323
2632.00,0.4315
2631.00,0.4308
2630.00,0.4300
2629.00,0.4292
2628.00,0.4284
2627.00,0.4275
2626.00,0.4267
2625.00,0.4259
2624.00,0.4252
2623.00,0.4244
2622.00,0.4235
2621.00,0.4226
2620.00,0.4217
2619.00,0.4208
2618.00,0.4199
2617.00,0.4191
2616.00,0.4182
2615.00,0.4173
2614.00,0.4163
2613.00,0.4153
2612.00,0.4143
2611.00,0.4133
2610.00,0.4123
2609.00,0.4112
2608.00,0.4102
2607.00,0.4092
2606.00,0.4082
2605.00,0.4072
2604.00,0.4061
2603.00,0.4050
2602.00,0.4039
2601.00,0.4027
2600.00,0.4015
2599.00,0.4003
2598.00,0.3992
2597.00,0.3980
2596.00,0.3966
2595.00,0.3953
2594.00,0.3938
2593.00,0.3924
2592.00,0.3910
2591.00,0.3895
2590.00,0.3880
2589.00,0.3865
2588.00,0.3850
2587.00,0.3834
2586.00,0.3818
2585.00,0.3802
2584.00,0.3785
2583.00,0.3769
2582.00,0.3751
2581.00,0.3733
2580.00,0.3715
2579.00,0.3698
2578.00,0.3680
2577.00,0.3663
2576.00,0.3646
2575.00,0.3629
2574.00,0.3612
2573.00,0.3596
2572.00,0.3580
2571.00,0.3564
2570.00,0.3550
2569.00,0.3535
2568.00,0.3521
2567.00,0.3507
2566.00,0.3492
2565.00,0.3478
2564.00,0.3464
2563.00,0.3450
2562.00,0.3436
2561.00,0.3424
2560.00,0.3413
2559.00,0.3402
2558.00,0.3392
2557.00,0.3381
2556.00,0.3370
2555.00,0.3360
2554.00,0.3349
2553.00,0.3339
2552.00,0.3329
2551.00,0.3319
2550.00,0.3310
2549.00,0.3301
2548.00,0.3291
2547.00,0.3281
2546.00,0.3271
2545.00,0.3262
2544.00,0.3254
2543.00,0.3245
2542.00,0.3237
2541.00,0.3229
2540.00,0.3221
2539.00,0.3213
2538.00,0.3205
2537.00,0.3198
2536.00,0.3190
2535.00,0.3182
2534.00,0.3175
2533.00,0.3168
2532.00,0.3160
2531.00,0.3153
2530.00,0.3144
2529.00,0.3136
2528.00,0.3128
2527.00,0.3120
2526.00,0.3112
2525.00,0.3103
2524.00,0.3095
2523.00,0.3086
2522.00,0.3077
2521.00,0.3068
2520.00,0.3060
2519.00,0.3051
2518.00,0.3043
2517.00,0.3036
2516.00,0.3028
2515.00,0.3021
2514.00,0.3014
2513.00,0.3006
2512.00,0.2999
2511.00,0.2992
2510.00,0.2985
2509.00,0.2978
2508.00,0.2971
2507.00,0.2964
2506.00,0.2957
2505.00,0.2951
2504.00,0.2945
2503.00,0.2939
2502.00,0.2933
2501.00,0.2928
2500.00,0.2923
2499.00,0.2917
2498.00,0.2912
2497.00,0.2907
2496.00,0.2902
2495.00,0.2897
2494.00,0.2893
2493.00,0.2889
2492.00,0.2885
2491.00,0.2881
2490.00,0.2878
2489.00,0.2875
2488.00,0.2872
2487.00,0.2869
2486.00,0.2866
2485.00,0.2863
2484.00,0.2861
2483.00,0.2858
2482.00,0.2854
2481.00,0.2851
2480.00,0.2848
2479.00,0.2845
2478.00,0.2842
2477.00,0.2840
2476.00,0.2838
2475.00,0.2835
2474.00,0.2832
2473.00,0.2828
2472.00,0.2824
2471.00,0.2821
2470.00,0.2818
2469.00,0.2815
2468.00,0.2812
2467.00,0.2809
2466.00,0.2806
2465.00,0.2803
2464.00,0.2800
2463.00,0.2796
2462.00,0.2792
2461.00,0.2789
2460.00,0.2786
2459.00,0.2784
2458.00,0.2781
2457.00,0.2779
2456.00,0.2777
2455.00,0.2776
2454.00,0.2775
2453.00,0.2774
2452.00,0.2774
2451.00,0.2773
2450.00,0.2772
2449.00,0.2772
2448.00,0.2773
2447.00,0.2772
2446.00,0.2772
2445.00,0.2772
2444.00,0.2772
2443.00,0.2773
2442.00,0.2773
2441.00,0.2774
2440.00,0.2775
2439.00,0.2775
2438.00,0.2775
2437.00,0.2775
2436.00,0.2775
2435.00,0.2775
2434.00,0.2775
2433.00,0.2775
2432.00,0.2775
2431.00,0.2775
2430.00,0.2775
2429.00,0.2775
2428.00,0.2776
2427.00,0.2776
2426.00,0.2776
2425.00,0.2776
2424.00,0.2776
2423.00,0.2776
2422.00,0.2775
2421.00,0.2775
2420.00,0.2776
2419.00,0.2777
2418.00,0.2777
2417.00,0.2778
2416.00,0.2779
2415.00,0.2779
2414.00,0.2780
2413.00,0.2780
2412.00,0.2781
2411.00,0.2781
2410.00,0.2781
2409.00,0.2782
2408.00,0.2782
2407.00,0.2781
2406.00,0.2781
2405.00,0.2781
2404.00,0.2780
2403.00,0.2779
2402.00,0.2779
2401.00,0.2778
2400.00,0.2777
2399.00,0.2776
2398.00,0.2774
2397.00,0.2771
2396.00,0.2769
2395.00,0.2767
2394.00,0.2765
2393.00,0.2763
2392.00,0.2761
2391.00,0.2759
2390.00,0.2758
2389.00,0.2757
2388.00,0.2756
2387.00,0.2754
2386.00,0.2752
2385.00,0.2751
2384.00,0.2749
2383.00,0.2747
2382.00,0.2746
2381.00,0.2745
2380.00,0.2744
2379.00,0.2743
2378.00,0.2742
2377.00,0.2742
2376.00,0.2743
2375.00,0.2743
2374.00,0.2744
2373.00,0.2744
2372.00,0.2744
2371.00,0.2743
2370.00,0.2742
2369.00,0.2740
2368.00,0.2739
2367.00,0.2736
2366.00,0.2733
2365.00,0.2731
2364.00,0.2729
2363.00,0.2728
2362.00,0.2728
2361.00,0.2728
2360.00,0.2730
2359.00,0.2731
2358.00,0.2732
2357.00,0.2734
2356.00,0.2736
2355.00,0.2739
2354.00,0.2741
2353.00,0.2743
2352.00,0.2745
2351.00,0.2743
2350.00,0.2740
2349.00,0.2734
2348.00,0.2726
2347.00,0.2719
2346.00,0.2715
2345.00,0.2714
2344.00,0.2717
2343.00,0.2719
2342.00,0.2720
2341.00,0.2721
2340.00,0.2720
2339.00,0.2719
2338.00,0.2717
2337.00,0.2715
2336.00,0.2714
2335.00,0.2713
2334.00,0.2711
2333.00,0.2710
2332.00,0.2709
2331.00,0.2707
2330.00,0.2706
2329.00,0.2704
2328.00,0.2703
2327.00,0.2703
2326.00,0.2702
2325.00,0.2701
2324.00,0.2700
2323.00,0.2698
2322.00,0.2698
2321.00,0.2697
2320.00,0.2697
2319.00,0.2697
2318.00,0.2695
2317.00,0.2693
2316.00,0.2690
2315.00,0.2686
2314.00,0.2683
2313.00,0.2680
2312.00,0.2677
2311.00,0.2673
2310.00,0.2670
2309.00,0.2666
2308.00,0.2662
2307.00,0.2658
2306.00,0.2655
2305.00,0.2652
2304.00,0.2649
2303.00,0.2646
2302.00,0.2642
2301.00,0.2639
2300.00,0.2635
2299.00,0.2632
2298.00,0.2628
2297.00,0.2625
2296.00,0.2622
2295.00,0.2619
2294.00,0.2616
2293.00,0.2614
2292.00,0.2611
2291.00,0.2608
2290.00,0.2605
2289.00,0.2602
2288.00,0.2600
2287.00,0.2598
2286.00,0.2596
2285.00,0.2594
2284.00,0.2592
2283.00,0.2590
2282.00,0.2587
2281.00,0.2584
2280.00,0.2581
2279.00,0.2579
2278.00,0.2576
2277.00,0.2574
2276.00,0.2571
2275.00,0.2569
2274.00,0.2566
2273.00,0.2563
2272.00,0.2561
2271.00,0.2559
2270.00,0.2557
2269.00,0.2556
2268.00,0.2554
2267.00,0.2552
2266.00,0.2549
2265.00,0.2546
2264.00,0.2544
2263.00,0.2541
2262.00,0.2538
2261.00,0.2535
2260.00,0.2532
2259.00,0.2529
2258.00,0.2526
2257.00,0.2524
2256.00,0.2522
2255.00,0.2519
2254.00,0.2517
2253.00,0.2515
2252.00,0.2513
2251.00,0.2512
2250.00,0.2510
2249.00,0.2508
2248.00,0.2507
2247.00,0.2505
2246.00,0.2504
2245.00,0.2503
2244.00,0.2502
2243.00,0.2501
2242.00,0.2499
2241.00,0.2497
2240.00,0.2496
2239.00,0.2494
2238.00,0.2493
2237.00,0.2492
2236.00,0.2491
2235.00,0.2490
2234.00,0.2489
2233.00,0.2488
2232.00,0.2487
2231.00,0.2485
2230.00,0.2483
2229.00,0.2482
2228.00,0.2480
2227.00,0.2478
2226.00,0.2476
2225.00,0.2474
2224.00,0.2473
2223.00,0.2472
2222.00,0.2470
2221.00,0.2469
2220.00,0.2468
2219.00,0.2467
2218.00,0.2466
2217.00,0.2465
2216.00,0.2464
2215.00,0.2464
2214.00,0.2463
2213.00,0.2463
2212.00,0.2462
2211.00,0.2462
2210.00,0.2462
2209.00,0.2462
2208.00,0.2463
2207.00,0.2463
2206.00,0.2464
2205.00,0.2464
2204.00,0.2465
2203.00,0.2465
2202.00,0.2465
2201.00,0.2466
2200.00,0.2466
2199.00,0.2466
2198.00,0.2467
2197.00,0.2466
2196.00,0.2466
2195.00,0.2466
2194.00,0.2466
2193.00,0.2466
2192.00,0.2466
2191.00,0.2465
2190.00,0.2465
2189.00,0.2465
2188.00,0.2464
2187.00,0.2463
2186.00,0.2461
2185.00,0.2460
2184.00,0.2459
2183.00,0.2457
2182.00,0.2455
2181.00,0.2454
2180.00,0.2453
2179.00,0.2451
2178.00,0.2450
2177.00,0.2449
2176.00,0.2449
2175.00,0.2448
2174.00,0.2448
2173.00,0.2448
2172.00,0.2447
2171.00,0.2446
2170.00,0.2445
2169.00,0.2444
2168.00,0.2444
2167.00,0.2443
2166.00,0.2443
2165.00,0.2442
2164.00,0.2441
2163.00,0.2440
2162.00,0.2439
2161.00,0.2438
2160.00,0.2437
2159.00,0.2435
2158.00,0.2433
2157.00,0.2432
2156.00,0.2430
2155.00,0.2429
2154.00,0.2427
2153.00,0.2424
2152.00,0.2421
2151.00,0.2418
2150.00,0.2415
2149.00,0.2412
2148.00,0.2410
2147.00,0.2406
2146.00,0.2402
2145.00,0.2398
2144.00,0.2394
2143.00,0.2389
2142.00,0.2385
2141.00,0.2381
2140.00,0.2377
2139.00,0.2374
2138.00,0.2371
2137.00,0.2368
2136.00,0.2366
2135.00,0.2365
2134.00,0.2363
2133.00,0.2361
2132.00,0.2360
2131.00,0.2358
2130.00,0.2357
2129.00,0.2357
2128.00,0.2356
2127.00,0.2355
2126.00,0.2354
2125.00,0.2353
2124.00,0.2353
2123.00,0.2352
2122.00,0.2351
2121.00,0.2351
2120.00,0.2350
2119.00,0.2348
2118.00,0.2346
2117.00,0.2345
2116.00,0.2343
2115.00,0.2342
2114.00,0.2341
2113.00,0.2340
2112.00,0.2339
2111.00,0.2337
2110.00,0.2335
2109.00,0.2333
2108.00,0.2332
2107.00,0.2330
2106.00,0.2329
2105.00,0.2328
2104.00,0.2328
2103.00,0.2328
2102.00,0.2327
2101.00,0.2326
2100.00,0.2325
2099.00,0.2325
2098.00,0.2325
2097.00,0.2325
2096.00,0.2325
2095.00,0.2325
2094.00,0.2325
2093.00,0.2325
2092.00,0.2325
2091.00,0.2325
2090.00,0.2324
2089.00,0.2325
2088.00,0.2325
2087.00,0.2326
2086.00,0.2327
2085.00,0.2327
2084.00,0.2328
2083.00,0.2328
2082.00,0.2327
2081.00,0.2327
2080.00,0.2327
2079.00,0.2327
2078.00,0.2326
2077.00,0.2326
2076.00,0.2326
2075.00,0.2326
2074.00,0.2326
2073.00,0.2326
2072.00,0.2326
2071.00,0.2326
2070.00,0.2326
2069.00,0.2326
2068.00,0.2326
2067.00,0.2326
2066.00,0.2326
2065.00,0.2327
2064.00,0.2328
2063.00,0.2330
2062.00,0.2331
2061.00,0.2332
2060.00,0.2333
2059.00,0.2334
2058.00,0.2336
2057.00,0.2337
2056.00,0.2339
2055.00,0.2340
2054.00,0.2341
2053.00,0.2342
2052.00,0.2344
2051.00,0.2345
2050.00,0.2347
2049.00,0.2349
2048.00,0.2352
2047.00,0.2354
2046.00,0.2355
2045.00,0.2357
2044.00,0.2358
2043.00,0.2359
2042.00,0.2359
2041.00,0.2360
2040.00,0.2362
2039.00,0.2363
2038.00,0.2365
2037.00,0.2366
2036.00,0.2367
2035.00,0.2367
2034.00,0.2367
2033.00,0.2367
2032.00,0.2366
2031.00,0.2366
2030.00,0.2366
2029.00,0.2365
2028.00,0.2365
2027.00,0.2364
2026.00,0.2362
2025.00,0.2361
2024.00,0.2360
2023.00,0.2357
2022.00,0.2354
2021.00,0.2350
2020.00,0.2345
2019.00,0.2340
2018.00,0.2333
2017.00,0.2328
2016.00,0.2324
2015.00,0.2321
2014.00,0.2317
2013.00,0.2313
2012.00,0.2309
2011.00,0.2304
2010.00,0.2300
2009.00,0.2296
2008.00,0.2292
2007.00,0.2289
2006.00,0.2286
2005.00,0.2283
2004.00,0.2281
2003.00,0.2280
2002.00,0.2278
2001.00,0.2276
2000.00,0.2275
1999.00,0.2274
1998.00,0.2272
1997.00,0.2271
1996.00,0.2269
1995.00,0.2267
1994.00,0.2264
1993.00,0.2262
1992.00,0.2260
1991.00,0.2260
1990.00,0.2260
1989.00,0.2260
1988.00,0.2260
1987.00,0.2259
1986.00,0.2259
1985.00,0.2259
1984.00,0.2259
1983.00,0.2258
1982.00,0.2258
1981.00,0.2257
1980.00,0.2257
1979.00,0.2256
1978.00,0.2256
1977.00,0.2255
1976.00,0.2255
1975.00,0.2255
1974.00,0.2255
1973.00,0.2256
1972.00,0.2256
1971.00,0.2256
1970.00,0.2256
1969.00,0.2254
1968.00,0.2253
1967.00,0.2253
1966.00,0.2254
1965.00,0.2257
1964.00,0.2260
1963.00,0.2261
1962.00,0.2262
1961.00,0.2263
1960.00,0.2265
1959.00,0.2266
1958.00,0.2267
1957.00,0.2268
1956.00,0.2269
1955.00,0.2269
1954.00,0.2270
1953.00,0.2272
1952.00,0.2272
1951.00,0.2273
1950.00,0.2273
1949.00,0.2273
1948.00,0.2273
1947.00,0.2274
1946.00,0.2274
1945.00,0.2275
1944.00,0.2277
1943.00,0.2279
1942.00,0.2284
1941.00,0.2292
1940.00,0.2299
1939.00,0.2304
1938.00,0.2307
1937.00,0.2308
1936.00,0.2308
1935.00,0.2307
1934.00,0.2305
1933.00,0.2304
1932.00,0.2305
1931.00,0.2306
1930.00,0.2306
1929.00,0.2308
1928.00,0.2309
1927.00,0.2309
1926.00,0.2310
1925.00,0.2310
1924.00,0.2310
1923.00,0.2311
1922.00,0.2315
1921.00,0.2322
1920.00,0.2329
1919.00,0.2333
1918.00,0.2336
1917.00,0.2339
1916.00,0.2342
1915.00,0.2344
1914.00,0.2344
1913.00,0.2344
1912.00,0.2343
1911.00,0.2341
1910.00,0.2340
1909.00,0.2340
1908.00,0.2342
1907.00,0.2344
1906.00,0.2345
1905.00,0.2346
1904.00,0.2347
1903.00,0.2347
1902.00,0.2347
1901.00,0.2347
1900.00,0.2348
1899.00,0.2349
1898.00,0.2350
1897.00,0.2350
1896.00,0.2352
1895.00,0.2353
1894.00,0.2355
1893.00,0.2359
1892.00,0.2361
1891.00,0.2361
1890.00,0.2361
1889.00,0.2363
1888.00,0.2367
1887.00,0.2370
1886.00,0.2370
1885.00,0.2370
1884.00,0.2370
1883.00,0.2370
1882.00,0.2369
1881.00,0.2369
1880.00,0.2369
1879.00,0.2368
1878.00,0.2367
1877.00,0.2366
1876.00,0.2365
1875.00,0.2363
1874.00,0.2359
1873.00,0.2357
1872.00,0.2354
1871.00,0.2349
1870.00,0.2343
1869.00,0.2338
1868.00,0.2336
1867.00,0.2337
1866.00,0.2339
1865.00,0.2340
1864.00,0.2339
1863.00,0.2336
1862.00,0.2332
1861.00,0.2329
1860.00,0.2327
1859.00,0.2325
1858.00,0.2323
1857.00,0.2322
1856.00,0.2322
1855.00,0.2321
1854.00,0.2319
1853.00,0.2318
1852.00,0.2317
1851.00,0.2315
1850.00,0.2312
1849.00,0.2309
1848.00,0.2307
1847.00,0.2305
1846.00,0.2305
1845.00,0.2305
1844.00,0.2305
1843.00,0.2305
1842.00,0.2305
1841.00,0.2306
1840.00,0.2305
1839.00,0.2303
1838.00,0.2299
1837.00,0.2297
1836.00,0.2296
1835.00,0.2296
1834.00,0.2295
1833.00,0.2295
1832.00,0.2295
1831.00,0.2293
1830.00,0.2290
1829.00,0.2290
1828.00,0.2291
1827.00,0.2291
1826.00,0.2288
1825.00,0.2286
1824.00,0.2287
1823.00,0.2289
1822.00,0.2290
1821.00,0.2290
1820.00,0.2289
1819.00,0.2288
1818.00,0.2288
1817.00,0.2288
1816.00,0.2291
1815.00,0.2292
1814.00,0.2292
1813.00,0.2291
1812.00,0.2291
1811.00,0.2293
1810.00,0.2296
1809.00,0.2300
1808.00,0.2305
1807.00,0.2309
1806.00,0.2312
1805.00,0.2315
1804.00,0.2317
1803.00,0.2319
1802.00,0.2320
1801.00,0.2326
1800.00,0.2334
1799.00,0.2342
1798.00,0.2347
1797.00,0.2350
1796.00,0.2354
1795.00,0.2359
1794.00,0.2363
1793.00,0.2366
1792.00,0.2371
1791.00,0.2376
1790.00,0.2382
1789.00,0.2388
1788.00,0.2393
1787.00,0.2395
1786.00,0.2395
1785.00,0.2397
1784.00,0.2400
1783.00,0.2403
1782.00,0.2405
1781.00,0.2408
1780.00,0.2412
1779.00,0.2418
1778.00,0.2423
1777.00,0.2428
1776.00,0.2432
1775.00,0.2437
1774.00,0.2442
1773.00,0.2449
1772.00,0.2459
1771.00,0.2469
1770.00,0.2477
1769.00,0.2484
1768.00,0.2491
1767.00,0.2500
1766.00,0.2510
1765.00,0.2522
1764.00,0.2534
1763.00,0.2545
1762.00,0.2559
1761.00,0.2576
1760.00,0.2595
1759.00,0.2615
1758.00,0.2635
1757.00,0.2660
1756.00,0.2689
1755.00,0.2719
1754.00,0.2746
1753.00,0.2771
1752.00,0.2798
1751.00,0.2827
1750.00,0.2859
1749.00,0.2892
1748.00,0.2923
1747.00,0.2949
1746.00,0.2969
1745.00,0.2984
1744.00,0.2997
1743.00,0.3009
1742.00,0.3020
1741.00,0.3030
1740.00,0.3034
1739.00,0.3032
1738.00,0.3027
1737.00,0.3022
1736.00,0.3014
1735.00,0.2999
1734.00,0.2982
1733.00,0.2971
1732.00,0.2968
1731.00,0.2966
1730.00,0.2966
1729.00,0.2969
1728.00,0.2975
1727.00,0.2982
1726.00,0.2991
1725.00,0.3005
1724.00,0.3024
1723.00,0.3050
1722.00,0.3080
1721.00,0.3116
1720.00,0.3156
1719.00,0.3205
1718.00,0.3273
1717.00,0.3368
1716.00,0.3479
1715.00,0.3599
1714.00,0.3726
1713.00,0.3853
1712.00,0.3975
1711.00,0.4088
1710.00,0.4190
1709.00,0.4271
1708.00,0.4321
1707.00,0.4334
1706.00,0.4312
1705.00,0.4258
1704.00,0.4190
1703.00,0.4119
1702.00,0.4037
1701.00,0.3916
1700.00,0.3765
1699.00,0.3632
1698.00,0.3537
1697.00,0.3454
1696.00,0.3369
1695.00,0.3290
1694.00,0.3233
1693.00,0.3193
1692.00,0.3156
1691.00,0.3118
1690.00,0.3079
1689.00,0.3047
1688.00,0.3024
1687.00,0.3005
1686.00,0.2985
1685.00,0.2962
1684.00,0.2941
1683.00,0.2929
1682.00,0.2920
1681.00,0.2910
1680.00,0.2899
1679.00,0.2891
1678.00,0.2889
1677.00,0.2888
1676.00,0.2885
1675.00,0.2879
1674.00,0.2873
1673.00,0.2869
1672.00,0.2865
1671.00,0.2860
1670.00,0.2857
1669.00,0.2857
1668.00,0.2858
1667.00,0.2858
1666.00,0.2858
1665.00,0.2857
1664.00,0.2857
1663.00,0.2855
1662.00,0.2856
1661.00,0.2860
1660.00,0.2863
1659.00,0.2864
1658.00,0.2866
1657.00,0.2869
1656.00,0.2874
1655.00,0.2877
1654.00,0.2881
1653.00,0.2894
1652.00,0.2909
1651.00,0.2914
1650.00,0.2918
1649.00,0.2923
1648.00,0.2926
1647.00,0.2933
1646.00,0.2947
1645.00,0.2964
1644.00,0.2977
1643.00,0.2986
1642.00,0.2995
1641.00,0.3008
1640.00,0.3022
1639.00,0.3036
1638.00,0.3050
1637.00,0.3070
1636.00,0.3098
1635.00,0.3130
1634.00,0.3155
1633.00,0.3174
1632.00,0.3191
1631.00,0.3208
1630.00,0.3226
1629.00,0.3251
1628.00,0.3279
1627.00,0.3307
1626.00,0.3335
1625.00,0.3367
1624.00,0.3406
1623.00,0.3450
1622.00,0.3498
1621.00,0.3550
1620.00,0.3603
1619.00,0.3660
1618.00,0.3733
1617.00,0.3831
1616.00,0.3948
1615.00,0.4058
1614.00,0.4153
1613.00,0.4244
1612.00,0.4339
1611.00,0.4435
1610.00,0.4530
1609.00,0.4625
1608.00,0.4717
1607.00,0.4800
1606.00,0.4870
1605.00,0.4932
1604.00,0.4991
1603.00,0.5045
1602.00,0.5096
1601.00,0.5151
1600.00,0.5214
1599.00,0.5282
1598.00,0.5356
1597.00,0.5451
1596.00,0.5579
1595.00,0.5742
1594.00,0.5948
1593.00,0.6212
1592.00,0.6552
1591.00,0.6980
1590.00,0.7515
1589.00,0.8197
1588.00,0.9073
1587.00,1.0174
1586.00,1.1525
1585.00,1.3165
1584.00,1.5132
1583.00,1.7239
1582.00,1.8782
1581.00,1.9045
1580.00,1.8229
1579.00,1.6764
1578.00,1.4906
1577.00,1.2973
1576.00,1.1304
1575.00,1.0090
1574.00,0.9288
1573.00,0.8748
1572.00,0.8348
1571.00,0.8022
1570.00,0.7776
1569.00,0.7655
1568.00,0.7680
1567.00,0.7837
1566.00,0.8132
1565.00,0.8591
1564.00,0.9196
1563.00,0.9844
1562.00,1.0421
1561.00,1.0855
1560.00,1.0933
1559.00,1.0298
1558.00,0.9317
1557.00,0.8530
1556.00,0.7906
1555.00,0.7305
1554.00,0.6737
1553.00,0.6273
1552.00,0.5926
1551.00,0.5647
1550.00,0.5407
1549.00,0.5213
1548.00,0.5073
1547.00,0.4965
1546.00,0.4868
1545.00,0.4780
1544.00,0.4710
1543.00,0.4659
1542.00,0.4614
1541.00,0.4567
1540.00,0.4521
1539.00,0.4478
1538.00,0.4440
1537.00,0.4413
1536.00,0.4391
1535.00,0.4364
1534.00,0.4332
1533.00,0.4308
1532.00,0.4300
1531.00,0.4301
1530.00,0.4304
1529.00,0.4310
1528.00,0.4317
1527.00,0.4321
1526.00,0.4321
1525.00,0.4322
1524.00,0.4326
1523.00,0.4328
1522.00,0.4333
1521.00,0.4355
1520.00,0.4391
1519.00,0.4427
1518.00,0.4461
1517.00,0.4498
1516.00,0.4537
1515.00,0.4565
1514.00,0.4578
1513.00,0.4585
1512.00,0.4591
1511.00,0.4596
1510.00,0.4606
1509.00,0.4630
1508.00,0.4684
1507.00,0.4788
1506.00,0.4933
1505.00,0.5066
1504.00,0.5163
1503.00,0.5240
1502.00,0.5311
1501.00,0.5385
1500.00,0.5459
1499.00,0.5528
1498.00,0.5599
1497.00,0.5688
1496.00,0.5797
1495.00,0.5906
1494.00,0.6008
1493.00,0.6114
1492.00,0.6231
1491.00,0.6362
1490.00,0.6515
1489.00,0.6699
1488.00,0.6901
1487.00,0.7109
1486.00,0.7336
1485.00,0.7597
1484.00,0.7897
1483.00,0.8242
1482.00,0.8657
1481.00,0.9154
1480.00,0.9711
1479.00,1.0308
1478.00,1.0982
1477.00,1.1796
1476.00,1.2761
1475.00,1.3859
1474.00,1.5180
1473.00,1.6956
1472.00,1.9326
1471.00,2.2111
1470.00,2.5100
1469.00,2.8428
1468.00,3.2000
1467.00,3.4303
1466.00,3.5594
1465.00,3.7043
1464.00,3.7085
1463.00,3.7083
1462.00,3.7838
1461.00,4.0958
1460.00,4.1828
1459.00,3.6144
1458.00,3.5260
1457.00,3.9348
1456.00,4.1642
1455.00,3.7569
1454.00,3.5156
1453.00,3.5060
1452.00,3.4501
1451.00,3.2584
1450.00,3.1669
1449.00,3.1755
1448.00,3.1256
1447.00,2.9688
1446.00,2.8352
1445.00,2.7245
1444.00,2.5826
1443.00,2.4218
1442.00,2.2794
1441.00,2.1577
1440.00,2.0426
1439.00,1.9284
1438.00,1.8126
1437.00,1.6913
1436.00,1.5720
1435.00,1.4683
1434.00,1.3803
1433.00,1.2981
1432.00,1.2161
1431.00,1.1360
1430.00,1.0628
1429.00,0.9999
1428.00,0.9486
1427.00,0.9083
1426.00,0.8757
1425.00,0.8475
1424.00,0.8236
1423.00,0.8054
1422.00,0.7924
1421.00,0.7815
1420.00,0.7704
1419.00,0.7597
1418.00,0.7507
1417.00,0.7436
1416.00,0.7379
1415.00,0.7335
1414.00,0.7301
1413.00,0.7271
1412.00,0.7249
1411.00,0.7237
1410.00,0.7225
1409.00,0.7201
1408.00,0.7156
1407.00,0.7089
1406.00,0.6999
1405.00,0.6886
1404.00,0.6766
1403.00,0.6659
1402.00,0.6564
1401.00,0.6474
1400.00,0.6390
1399.00,0.6325
1398.00,0.6285
1397.00,0.6268
1396.00,0.6280
1395.00,0.6332
1394.00,0.6426
1393.00,0.6562
1392.00,0.6753
1391.00,0.7019
1390.00,0.7385
1389.00,0.7885
1388.00,0.8568
1387.00,0.9448
1386.00,1.0458
1385.00,1.1506
1384.00,1.2574
1383.00,1.3712
1382.00,1.4966
1381.00,1.6364
1380.00,1.7927
1379.00,1.9563
1378.00,2.0893
1377.00,2.1403
1376.00,2.0905
1375.00,1.9599
1374.00,1.7929
1373.00,1.6356
1372.00,1.5082
1371.00,1.4102
1370.00,1.3372
1369.00,1.2872
1368.00,1.2566
1367.00,1.2352
1366.00,1.2081
1365.00,1.1639
1364.00,1.1014
1363.00,1.0300
1362.00,0.9633
1361.00,0.9097
1360.00,0.8697
1359.00,0.8402
1358.00,0.8185
1357.00,0.8028
1356.00,0.7922
1355.00,0.7857
1354.00,0.7819
1353.00,0.7797
1352.00,0.7778
1351.00,0.7755
1350.00,0.7727
1349.00,0.7692
1348.00,0.7656
1347.00,0.7622
1346.00,0.7592
1345.00,0.7567
1344.00,0.7546
1343.00,0.7524
1342.00,0.7492
1341.00,0.7442
1340.00,0.7370
1339.00,0.7279
1338.00,0.7173
1337.00,0.7053
1336.00,0.6922
1335.00,0.6788
1334.00,0.6656
1333.00,0.6533
1332.00,0.6421
1331.00,0.6327
1330.00,0.6251
1329.00,0.6191
1328.00,0.6146
1327.00,0.6116
1326.00,0.6098
1325.00,0.6091
1324.00,0.6091
1323.00,0.6097
1322.00,0.6104
1321.00,0.6109
1320.00,0.6114
1319.00,0.6122
1318.00,0.6137
1317.00,0.6158
1316.00,0.6184
1315.00,0.6214
1314.00,0.6248
1313.00,0.6286
1312.00,0.6326
1311.00,0.6366
1310.00,0.6404
1309.00,0.6436
1308.00,0.6461
1307.00,0.6480
1306.00,0.6490
1305.00,0.6488
1304.00,0.6473
1303.00,0.6445
1302.00,0.6409
1301.00,0.6366
1300.00,0.6317
1299.00,0.6265
1298.00,0.6210
1297.00,0.6155
1296.00,0.6101
1295.00,0.6051
1294.00,0.6005
1293.00,0.5964
1292.00,0.5924
1291.00,0.5887
1290.00,0.5852
1289.00,0.5816
1288.00,0.5781
1287.00,0.5748
1286.00,0.5714
1285.00,0.5678
1284.00,0.5639
1283.00,0.5601
1282.00,0.5565
1281.00,0.5534
1280.00,0.5506
1279.00,0.5483
1278.00,0.5461
1277.00,0.5439
1276.00,0.5415
1275.00,0.5394
1274.00,0.5374
1273.00,0.5357
1272.00,0.5341
1271.00,0.5329
1270.00,0.5321
1269.00,0.5313
1268.00,0.5299
1267.00,0.5275
1266.00,0.5242
1265.00,0.5203
1264.00,0.5163
1263.00,0.5129
1262.00,0.5102
1261.00,0.5081
1260.00,0.5065
1259.00,0.5051
1258.00,0.5039
1257.00,0.5023
1256.00,0.5005
1255.00,0.4985
1254.00,0.4967
1253.00,0.4951
1252.00,0.4939
1251.00,0.4927
1250.00,0.4914
1249.00,0.4897
1248.00,0.4878
1247.00,0.4858
1246.00,0.4837
1245.00,0.4812
1244.00,0.4783
1243.00,0.4751
1242.00,0.4718
1241.00,0.4685
1240.00,0.4652
1239.00,0.4625
1238.00,0.4603
1237.00,0.4584
1236.00,0.4567
1235.00,0.4555
1234.00,0.4548
1233.00,0.4547
1232.00,0.4551
1231.00,0.4557
1230.00,0.4562
1229.00,0.4561
1228.00,0.4552
1227.00,0.4533
1226.00,0.4507
1225.00,0.4477
1224.00,0.4446
1223.00,0.4419
1222.00,0.4399
1221.00,0.4383
1220.00,0.4371
1219.00,0.4364
1218.00,0.4362
1217.00,0.4364
1216.00,0.4369
1215.00,0.4378
1214.00,0.4387
1213.00,0.4391
1212.00,0.4389
1211.00,0.4381
1210.00,0.4371
1209.00,0.4358
1208.00,0.4344
1207.00,0.4329
1206.00,0.4313
1205.00,0.4296
1204.00,0.4279
1203.00,0.4263
1202.00,0.4250
1201.00,0.4238
1200.00,0.4229
1199.00,0.4224
1198.00,0.4223
1197.00,0.4220
1196.00,0.4215
1195.00,0.4208
1194.00,0.4201
1193.00,0.4194
1192.00,0.4188
1191.00,0.4184
1190.00,0.4180
1189.00,0.4175
1188.00,0.4169
1187.00,0.4164
1186.00,0.4159
1185.00,0.4156
1184.00,0.4154
1183.00,0.4154
1182.00,0.4155
1181.00,0.4158
1180.00,0.4163
1179.00,0.4170
1178.00,0.4181
1177.00,0.4195
1176.00,0.4214
1175.00,0.4241
1174.00,0.4277
1173.00,0.4320
1172.00,0.4367
1171.00,0.4410
1170.00,0.4442
1169.00,0.4457
1168.00,0.4456
1167.00,0.4445
1166.00,0.4430
1165.00,0.4417
1164.00,0.4407
1163.00,0.4404
1162.00,0.4408
1161.00,0.4418
1160.00,0.4431
1159.00,0.4447
1158.00,0.4463
1157.00,0.4474
1156.00,0.4479
1155.00,0.4478
1154.00,0.4469
1153.00,0.4454
1152.00,0.4433
1151.00,0.4408
1150.00,0.4383
1149.00,0.4356
1148.00,0.4331
1147.00,0.4308
1146.00,0.4289
1145.00,0.4273
1144.00,0.4260
1143.00,0.4255
1142.00,0.4258
1141.00,0.4272
1140.00,0.4296
1139.00,0.4332
1138.00,0.4380
1137.00,0.4439
1136.00,0.4507
1135.00,0.4579
1134.00,0.4642
1133.00,0.4680
1132.00,0.4680
1131.00,0.4640
1130.00,0.4573
1129.00,0.4495
1128.00,0.4423
1127.00,0.4367
1126.00,0.4329
1125.00,0.4304
1124.00,0.4287
1123.00,0.4273
1122.00,0.4257
1121.00,0.4240
1120.00,0.4227
1119.00,0.4223
1118.00,0.4232
1117.00,0.4254
1116.00,0.4284
1115.00,0.4315
1114.00,0.4334
1113.00,0.4328
1112.00,0.4295
1111.00,0.4242
1110.00,0.4184
1109.00,0.4130
1108.00,0.4086
1107.00,0.4054
1106.00,0.4033
1105.00,0.4021
1104.00,0.4014
1103.00,0.4011
1102.00,0.4007
1101.00,0.4001
1100.00,0.3993
1099.00,0.3984
1098.00,0.3974
1097.00,0.3964
1096.00,0.3955
1095.00,0.3950
1094.00,0.3949
1093.00,0.3951
1092.00,0.3954
1091.00,0.3960
1090.00,0.3969
1089.00,0.3982
1088.00,0.4000
1087.00,0.4025
1086.00,0.4058
1085.00,0.4099
1084.00,0.4149
1083.00,0.4206
1082.00,0.4270
1081.00,0.4339
1080.00,0.4408
1079.00,0.4473
1078.00,0.4526
1077.00,0.4556
1076.00,0.4557
1075.00,0.4532
1074.00,0.4486
1073.00,0.4429
1072.00,0.4372
1071.00,0.4321
1070.00,0.4281
1069.00,0.4250
1068.00,0.4228
1067.00,0.4214
1066.00,0.4205
1065.00,0.4198
1064.00,0.4194
1063.00,0.4192
1062.00,0.4192
1061.00,0.4193
1060.00,0.4196
1059.00,0.4201
1058.00,0.4204
1057.00,0.4203
1056.00,0.4196
1055.00,0.4188
1054.00,0.4180
1053.00,0.4175
1052.00,0.4176
1051.00,0.4185
1050.00,0.4201
1049.00,0.4221
1048.00,0.4240
1047.00,0.4258
1046.00,0.4272
1045.00,0.4279
1044.00,0.4280
1043.00,0.4279
1042.00,0.4277
1041.00,0.4275
1040.00,0.4273
1039.00,0.4271
1038.00,0.4267
1037.00,0.4262
1036.00,0.4258
1035.00,0.4258
1034.00,0.4265
1033.00,0.4278
1032.00,0.4295
1031.00,0.4313
1030.00,0.4326
1029.00,0.4330
1028.00,0.4323
1027.00,0.4306
1026.00,0.4277
1025.00,0.4236
1024.00,0.4186
1023.00,0.4134
1022.00,0.4085
1021.00,0.4039
1020.00,0.3998
1019.00,0.3961
1018.00,0.3929
1017.00,0.3900
1016.00,0.3875
1015.00,0.3853
1014.00,0.3834
1013.00,0.3817
1012.00,0.3803
1011.00,0.3791
1010.00,0.3785
1009.00,0.3783
1008.00,0.3785
1007.00,0.3791
1006.00,0.3801
1005.00,0.3813
1004.00,0.3827
1003.00,0.3845
1002.00,0.3865
1001.00,0.3884
1000.00,0.3899
999.00,0.3910
998.00,0.3915
997.00,0.3912
996.00,0.3900
995.00,0.3880
994.00,0.3856
993.00,0.3830
992.00,0.3802
991.00,0.3776
990.00,0.3751
989.00,0.3731
988.00,0.3716
987.00,0.3708
986.00,0.3708
985.00,0.3715
984.00,0.3729
983.00,0.3748
982.00,0.3771
981.00,0.3796
980.00,0.3821
979.00,0.3848
978.00,0.3873
977.00,0.3895
976.00,0.3912
975.00,0.3925
974.00,0.3934
973.00,0.3938
972.00,0.3940
971.00,0.3939
970.00,0.3938
969.00,0.3936
968.00,0.3933
967.00,0.3931
966.00,0.3929
965.00,0.3924
964.00,0.3916
963.00,0.3907
962.00,0.3896
961.00,0.3884
960.00,0.3872
959.00,0.3863
958.00,0.3857
957.00,0.3853
956.00,0.3850
955.00,0.3847
954.00,0.3843
953.00,0.3837
952.00,0.3829
951.00,0.3820
950.00,0.3813
949.00,0.3809
948.00,0.3810
947.00,0.3815
946.00,0.3824
945.00,0.3835
944.00,0.3848
943.00,0.3863
942.00,0.3878
941.00,0.3892
940.00,0.3902
939.00,0.3909
938.00,0.3914
937.00,0.3914
936.00,0.3908
935.00,0.3895
934.00,0.3876
933.00,0.3854
932.00,0.3830
931.00,0.3809
930.00,0.3790
929.00,0.3775
928.00,0.3765
927.00,0.3765
926.00,0.3778
925.00,0.3803
924.00,0.3840
923.00,0.3885
922.00,0.3928
921.00,0.3955
920.00,0.3954
919.00,0.3921
918.00,0.3863
917.00,0.3790
916.00,0.3712
915.00,0.3642
914.00,0.3583
913.00,0.3536
912.00,0.3500
911.00,0.3472
910.00,0.3452
909.00,0.3436
908.00,0.3424
907.00,0.3416
906.00,0.3410
905.00,0.3408
904.00,0.3410
903.00,0.3417
902.00,0.3432
901.00,0.3451
900.00,0.3474
899.00,0.3501
898.00,0.3533
897.00,0.3568
896.00,0.3604
895.00,0.3641
894.00,0.3680
893.00,0.3719
892.00,0.3756
891.00,0.3790
890.00,0.3815
889.00,0.3828
888.00,0.3828
887.00,0.3816
886.00,0.3795
885.00,0.3772
884.00,0.3754
883.00,0.3744
882.00,0.3746
881.00,0.3755
880.00,0.3770
879.00,0.3785
878.00,0.3794
877.00,0.3797
876.00,0.3792
875.00,0.3787
874.00,0.3785
873.00,0.3786
872.00,0.3791
871.00,0.3800
870.00,0.3811
869.00,0.3824
868.00,0.3837
867.00,0.3856
866.00,0.3882
865.00,0.3916
864.00,0.3952
863.00,0.3980
862.00,0.3988
861.00,0.3968
860.00,0.3921
859.00,0.3859
858.00,0.3796
857.00,0.3743
856.00,0.3702
855.00,0.3673
854.00,0.3654
853.00,0.3639
852.00,0.3627
851.00,0.3615
850.00,0.3604
849.00,0.3588
848.00,0.3567
847.00,0.3541
846.00,0.3512
845.00,0.3484
844.00,0.3457
843.00,0.3434
842.00,0.3421
841.00,0.3423
840.00,0.3443
839.00,0.3485
838.00,0.3542
837.00,0.3601
836.00,0.3643
835.00,0.3657
834.00,0.3641
833.00,0.3608
832.00,0.3573
831.00,0.3552
830.00,0.3550
829.00,0.3568
828.00,0.3602
827.00,0.3647
826.00,0.3701
825.00,0.3758
824.00,0.3819
823.00,0.3886
822.00,0.3958
821.00,0.4030
820.00,0.4098
819.00,0.4161
818.00,0.4216
817.00,0.4257
816.00,0.4278
815.00,0.4279
814.00,0.4260
813.00,0.4224
812.00,0.4174
811.00,0.4114
810.00,0.4052
809.00,0.3992
808.00,0.3938
807.00,0.3889
806.00,0.3842
805.00,0.3794
804.00,0.3741
803.00,0.3684
802.00,0.3625
801.00,0.3566
800.00,0.3514
799.00,0.3471
798.00,0.3441
797.00,0.3422
796.00,0.3409
795.00,0.3403
794.00,0.3401
793.00,0.3403
792.00,0.3411
791.00,0.3426
790.00,0.3449
789.00,0.3478
788.00,0.3508
787.00,0.3541
786.00,0.3577
785.00,0.3619
784.00,0.3664
783.00,0.3709
782.00,0.3750
781.00,0.3783
780.00,0.3806
779.00,0.3823
778.00,0.3837
777.00,0.3852
776.00,0.3868
775.00,0.3887
774.00,0.3907
773.00,0.3928
772.00,0.3951
771.00,0.3976
770.00,0.4004
769.00,0.4034
768.00,0.4064
767.00,0.4091
766.00,0.4115
765.00,0.4133
764.00,0.4150
763.00,0.4167
762.00,0.4188
761.00,0.4215
760.00,0.4248
759.00,0.4287
758.00,0.4326
757.00,0.4361
756.00,0.4390
755.00,0.4418
754.00,0.4451
753.00,0.4491
752.00,0.4537
751.00,0.4585
750.00,0.4632
749.00,0.4675
748.00,0.4714
747.00,0.4753
746.00,0.4791
745.00,0.4828
744.00,0.4869
743.00,0.4918
742.00,0.4972
741.00,0.5026
740.00,0.5071
739.00,0.5107
738.00,0.5138
737.00,0.5168
736.00,0.5203
735.00,0.5244
734.00,0.5293
733.00,0.5351
732.00,0.5424
731.00,0.5517
730.00,0.5639
729.00,0.5787
728.00,0.5964
727.00,0.6172
726.00,0.6415
725.00,0.6688
724.00,0.6967
723.00,0.7199
722.00,0.7311
721.00,0.7232
720.00,0.6953
719.00,0.6543
718.00,0.6095
717.00,0.5677
716.00,0.5320
715.00,0.5029
714.00,0.4798
713.00,0.4611
712.00,0.4459
711.00,0.4336
710.00,0.4238
709.00,0.4159
708.00,0.4090
707.00,0.4030
706.00,0.3979
705.00,0.3937
704.00,0.3904
703.00,0.3880
702.00,0.3868
701.00,0.3862
700.00,0.3845
699.00,0.3796
698.00,0.3700
697.00,0.3562
696.00,0.3407
695.00,0.3260
694.00,0.3141
693.00,0.3050
692.00,0.2984
691.00,0.2936
690.00,0.2899
689.00,0.2869
688.00,0.2843
687.00,0.2822
686.00,0.2807
685.00,0.2795
684.00,0.2785
683.00,0.2777
682.00,0.2771
681.00,0.2767
680.00,0.2765
679.00,0.2767
678.00,0.2769
677.00,0.2771
676.00,0.2772
675.00,0.2772
674.00,0.2772
673.00,0.2772
672.00,0.2770
671.00,0.2771
670.00,0.2774
669.00,0.2784
668.00,0.2798
667.00,0.2811
666.00,0.2817
665.00,0.2817
664.00,0.2819
663.00,0.2826
662.00,0.2835
661.00,0.2844
660.00,0.2852
659.00,0.2862
658.00,0.2874
657.00,0.2888
656.00,0.2901
655.00,0.2911
654.00,0.2921
653.00,0.2930
652.00,0.2939
651.00,0.2948
650.00,0.2957
649.00,0.2964
648.00,0.2971
647.00,0.2981
646.00,0.2993
645.00,0.3006
644.00,0.3018
643.00,0.3032
642.00,0.3047
641.00,0.3060
640.00,0.3070
639.00,0.3079
638.00,0.3089
637.00,0.3101
636.00,0.3112
635.00,0.3121
634.00,0.3126
633.00,0.3129
632.00,0.3132
631.00,0.3137
630.00,0.3145
629.00,0.3158
628.00,0.3175
627.00,0.3194
626.00,0.3216
625.00,0.3239
624.00,0.3265
623.00,0.3291
622.00,0.3314
621.00,0.3334
620.00,0.3350
619.00,0.3365
618.00,0.3377
617.00,0.3384
616.00,0.3384
615.00,0.3378
614.00,0.3369
613.00,0.3360
612.00,0.3352
611.00,0.3345
610.00,0.3335
609.00,0.3319
608.00,0.3300
607.00,0.3281
606.00,0.3266
605.00,0.3255
604.00,0.3248
603.00,0.3242
602.00,0.3238
601.00,0.3235
600.00,0.3234
599.00,0.3238
598.00,0.3245
597.00,0.3253
596.00,0.3263
595.00,0.3275
594.00,0.3288
593.00,0.3303
592.00,0.3321
591.00,0.3343
590.00,0.3368
589.00,0.3393
588.00,0.3415
587.00,0.3437
586.00,0.3458
585.00,0.3478
584.00,0.3502
583.00,0.3530
582.00,0.3561
581.00,0.3588
580.00,0.3612
579.00,0.3634
578.00,0.3657
577.00,0.3680
576.00,0.3703
575.00,0.3728
574.00,0.3750
573.00,0.3764
572.00,0.3773
571.00,0.3781
570.00,0.3793
569.00,0.3811
568.00,0.3831
567.00,0.3847
566.00,0.3856
565.00,0.3859
564.00,0.3861
563.00,0.3867
562.00,0.3878
561.00,0.3888
560.00,0.3898
559.00,0.3908
558.00,0.3919
557.00,0.3930
556.00,0.3937
555.00,0.3945
554.00,0.3955
553.00,0.3969
552.00,0.3986
551.00,0.4005
550.00,0.4021
