Created as New Dataset,
cm-1,A
4000.00,0.3768
3999.00,0.3764
3998.00,0.3762
3997.00,0.3759
3996.00,0.3756
3995.00,0.3753
3994.00,0.3750
3993.00,0.3747
3992.00,0.3744
3991.00,0.3741
3990.00,0.3737
3989.00,0.3733
3988.00,0.3728
3987.00,0.3724
3986.00,0.3720
3985.00,0.3716
3984.00,0.3713
3983.00,0.3710
3982.00,0.3708
3981.00,0.3705
3980.00,0.3702
3979.00,0.3699
3978.00,0.3697
3977.00,0.3694
3976.00,0.3692
3975.00,0.3690
3974.00,0.3688
3973.00,0.3685
3972.00,0.3682
3971.00,0.3679
3970.00,0.3677
3969.00,0.3675
3968.00,0.3672
3967.00,0.3669
3966.00,0.3667
3965.00,0.3665
3964.00,0.3663
3963.00,0.3661
3962.00,0.3659
3961.00,0.3656
3960.00,0.3654
3959.00,0.3652
3958.00,0.3650
3957.00,0.3649
3956.00,0.3648
3955.00,0.3646
3954.00,0.3645
3953.00,0.3645
3952.00,0.3644
3951.00,0.3643
3950.00,0.3642
3949.00,0.3641
3948.00,0.3640
3947.00,0.3639
3946.00,0.3638
3945.00,0.3636
3944.00,0.3634
3943.00,0.3632
3942.00,0.3630
3941.00,0.3629
3940.00,0.3629
3939.00,0.3628
3938.00,0.3628
3937.00,0.3628
3936.00,0.3627
3935.00,0.3627
3934.00,0.3627
3933.00,0.3626
3932.00,0.3626
3931.00,0.3626
3930.00,0.3625
3929.00,0.3624
3928.00,0.3624
3927.00,0.3623
3926.00,0.3623
3925.00,0.3623
3924.00,0.3623
3923.00,0.3622
3922.00,0.3622
3921.00,0.3620
3920.00,0.3619
3919.00,0.3617
3918.00,0.3617
3917.00,0.3617
3916.00,0.3617
3915.00,0.3618
3914.00,0.3618
3913.00,0.3618
3912.00,0.3618
3911.00,0.3617
3910.00,0.3617
3909.00,0.3616
3908.00,0.3615
3907.00,0.3615
3906.00,0.3615
3905.00,0.3616
3904.00,0.3616
3903.00,0.3616
3902.00,0.3616
3901.00,0.3616
3900.00,0.3615
3899.00,0.3614
3898.00,0.3613
3897.00,0.3613
3896.00,0.3613
3895.00,0.3613
3894.00,0.3612
3893.00,0.3611
3892.00,0.3610
3891.00,0.3608
3890.00,0.3606
3889.00,0.3604
3888.00,0.3602
3887.00,0.3601
3886.00,0.3601
3885.00,0.3602
3884.00,0.3601
3883.00,0.3600
3882.00,0.3598
3881.00,0.3598
3880.00,0.3598
3879.00,0.3598
3878.00,0.3597
3877.00,0.3596
3876.00,0.3596
3875.00,0.3596
3874.00,0.3596
3873.00,0.3595
3872.00,0.3592
3871.00,0.3590
3870.00,0.3590
3869.00,0.3591
3868.00,0.3590
3867.00,0.3588
3866.00,0.3587
3865.00,0.3588
3864.00,0.3588
3863.00,0.3587
3862.00,0.3584
3861.00,0.3582
3860.00,0.3581
3859.00,0.3580
3858.00,0.3579
3857.00,0.3578
3856.00,0.3576
3855.00,0.3574
3854.00,0.3574
3853.00,0.3574
3852.00,0.3574
3851.00,0.3573
3850.00,0.3572
3849.00,0.3571
3848.00,0.3571
3847.00,0.3571
3846.00,0.3570
3845.00,0.3568
3844.00,0.3567
3843.00,0.3566
3842.00,0.3565
3841.00,0.3564
3840.00,0.3563
3839.00,0.3563
3838.00,0.3564
3837.00,0.3565
3836.00,0.3565
3835.00,0.3565
3834.00,0.3564
3833.00,0.3564
3832.00,0.3563
3831.00,0.3562
3830.00,0.3560
3829.00,0.3558
3828.00,0.3556
3827.00,0.3556
3826.00,0.3557
3825.00,0.3556
3824.00,0.3555
3823.00,0.3553
3822.00,0.3552
3821.00,0.3553
3820.00,0.3553
3819.00,0.3551
3818.00,0.3548
3817.00,0.3545
3816.00,0.3544
3815.00,0.3543
3814.00,0.3540
3813.00,0.3537
3812.00,0.3534
3811.00,0.3533
3810.00,0.3532
3809.00,0.3531
3808.00,0.3528
3807.00,0.3527
3806.00,0.3525
3805.00,0.3523
3804.00,0.3521
3803.00,0.3518
3802.00,0.3517
3801.00,0.3516
3800.00,0.3515
3799.00,0.3513
3798.00,0.3510
3797.00,0.3509
3796.00,0.3508
3795.00,0.3507
3794.00,0.3505
3793.00,0.3502
3792.00,0.3500
3791.00,0.3499
3790.00,0.3497
3789.00,0.3496
3788.00,0.3495
3787.00,0.3494
3786.00,0.3493
3785.00,0.3493
3784.00,0.3492
3783.00,0.3491
3782.00,0.3490
3781.00,0.3488
3780.00,0.3486
3779.00,0.3485
3778.00,0.3483
3777.00,0.3481
3776.00,0.3478
3775.00,0.3476
3774.00,0.3475
3773.00,0.3472
3772.00,0.3470
3771.00,0.3468
3770.00,0.3466
3769.00,0.3464
3768.00,0.3463
3767.00,0.3461
3766.00,0.3460
3765.00,0.3460
3764.00,0.3459
3763.00,0.3458
3762.00,0.3457
3761.00,0.3456
3760.00,0.3455
3759.00,0.3453
3758.00,0.3451
3757.00,0.3449
3756.00,0.3447
3755.00,0.3446
3754.00,0.3445
3753.00,0.3444
3752.00,0.3444
3751.00,0.3443
3750.00,0.3442
3749.00,0.3442
3748.00,0.3442
3747.00,0.3441
3746.00,0.3439
3745.00,0.3439
3744.00,0.3440
3743.00,0.3439
3742.00,0.3437
3741.00,0.3434
3740.00,0.3432
3739.00,0.3431
3738.00,0.3430
3737.00,0.3429
3736.00,0.3428
3735.00,0.3427
3734.00,0.3424
3733.00,0.3421
3732.00,0.3418
3731.00,0.3417
3730.00,0.3415
3729.00,0.3413
3728.00,0.3411
3727.00,0.3410
3726.00,0.3408
3725.00,0.3406
3724.00,0.3404
3723.00,0.3402
3722.00,0.3401
3721.00,0.3399
3720.00,0.3398
3719.00,0.3397
3718.00,0.3397
3717.00,0.3397
3716.00,0.3396
3715.00,0.3395
3714.00,0.3394
3713.00,0.3394
3712.00,0.3394
3711.00,0.3394
3710.00,0.3394
3709.00,0.3394
3708.00,0.3394
3707.00,0.3394
3706.00,0.3393
3705.00,0.3393
3704.00,0.3392
3703.00,0.3391
3702.00,0.3391
3701.00,0.3390
3700.00,0.3389
3699.00,0.3387
3698.00,0.3386
3697.00,0.3385
3696.00,0.3385
3695.00,0.3385
3694.00,0.3385
3693.00,0.3386
3692.00,0.3386
3691.00,0.3386
3690.00,0.3386
3689.00,0.3386
3688.00,0.3386
3687.00,0.3387
3686.00,0.3387
3685.00,0.3387
3684.00,0.3387
3683.00,0.3388
3682.00,0.3388
3681.00,0.3388
3680.00,0.3388
3679.00,0.3387
3678.00,0.3386
3677.00,0.3385
3676.00,0.3385
3675.00,0.3387
3674.00,0.3389
3673.00,0.3389
3672.00,0.3388
3671.00,0.3388
3670.00,0.3389
3669.00,0.3389
3668.00,0.3387
3667.00,0.3385
3666.00,0.3383
3665.00,0.3382
3664.00,0.3381
3663.00,0.3380
3662.00,0.3379
3661.00,0.3380
3660.00,0.3380
3659.00,0.3381
3658.00,0.3382
3657.00,0.3384
3656.00,0.3386
3655.00,0.3389
3654.00,0.3392
3653.00,0.3393
3652.00,0.3395
3651.00,0.3398
3650.00,0.3400
3649.00,0.3401
3648.00,0.3403
3647.00,0.3405
3646.00,0.3407
3645.00,0.3408
3644.00,0.3409
3643.00,0.3409
3642.00,0.3410
3641.00,0.3410
3640.00,0.3410
3639.00,0.3412
3638.00,0.3414
3637.00,0.3416
3636.00,0.3417
3635.00,0.3418
3634.00,0.3420
3633.00,0.3421
3632.00,0.3423
3631.00,0.3424
3630.00,0.3427
3629.00,0.3432
3628.00,0.3437
3627.00,0.3440
3626.00,0.3443
3625.00,0.3446
3624.00,0.3449
3623.00,0.3452
3622.00,0.3453
3621.00,0.3453
3620.00,0.3453
3619.00,0.3453
3618.00,0.3453
3617.00,0.3453
3616.00,0.3453
3615.00,0.3452
3614.00,0.3453
3613.00,0.3453
3612.00,0.3454
3611.00,0.3454
3610.00,0.3455
3609.00,0.3456
3608.00,0.3457
3607.00,0.3458
3606.00,0.3458
3605.00,0.3457
3604.00,0.3457
3603.00,0.3455
3602.00,0.3453
3601.00,0.3449
3600.00,0.3445
3599.00,0.3440
3598.00,0.3434
3597.00,0.3428
3596.00,0.3422
3595.00,0.3417
3594.00,0.3412
3593.00,0.3407
3592.00,0.3403
3591.00,0.3399
3590.00,0.3397
3589.00,0.3395
3588.00,0.3393
3587.00,0.3392
3586.00,0.3391
3585.00,0.3390
3584.00,0.3389
3583.00,0.3389
3582.00,0.3389
3581.00,0.3388
3580.00,0.3389
3579.00,0.3389
3578.00,0.3390
3577.00,0.3391
3576.00,0.3393
3575.00,0.3394
3574.00,0.3396
3573.00,0.3398
3572.00,0.3400
3571.00,0.3403
3570.00,0.3405
3569.00,0.3408
3568.00,0.3411
3567.00,0.3414
3566.00,0.3417
3565.00,0.3419
3564.00,0.3422
3563.00,0.3425
3562.00,0.3427
3561.00,0.3430
3560.00,0.3432
3559.00,0.3434
3558.00,0.3436
3557.00,0.3438
3556.00,0.3441
3555.00,0.3444
3554.00,0.3447
3553.00,0.3451
3552.00,0.3455
3551.00,0.3458
3550.00,0.3462
3549.00,0.3465
3548.00,0.3470
3547.00,0.3475
3546.00,0.3480
3545.00,0.3485
3544.00,0.3489
3543.00,0.3494
3542.00,0.3499
3541.00,0.3504
3540.00,0.3509
3539.00,0.3513
3538.00,0.3517
3537.00,0.3521
3536.00,0.3525
3535.00,0.3529
3534.00,0.3532
3533.00,0.3534
3532.00,0.3538
3531.00,0.3542
3530.00,0.3545
3529.00,0.3549
3528.00,0.3552
3527.00,0.3555
3526.00,0.3558
3525.00,0.3561
3524.00,0.3564
3523.00,0.3567
3522.00,0.3570
3521.00,0.3573
3520.00,0.3577
3519.00,0.3581
3518.00,0.3585
3517.00,0.3589
3516.00,0.3594
3515.00,0.3598
3514.00,0.3603
3513.00,0.3608
3512.00,0.3613
3511.00,0.3619
3510.00,0.3625
3509.00,0.3632
3508.00,0.3638
3507.00,0.3644
3506.00,0.3650
3505.00,0.3655
3504.00,0.3661
3503.00,0.3666
3502.00,0.3672
3501.00,0.3677
3500.00,0.3683
3499.00,0.3688
3498.00,0.3693
3497.00,0.3699
3496.00,0.3705
3495.00,0.3712
3494.00,0.3720
3493.00,0.3727
3492.00,0.3734
3491.00,0.3741
3490.00,0.3747
3489.00,0.3753
3488.00,0.3760
3487.00,0.3766
3486.00,0.3773
3485.00,0.3780
3484.00,0.3786
3483.00,0.3792
3482.00,0.3798
3481.00,0.3804
3480.00,0.3809
3479.00,0.3814
3478.00,0.3819
3477.00,0.3824
3476.00,0.3828
3475.00,0.3833
3474.00,0.3838
3473.00,0.3843
3472.00,0.3849
3471.00,0.3855
3470.00,0.3862
3469.00,0.3868
3468.00,0.3875
3467.00,0.3881
3466.00,0.3887
3465.00,0.3893
3464.00,0.3899
3463.00,0.3905
3462.00,0.3911
3461.00,0.3918
3460.00,0.3923
3459.00,0.3929
3458.00,0.3936
3457.00,0.3943
3456.00,0.3950
3455.00,0.3956
3454.00,0.3962
3453.00,0.3968
3452.00,0.3974
3451.00,0.3980
3450.00,0.3987
3449.00,0.3994
3448.00,0.4001
3447.00,0.4007
3446.00,0.4013
3445.00,0.4020
3444.00,0.4026
3443.00,0.4033
3442.00,0.4041
3441.00,0.4049
3440.00,0.4057
3439.00,0.4065
3438.00,0.4072
3437.00,0.4079
3436.00,0.4087
3435.00,0.4095
3434.00,0.4103
3433.00,0.4111
3432.00,0.4120
3431.00,0.4128
3430.00,0.4136
3429.00,0.4143
3428.00,0.4151
3427.00,0.4158
3426.00,0.4165
3425.00,0.4173
3424.00,0.4181
3423.00,0.4189
3422.00,0.4197
3421.00,0.4205
3420.00,0.4213
3419.00,0.4221
3418.00,0.4229
3417.00,0.4237
3416.00,0.4245
3415.00,0.4254
3414.00,0.4263
3413.00,0.4272
3412.00,0.4281
3411.00,0.4290
3410.00,0.4299
3409.00,0.4309
3408.00,0.4318
3407.00,0.4328
3406.00,0.4337
3405.00,0.4348
3404.00,0.4359
3403.00,0.4370
3402.00,0.4380
3401.00,0.4391
3400.00,0.4401
3399.00,0.4411
3398.00,0.4422
3397.00,0.4433
3396.00,0.4444
3395.00,0.4455
3394.00,0.4466
3393.00,0.4477
3392.00,0.4488
3391.00,0.4499
3390.00,0.4509
3389.00,0.4520
3388.00,0.4530
3387.00,0.4541
3386.00,0.4552
3385.00,0.4563
3384.00,0.4573
3383.00,0.4584
3382.00,0.4595
3381.00,0.4606
3380.00,0.4618
3379.00,0.4629
3378.00,0.4642
3377.00,0.4655
3376.00,0.4668
3375.00,0.4681
3374.00,0.4694
3373.00,0.4706
3372.00,0.4719
3371.00,0.4732
3370.00,0.4746
3369.00,0.4761
3368.00,0.4776
3367.00,0.4792
3366.00,0.4808
3365.00,0.4823
3364.00,0.4839
3363.00,0.4854
3362.00,0.4870
3361.00,0.4886
3360.00,0.4903
3359.00,0.4919
3358.00,0.4935
3357.00,0.4951
3356.00,0.4967
3355.00,0.4984
3354.00,0.5001
3353.00,0.5018
3352.00,0.5035
3351.00,0.5052
3350.00,0.5069
3349.00,0.5084
3348.00,0.5099
3347.00,0.5114
3346.00,0.5130
3345.00,0.5145
3344.00,0.5159
3343.00,0.5174
3342.00,0.5188
3341.00,0.5201
3340.00,0.5214
3339.00,0.5226
3338.00,0.5238
3337.00,0.5249
3336.00,0.5259
3335.00,0.5268
3334.00,0.5277
3333.00,0.5285
3332.00,0.5293
3331.00,0.5301
3330.00,0.5308
3329.00,0.5314
3328.00,0.5320
3327.00,0.5323
3326.00,0.5326
3325.00,0.5327
3324.00,0.5326
3323.00,0.5325
3322.00,0.5322
3321.00,0.5319
3320.00,0.5316
3319.00,0.5312
3318.00,0.5307
3317.00,0.5303
3316.00,0.5298
3315.00,0.5291
3314.00,0.5284
3313.00,0.5276
3312.00,0.5267
3311.00,0.5258
3310.00,0.5250
3309.00,0.5242
3308.00,0.5234
3307.00,0.5226
3306.00,0.5217
3305.00,0.5208
3304.00,0.5199
3303.00,0.5189
3302.00,0.5180
3301.00,0.5171
3300.00,0.5163
3299.00,0.5155
3298.00,0.5147
3297.00,0.5140
3296.00,0.5134
3295.00,0.5128
3294.00,0.5122
3293.00,0.5116
3292.00,0.5112
3291.00,0.5107
3290.00,0.5103
3289.00,0.5099
3288.00,0.5096
3287.00,0.5094
3286.00,0.5092
3285.00,0.5090
3284.00,0.5088
3283.00,0.5087
3282.00,0.5086
3281.00,0.5085
3280.00,0.5085
3279.00,0.5085
3278.00,0.5085
3277.00,0.5086
3276.00,0.5088
3275.00,0.5091
3274.00,0.5094
3273.00,0.5097
3272.00,0.5100
3271.00,0.5103
3270.00,0.5106
3269.00,0.5109
3268.00,0.5114
3267.00,0.5118
3266.00,0.5123
3265.00,0.5128
3264.00,0.5133
3263.00,0.5138
3262.00,0.5143
3261.00,0.5149
3260.00,0.5155
3259.00,0.5162
3258.00,0.5168
3257.00,0.5174
3256.00,0.5180
3255.00,0.5186
3254.00,0.5191
3253.00,0.5197
3252.00,0.5202
3251.00,0.5208
3250.00,0.5213
3249.00,0.5217
3248.00,0.5221
3247.00,0.5224
3246.00,0.5228
3245.00,0.5232
3244.00,0.5236
3243.00,0.5239
3242.00,0.5241
3241.00,0.5244
3240.00,0.5246
3239.00,0.5248
3238.00,0.5250
3237.00,0.5251
3236.00,0.5253
3235.00,0.5254
3234.00,0.5255
3233.00,0.5256
3232.00,0.5257
3231.00,0.5258
3230.00,0.5259
3229.00,0.5260
3228.00,0.5260
3227.00,0.5260
3226.00,0.5260
3225.00,0.5259
3224.00,0.5259
3223.00,0.5258
3222.00,0.5257
3221.00,0.5255
3220.00,0.5253
3219.00,0.5251
3218.00,0.5249
3217.00,0.5246
3216.00,0.5244
3215.00,0.5242
3214.00,0.5239
3213.00,0.5236
3212.00,0.5233
3211.00,0.5229
3210.00,0.5225
3209.00,0.5222
3208.00,0.5218
3207.00,0.5214
3206.00,0.5210
3205.00,0.5205
3204.00,0.5201
3203.00,0.5198
3202.00,0.5195
3201.00,0.5193
3200.00,0.5189
3199.00,0.5185
3198.00,0.5181
3197.00,0.5177
3196.00,0.5173
3195.00,0.5169
3194.00,0.5165
3193.00,0.5160
3192.00,0.5155
3191.00,0.5150
3190.00,0.5145
3189.00,0.5140
3188.00,0.5134
3187.00,0.5129
3186.00,0.5124
3185.00,0.5118
3184.00,0.5111
3183.00,0.5104
3182.00,0.5096
3181.00,0.5089
3180.00,0.5082
3179.00,0.5075
3178.00,0.5067
3177.00,0.5059
3176.00,0.5051
3175.00,0.5043
3174.00,0.5035
3173.00,0.5026
3172.00,0.5017
3171.00,0.5008
3170.00,0.4999
3169.00,0.4991
3168.00,0.4982
3167.00,0.4974
3166.00,0.4965
3165.00,0.4957
3164.00,0.4948
3163.00,0.4939
3162.00,0.4930
3161.00,0.4922
3160.00,0.4914
3159.00,0.4906
3158.00,0.4899
3157.00,0.4892
3156.00,0.4884
3155.00,0.4876
3154.00,0.4868
3153.00,0.4860
3152.00,0.4853
3151.00,0.4846
3150.00,0.4839
3149.00,0.4831
3148.00,0.4823
3147.00,0.4815
3146.00,0.4808
3145.00,0.4800
3144.00,0.4793
3143.00,0.4786
3142.00,0.4779
3141.00,0.4774
3140.00,0.4769
3139.00,0.4764
3138.00,0.4758
3137.00,0.4753
3136.00,0.4747
3135.00,0.4742
3134.00,0.4738
3133.00,0.4734
3132.00,0.4731
3131.00,0.4728
3130.00,0.4726
3129.00,0.4725
3128.00,0.4725
3127.00,0.4725
3126.00,0.4725
3125.00,0.4725
3124.00,0.4725
3123.00,0.4726
3122.00,0.4728
3121.00,0.4730
3120.00,0.4732
3119.00,0.4735
3118.00,0.4737
3117.00,0.4739
3116.00,0.4742
3115.00,0.4746
3114.00,0.4749
3113.00,0.4754
3112.00,0.4759
3111.00,0.4763
3110.00,0.4768
3109.00,0.4774
3108.00,0.4780
3107.00,0.4786
3106.00,0.4793
3105.00,0.4800
3104.00,0.4807
3103.00,0.4815
3102.00,0.4823
3101.00,0.4831
3100.00,0.4839
3099.00,0.4849
3098.00,0.4859
3097.00,0.4870
3096.00,0.4883
3095.00,0.4896
3094.00,0.4911
3093.00,0.4928
3092.00,0.4947
3091.00,0.4967
3090.00,0.4989
3089.00,0.5013
3088.00,0.5038
3087.00,0.5064
3086.00,0.5090
3085.00,0.5117
3084.00,0.5144
3083.00,0.5173
3082.00,0.5204
3081.00,0.5236
3080.00,0.5271
3079.00,0.5307
3078.00,0.5344
3077.00,0.5383
3076.00,0.5423
3075.00,0.5464
3074.00,0.5507
3073.00,0.5550
3072.00,0.5592
3071.00,0.5635
3070.00,0.5679
3069.00,0.5723
3068.00,0.5767
3067.00,0.5810
3066.00,0.5851
3065.00,0.5891
3064.00,0.5930
3063.00,0.5967
3062.00,0.6000
3061.00,0.6030
3060.00,0.6058
3059.00,0.6084
3058.00,0.6110
3057.00,0.6137
3056.00,0.6165
3055.00,0.6195
3054.00,0.6225
3053.00,0.6258
3052.00,0.6293
3051.00,0.6329
3050.00,0.6367
3049.00,0.6408
3048.00,0.6451
3047.00,0.6497
3046.00,0.6543
3045.00,0.6590
3044.00,0.6636
3043.00,0.6681
3042.00,0.6726
3041.00,0.6770
3040.00,0.6816
3039.00,0.6862
3038.00,0.6911
3037.00,0.6963
3036.00,0.7019
3035.00,0.7078
3034.00,0.7141
3033.00,0.7209
3032.00,0.7281
3031.00,0.7357
3030.00,0.7437
3029.00,0.7520
3028.00,0.7606
3027.00,0.7696
3026.00,0.7791
3025.00,0.7889
3024.00,0.7991
3023.00,0.8096
3022.00,0.8204
3021.00,0.8316
3020.00,0.8430
3019.00,0.8546
3018.00,0.8664
3017.00,0.8781
3016.00,0.8899
3015.00,0.9019
3014.00,0.9142
3013.00,0.9269
3012.00,0.9398
3011.00,0.9530
3010.00,0.9667
3009.00,0.9809
3008.00,0.9957
3007.00,1.0112
3006.00,1.0274
3005.00,1.0442
3004.00,1.0615
3003.00,1.0791
3002.00,1.0972
3001.00,1.1157
3000.00,1.1352
2999.00,1.1560
2998.00,1.1784
2997.00,1.2029
2996.00,1.2297
2995.00,1.2593
2994.00,1.2921
2993.00,1.3288
2992.00,1.3701
2991.00,1.4163
2990.00,1.4679
2989.00,1.5253
2988.00,1.5891
2987.00,1.6599
2986.00,1.7385
2985.00,1.8257
2984.00,1.9224
2983.00,2.0292
2982.00,2.1469
2981.00,2.2762
2980.00,2.4188
2979.00,2.5760
2978.00,2.7469
2977.00,2.9269
2976.00,3.1148
2975.00,3.3230
2974.00,3.5735
2973.00,3.8477
2972.00,4.0317
2971.00,4.1163
2970.00,4.1949
2969.00,4.3059
2968.00,4.3219
2967.00,4.3626
2966.00,4.5286
2965.00,4.3631
2964.00,4.1632
2963.00,4.1232
2962.00,4.3023
2961.00,4.4327
2960.00,4.3830
2959.00,4.3951
2958.00,4.3389
2957.00,4.1225
2956.00,3.9750
2955.00,3.9795
2954.00,4.0443
2953.00,4.0262
2952.00,3.9244
2951.00,3.8228
2950.00,3.7845
2949.00,3.8425
2948.00,4.0356
2947.00,4.3355
2946.00,4.3499
2945.00,4.1101
2944.00,3.9364
2943.00,3.8708
2942.00,3.8982
2941.00,4.0322
2940.00,4.1465
2939.00,4.0970
2938.00,4.0493
2937.00,4.1280
2936.00,4.3712
2935.00,4.4789
2934.00,4.4657
2933.00,4.6467
2932.00,4.5422
2931.00,4.2094
2930.00,3.9477
2929.00,3.8787
2928.00,3.9852
2927.00,4.1425
2926.00,4.1230
2925.00,3.9376
2924.00,3.8030
2923.00,3.8525
2922.00,4.0221
2921.00,4.0780
2920.00,4.0585
2919.00,4.1272
2918.00,4.3037
2917.00,4.2882
2916.00,4.2973
2915.00,4.4463
2914.00,4.3804
2913.00,4.3053
2912.00,4.3165
2911.00,4.2233
2910.00,4.1028
2909.00,4.2270
2908.00,4.5276
2907.00,4.2640
2906.00,4.0339
2905.00,4.0126
2904.00,4.0530
2903.00,3.9903
2902.00,3.9183
2901.00,3.9020
2900.00,3.9198
2899.00,3.9923
2898.00,4.1823
2897.00,4.4791
2896.00,4.7513
2895.00,4.8293
2894.00,4.4562
2893.00,4.1122
2892.00,3.9316
2891.00,3.9521
2890.00,4.0626
2889.00,4.0362
2888.00,3.9439
2887.00,3.9026
2886.00,3.9437
2885.00,3.9843
2884.00,3.9792
2883.00,3.9124
2882.00,3.8213
2881.00,3.7837
2880.00,3.8225
2879.00,3.9045
2878.00,4.0754
2877.00,4.2771
2876.00,4.1156
2875.00,3.8697
2874.00,3.7328
2873.00,3.7401
2872.00,3.9008
2871.00,4.2374
2870.00,4.2212
2869.00,4.0234
2868.00,3.9756
2867.00,4.2284
2866.00,4.7055
2865.00,4.6079
2864.00,4.2339
2863.00,3.8926
2862.00,3.7416
2861.00,3.6852
2860.00,3.6629
2859.00,3.6672
2858.00,3.6807
2857.00,3.7345
2856.00,3.8017
2855.00,3.9907
2854.00,4.4378
2853.00,4.3936
2852.00,4.2473
2851.00,4.2635
2850.00,4.5820
2849.00,4.2851
2848.00,4.0493
2847.00,4.0844
2846.00,4.2737
2845.00,4.4265
2844.00,4.2193
2843.00,4.0191
2842.00,3.9093
2841.00,3.8746
2840.00,3.8296
2839.00,3.6952
2838.00,3.4609
2837.00,3.1952
2836.00,2.9562
2835.00,2.7529
2834.00,2.5748
2833.00,2.4129
2832.00,2.2650
2831.00,2.1318
2830.00,2.0130
2829.00,1.9067
2828.00,1.8112
2827.00,1.7254
2826.00,1.6484
2825.00,1.5790
2824.00,1.5161
2823.00,1.4589
2822.00,1.4067
2821.00,1.3588
2820.00,1.3144
2819.00,1.2729
2818.00,1.2342
2817.00,1.1982
2816.00,1.1649
2815.00,1.1341
2814.00,1.1054
2813.00,1.0785
2812.00,1.0530
2811.00,1.0288
2810.00,1.0060
2809.00,0.9843
2808.00,0.9636
2807.00,0.9439
2806.00,0.9251
2805.00,0.9074
2804.00,0.8907
2803.00,0.8749
2802.00,0.8599
2801.00,0.8456
2800.00,0.8319
2799.00,0.8187
2798.00,0.8061
2797.00,0.7941
2796.00,0.7826
2795.00,0.7715
2794.00,0.7609
2793.00,0.7505
2792.00,0.7404
2791.00,0.7305
2790.00,0.7208
2789.00,0.7113
2788.00,0.7020
2787.00,0.6928
2786.00,0.6838
2785.00,0.6751
2784.00,0.6666
2783.00,0.6584
2782.00,0.6505
2781.00,0.6429
2780.00,0.6355
2779.00,0.6284
2778.00,0.6218
2777.00,0.6155
2776.00,0.6095
2775.00,0.6040
2774.00,0.5987
2773.00,0.5938
2772.00,0.5893
2771.00,0.5851
2770.00,0.5813
2769.00,0.5777
2768.00,0.5745
2767.00,0.5717
2766.00,0.5691
2765.00,0.5668
2764.00,0.5648
2763.00,0.5630
2762.00,0.5614
2761.00,0.5600
2760.00,0.5588
2759.00,0.5576
2758.00,0.5564
2757.00,0.5552
2756.00,0.5540
2755.00,0.5529
2754.00,0.5521
2753.00,0.5514
2752.00,0.5509
2751.00,0.5506
2750.00,0.5504
2749.00,0.5504
2748.00,0.5507
2747.00,0.5511
2746.00,0.5519
2745.00,0.5529
2744.00,0.5542
2743.00,0.5559
2742.00,0.5579
2741.00,0.5601
2740.00,0.5628
2739.00,0.5660
2738.00,0.5698
2737.00,0.5740
2736.00,0.5788
2735.00,0.5839
2734.00,0.5892
2733.00,0.5943
2732.00,0.5990
2731.00,0.6030
2730.00,0.6060
2729.00,0.6080
2728.00,0.6088
2727.00,0.6087
2726.00,0.6078
2725.00,0.6063
2724.00,0.6044
2723.00,0.6020
2722.00,0.5993
2721.00,0.5963
2720.00,0.5930
2719.00,0.5895
2718.00,0.5857
2717.00,0.5816
2716.00,0.5773
2715.00,0.5729
2714.00,0.5684
2713.00,0.5640
2712.00,0.5598
2711.00,0.5559
2710.00,0.5525
2709.00,0.5496
2708.00,0.5472
2707.00,0.5451
2706.00,0.5434
2705.00,0.5418
2704.00,0.5406
2703.00,0.5396
2702.00,0.5388
2701.00,0.5384
2700.00,0.5382
2699.00,0.5383
2698.00,0.5385
2697.00,0.5389
2696.00,0.5394
2695.00,0.5400
2694.00,0.5407
2693.00,0.5415
2692.00,0.5424
2691.00,0.5432
2690.00,0.5441
2689.00,0.5449
2688.00,0.5457
2687.00,0.5464
2686.00,0.5471
2685.00,0.5478
2684.00,0.5484
2683.00,0.5490
2682.00,0.5494
2681.00,0.5498
2680.00,0.5501
2679.00,0.5504
2678.00,0.5508
2677.00,0.5512
2676.00,0.5517
2675.00,0.5521
2674.00,0.5525
2673.00,0.5528
2672.00,0.5530
2671.00,0.5530
2670.00,0.5528
2669.00,0.5523
2668.00,0.5514
2667.00,0.5504
2666.00,0.5491
2665.00,0.5475
2664.00,0.5457
2663.00,0.5438
2662.00,0.5418
2661.00,0.5398
2660.00,0.5377
2659.00,0.5355
2658.00,0.5334
2657.00,0.5314
2656.00,0.5294
2655.00,0.5274
2654.00,0.5255
2653.00,0.5237
2652.00,0.5220
2651.00,0.5204
2650.00,0.5190
2649.00,0.5177
2648.00,0.5164
2647.00,0.5151
2646.00,0.5139
2645.00,0.5128
2644.00,0.5117
2643.00,0.5106
2642.00,0.5095
2641.00,0.5085
2640.00,0.5075
2639.00,0.5065
2638.00,0.5056
2637.00,0.5046
2636.00,0.5038
2635.00,0.5029
2634.00,0.5021
2633.00,0.5013
2632.00,0.5004
2631.00,0.4995
2630.00,0.4986
2629.00,0.4977
2628.00,0.4968
2627.00,0.4959
2626.00,0.4949
2625.00,0.4940
2624.00,0.4931
2623.00,0.4923
2622.00,0.4914
2621.00,0.4906
2620.00,0.4898
2619.00,0.4889
2618.00,0.4880
2617.00,0.4871
2616.00,0.4863
2615.00,0.4855
2614.00,0.4846
2613.00,0.4838
2612.00,0.4829
2611.00,0.4819
2610.00,0.4810
2609.00,0.4801
2608.00,0.4792
2607.00,0.4782
2606.00,0.4773
2605.00,0.4764
2604.00,0.4755
2603.00,0.4745
2602.00,0.4734
2601.00,0.4722
2600.00,0.4710
2599.00,0.4696
2598.00,0.4682
2597.00,0.4668
2596.00,0.4653
2595.00,0.4638
2594.00,0.4623
2593.00,0.4608
2592.00,0.4592
2591.00,0.4576
2590.00,0.4560
2589.00,0.4545
2588.00,0.4528
2587.00,0.4512
2586.00,0.4495
2585.00,0.4479
2584.00,0.4463
2583.00,0.4447
2582.00,0.4430
2581.00,0.4413
2580.00,0.4396
2579.00,0.4380
2578.00,0.4363
2577.00,0.4348
2576.00,0.4332
2575.00,0.4317
2574.00,0.4302
2573.00,0.4287
2572.00,0.4272
2571.00,0.4257
2570.00,0.4242
2569.00,0.4228
2568.00,0.4214
2567.00,0.4199
2566.00,0.4185
2565.00,0.4170
2564.00,0.4156
2563.00,0.4142
2562.00,0.4128
2561.00,0.4114
2560.00,0.4100
2559.00,0.4086
2558.00,0.4073
2557.00,0.4061
2556.00,0.4050
2555.00,0.4038
2554.00,0.4027
2553.00,0.4016
2552.00,0.4006
2551.00,0.3995
2550.00,0.3984
2549.00,0.3975
2548.00,0.3965
2547.00,0.3957
2546.00,0.3948
2545.00,0.3941
2544.00,0.3933
2543.00,0.3926
2542.00,0.3919
2541.00,0.3912
2540.00,0.3906
2539.00,0.3899
2538.00,0.3893
2537.00,0.3887
2536.00,0.3880
2535.00,0.3874
2534.00,0.3867
2533.00,0.3860
2532.00,0.3853
2531.00,0.3846
2530.00,0.3838
2529.00,0.3829
2528.00,0.3819
2527.00,0.3809
2526.00,0.3799
2525.00,0.3788
2524.00,0.3778
2523.00,0.3768
2522.00,0.3758
2521.00,0.3748
2520.00,0.3738
2519.00,0.3729
2518.00,0.3719
2517.00,0.3710
2516.00,0.3701
2515.00,0.3693
2514.00,0.3685
2513.00,0.3678
2512.00,0.3671
2511.00,0.3665
2510.00,0.3658
2509.00,0.3652
2508.00,0.3646
2507.00,0.3641
2506.00,0.3637
2505.00,0.3633
2504.00,0.3629
2503.00,0.3625
2502.00,0.3621
2501.00,0.3617
2500.00,0.3613
2499.00,0.3609
2498.00,0.3604
2497.00,0.3600
2496.00,0.3596
2495.00,0.3591
2494.00,0.3587
2493.00,0.3581
2492.00,0.3576
2491.00,0.3571
2490.00,0.3566
2489.00,0.3561
2488.00,0.3556
2487.00,0.3551
2486.00,0.3547
2485.00,0.3542
2484.00,0.3537
2483.00,0.3532
2482.00,0.3527
2481.00,0.3523
2480.00,0.3520
2479.00,0.3516
2478.00,0.3514
2477.00,0.3511
2476.00,0.3508
2475.00,0.3505
2474.00,0.3503
2473.00,0.3501
2472.00,0.3499
2471.00,0.3497
2470.00,0.3496
2469.00,0.3494
2468.00,0.3493
2467.00,0.3492
2466.00,0.3490
2465.00,0.3488
2464.00,0.3485
2463.00,0.3483
2462.00,0.3481
2461.00,0.3479
2460.00,0.3477
2459.00,0.3474
2458.00,0.3472
2457.00,0.3469
2456.00,0.3467
2455.00,0.3464
2454.00,0.3462
2453.00,0.3459
2452.00,0.3457
2451.00,0.3455
2450.00,0.3453
2449.00,0.3451
2448.00,0.3449
2447.00,0.3447
2446.00,0.3446
2445.00,0.3446
2444.00,0.3446
2443.00,0.3446
2442.00,0.3446
2441.00,0.3446
2440.00,0.3447
2439.00,0.3448
2438.00,0.3449
2437.00,0.3450
2436.00,0.3451
2435.00,0.3453
2434.00,0.3454
2433.00,0.3455
2432.00,0.3456
2431.00,0.3457
2430.00,0.3457
2429.00,0.3459
2428.00,0.3460
2427.00,0.3462
2426.00,0.3464
2425.00,0.3465
2424.00,0.3465
2423.00,0.3466
2422.00,0.3466
2421.00,0.3466
2420.00,0.3466
2419.00,0.3466
2418.00,0.3465
2417.00,0.3464
2416.00,0.3463
2415.00,0.3463
2414.00,0.3462
2413.00,0.3462
2412.00,0.3461
2411.00,0.3461
2410.00,0.3460
2409.00,0.3459
2408.00,0.3459
2407.00,0.3458
2406.00,0.3458
2405.00,0.3458
2404.00,0.3457
2403.00,0.3456
2402.00,0.3455
2401.00,0.3455
2400.00,0.3454
2399.00,0.3453
2398.00,0.3453
2397.00,0.3452
2396.00,0.3452
2395.00,0.3450
2394.00,0.3449
2393.00,0.3448
2392.00,0.3447
2391.00,0.3447
2390.00,0.3447
2389.00,0.3446
2388.00,0.3445
2387.00,0.3445
2386.00,0.3445
2385.00,0.3445
2384.00,0.3445
2383.00,0.3445
2382.00,0.3445
2381.00,0.3446
2380.00,0.3447
2379.00,0.3447
2378.00,0.3447
2377.00,0.3446
2376.00,0.3445
2375.00,0.3445
2374.00,0.3444
2373.00,0.3444
2372.00,0.3443
2371.00,0.3442
2370.00,0.3442
2369.00,0.3441
2368.00,0.3441
2367.00,0.3440
2366.00,0.3440
2365.00,0.3440
2364.00,0.3439
2363.00,0.3439
2362.00,0.3439
2361.00,0.3439
2360.00,0.3439
2359.00,0.3439
2358.00,0.3439
2357.00,0.3439
2356.00,0.3439
2355.00,0.3436
2354.00,0.3434
2353.00,0.3432
2352.00,0.3432
2351.00,0.3432
2350.00,0.3430
2349.00,0.3429
2348.00,0.3428
2347.00,0.3427
2346.00,0.3426
2345.00,0.3424
2344.00,0.3423
2343.00,0.3423
2342.00,0.3423
2341.00,0.3423
2340.00,0.3422
2339.00,0.3421
2338.00,0.3419
2337.00,0.3418
2336.00,0.3417
2335.00,0.3416
2334.00,0.3414
2333.00,0.3412
2332.00,0.3409
2331.00,0.3406
2330.00,0.3403
2329.00,0.3401
2328.00,0.3399
2327.00,0.3396
2326.00,0.3394
2325.00,0.3392
2324.00,0.3390
2323.00,0.3388
2322.00,0.3385
2321.00,0.3383
2320.00,0.3380
2319.00,0.3377
2318.00,0.3374
2317.00,0.3372
2316.00,0.3370
2315.00,0.3367
2314.00,0.3364
2313.00,0.3361
2312.00,0.3358
2311.00,0.3354
2310.00,0.3351
2309.00,0.3348
2308.00,0.3345
2307.00,0.3341
2306.00,0.3338
2305.00,0.3335
2304.00,0.3332
2303.00,0.3329
2302.00,0.3326
2301.00,0.3323
2300.00,0.3321
2299.00,0.3318
2298.00,0.3315
2297.00,0.3312
2296.00,0.3309
2295.00,0.3306
2294.00,0.3302
2293.00,0.3299
2292.00,0.3295
2291.00,0.3292
2290.00,0.3289
2289.00,0.3286
2288.00,0.3283
2287.00,0.3280
2286.00,0.3278
2285.00,0.3275
2284.00,0.3273
2283.00,0.3271
2282.00,0.3268
2281.00,0.3266
2280.00,0.3263
2279.00,0.3260
2278.00,0.3257
2277.00,0.3254
2276.00,0.3251
2275.00,0.3249
2274.00,0.3247
2273.00,0.3245
2272.00,0.3244
2271.00,0.3242
2270.00,0.3240
2269.00,0.3239
2268.00,0.3237
2267.00,0.3235
2266.00,0.3232
2265.00,0.3230
2264.00,0.3228
2263.00,0.3226
2262.00,0.3224
2261.00,0.3222
2260.00,0.3221
2259.00,0.3218
2258.00,0.3216
2257.00,0.3212
2256.00,0.3209
2255.00,0.3205
2254.00,0.3202
2253.00,0.3199
2252.00,0.3196
2251.00,0.3193
2250.00,0.3190
2249.00,0.3187
2248.00,0.3185
2247.00,0.3183
2246.00,0.3180
2245.00,0.3178
2244.00,0.3176
2243.00,0.3175
2242.00,0.3174
2241.00,0.3174
2240.00,0.3172
2239.00,0.3171
2238.00,0.3169
2237.00,0.3168
2236.00,0.3168
2235.00,0.3167
2234.00,0.3167
2233.00,0.3167
2232.00,0.3166
2231.00,0.3166
2230.00,0.3166
2229.00,0.3166
2228.00,0.3166
2227.00,0.3165
2226.00,0.3164
2225.00,0.3162
2224.00,0.3161
2223.00,0.3160
2222.00,0.3158
2221.00,0.3157
2220.00,0.3155
2219.00,0.3154
2218.00,0.3152
2217.00,0.3151
2216.00,0.3150
2215.00,0.3148
2214.00,0.3146
2213.00,0.3145
2212.00,0.3143
2211.00,0.3142
2210.00,0.3141
2209.00,0.3140
2208.00,0.3139
2207.00,0.3139
2206.00,0.3138
2205.00,0.3138
2204.00,0.3138
2203.00,0.3138
2202.00,0.3138
2201.00,0.3138
2200.00,0.3139
2199.00,0.3140
2198.00,0.3141
2197.00,0.3141
2196.00,0.3142
2195.00,0.3143
2194.00,0.3144
2193.00,0.3145
2192.00,0.3146
2191.00,0.3147
2190.00,0.3147
2189.00,0.3147
2188.00,0.3148
2187.00,0.3148
2186.00,0.3148
2185.00,0.3148
2184.00,0.3147
2183.00,0.3146
2182.00,0.3145
2181.00,0.3143
2180.00,0.3141
2179.00,0.3139
2178.00,0.3137
2177.00,0.3134
2176.00,0.3132
2175.00,0.3130
2174.00,0.3128
2173.00,0.3126
2172.00,0.3124
2171.00,0.3123
2170.00,0.3121
2169.00,0.3120
2168.00,0.3119
2167.00,0.3117
2166.00,0.3116
2165.00,0.3115
2164.00,0.3114
2163.00,0.3114
2162.00,0.3113
2161.00,0.3113
2160.00,0.3113
2159.00,0.3113
2158.00,0.3113
2157.00,0.3112
2156.00,0.3111
2155.00,0.3110
2154.00,0.3108
2153.00,0.3108
2152.00,0.3107
2151.00,0.3106
2150.00,0.3104
2149.00,0.3102
2148.00,0.3099
2147.00,0.3096
2146.00,0.3091
2145.00,0.3087
2144.00,0.3082
2143.00,0.3078
2142.00,0.3073
2141.00,0.3068
2140.00,0.3062
2139.00,0.3057
2138.00,0.3052
2137.00,0.3048
2136.00,0.3045
2135.00,0.3042
2134.00,0.3039
2133.00,0.3037
2132.00,0.3035
2131.00,0.3033
2130.00,0.3031
2129.00,0.3030
2128.00,0.3028
2127.00,0.3027
2126.00,0.3026
2125.00,0.3025
2124.00,0.3026
2123.00,0.3026
2122.00,0.3026
2121.00,0.3026
2120.00,0.3026
2119.00,0.3026
2118.00,0.3025
2117.00,0.3025
2116.00,0.3025
2115.00,0.3025
2114.00,0.3025
2113.00,0.3025
2112.00,0.3025
2111.00,0.3024
2110.00,0.3023
2109.00,0.3021
2108.00,0.3020
2107.00,0.3018
2106.00,0.3016
2105.00,0.3015
2104.00,0.3013
2103.00,0.3012
2102.00,0.3010
2101.00,0.3008
2100.00,0.3006
2099.00,0.3005
2098.00,0.3004
2097.00,0.3003
2096.00,0.3002
2095.00,0.3001
2094.00,0.3000
2093.00,0.3000
2092.00,0.3000
2091.00,0.3000
2090.00,0.3000
2089.00,0.3000
2088.00,0.3001
2087.00,0.3002
2086.00,0.3002
2085.00,0.3003
2084.00,0.3004
2083.00,0.3004
2082.00,0.3004
2081.00,0.3005
2080.00,0.3006
2079.00,0.3007
2078.00,0.3008
2077.00,0.3009
2076.00,0.3010
2075.00,0.3011
2074.00,0.3012
2073.00,0.3012
2072.00,0.3012
2071.00,0.3012
2070.00,0.3012
2069.00,0.3012
2068.00,0.3012
2067.00,0.3011
2066.00,0.3011
2065.00,0.3012
2064.00,0.3013
2063.00,0.3014
2062.00,0.3014
2061.00,0.3015
2060.00,0.3016
2059.00,0.3016
2058.00,0.3016
2057.00,0.3017
2056.00,0.3017
2055.00,0.3018
2054.00,0.3019
2053.00,0.3020
2052.00,0.3021
2051.00,0.3023
2050.00,0.3024
2049.00,0.3026
2048.00,0.3029
2047.00,0.3031
2046.00,0.3033
2045.00,0.3036
2044.00,0.3038
2043.00,0.3040
2042.00,0.3041
2041.00,0.3043
2040.00,0.3045
2039.00,0.3047
2038.00,0.3048
2037.00,0.3049
2036.00,0.3051
2035.00,0.3052
2034.00,0.3052
2033.00,0.3053
2032.00,0.3053
2031.00,0.3052
2030.00,0.3051
2029.00,0.3050
2028.00,0.3049
2027.00,0.3048
2026.00,0.3047
2025.00,0.3045
2024.00,0.3043
2023.00,0.3040
2022.00,0.3037
2021.00,0.3033
2020.00,0.3029
2019.00,0.3023
2018.00,0.3017
2017.00,0.3012
2016.00,0.3007
2015.00,0.3002
2014.00,0.2997
2013.00,0.2992
2012.00,0.2987
2011.00,0.2983
2010.00,0.2978
2009.00,0.2975
2008.00,0.2972
2007.00,0.2969
2006.00,0.2966
2005.00,0.2963
2004.00,0.2962
2003.00,0.2961
2002.00,0.2960
2001.00,0.2959
2000.00,0.2958
1999.00,0.2957
1998.00,0.2956
1997.00,0.2955
1996.00,0.2955
1995.00,0.2953
1994.00,0.2951
1993.00,0.2948
1992.00,0.2946
1991.00,0.2946
1990.00,0.2946
1989.00,0.2946
1988.00,0.2945
1987.00,0.2945
1986.00,0.2944
1985.00,0.2944
1984.00,0.2943
1983.00,0.2943
1982.00,0.2942
1981.00,0.2941
1980.00,0.2941
1979.00,0.2940
1978.00,0.2939
1977.00,0.2939
1976.00,0.2939
1975.00,0.2939
1974.00,0.2938
1973.00,0.2938
1972.00,0.2938
1971.00,0.2938
1970.00,0.2938
1969.00,0.2937
1968.00,0.2936
1967.00,0.2936
1966.00,0.2937
1965.00,0.2940
1964.00,0.2942
1963.00,0.2944
1962.00,0.2945
1961.00,0.2947
1960.00,0.2948
1959.00,0.2950
1958.00,0.2951
1957.00,0.2952
1956.00,0.2953
1955.00,0.2955
1954.00,0.2956
1953.00,0.2958
1952.00,0.2959
1951.00,0.2960
1950.00,0.2960
1949.00,0.2961
1948.00,0.2963
1947.00,0.2965
1946.00,0.2966
1945.00,0.2967
1944.00,0.2969
1943.00,0.2971
1942.00,0.2976
1941.00,0.2982
1940.00,0.2989
1939.00,0.2993
1938.00,0.2995
1937.00,0.2996
1936.00,0.2995
1935.00,0.2993
1934.00,0.2991
1933.00,0.2989
1932.00,0.2989
1931.00,0.2988
1930.00,0.2989
1929.00,0.2989
1928.00,0.2991
1927.00,0.2992
1926.00,0.2993
1925.00,0.2994
1924.00,0.2994
1923.00,0.2996
1922.00,0.3000
1921.00,0.3006
1920.00,0.3012
1919.00,0.3016
1918.00,0.3019
1917.00,0.3024
1916.00,0.3029
1915.00,0.3031
1914.00,0.3033
1913.00,0.3033
1912.00,0.3033
1911.00,0.3032
1910.00,0.3032
1909.00,0.3032
1908.00,0.3033
1907.00,0.3035
1906.00,0.3035
1905.00,0.3036
1904.00,0.3037
1903.00,0.3037
1902.00,0.3036
1901.00,0.3036
1900.00,0.3037
1899.00,0.3037
1898.00,0.3038
1897.00,0.3038
1896.00,0.3039
1895.00,0.3039
1894.00,0.3041
1893.00,0.3044
1892.00,0.3046
1891.00,0.3046
1890.00,0.3045
1889.00,0.3047
1888.00,0.3050
1887.00,0.3052
1886.00,0.3053
1885.00,0.3053
1884.00,0.3054
1883.00,0.3055
1882.00,0.3055
1881.00,0.3056
1880.00,0.3056
1879.00,0.3056
1878.00,0.3055
1877.00,0.3055
1876.00,0.3054
1875.00,0.3053
1874.00,0.3051
1873.00,0.3048
1872.00,0.3046
1871.00,0.3041
1870.00,0.3036
1869.00,0.3033
1868.00,0.3032
1867.00,0.3033
1866.00,0.3033
1865.00,0.3033
1864.00,0.3031
1863.00,0.3027
1862.00,0.3024
1861.00,0.3021
1860.00,0.3018
1859.00,0.3015
1858.00,0.3012
1857.00,0.3010
1856.00,0.3008
1855.00,0.3006
1854.00,0.3004
1853.00,0.3002
1852.00,0.3001
1851.00,0.3000
1850.00,0.2997
1849.00,0.2994
1848.00,0.2993
1847.00,0.2992
1846.00,0.2991
1845.00,0.2990
1844.00,0.2990
1843.00,0.2992
1842.00,0.2994
1841.00,0.2995
1840.00,0.2994
1839.00,0.2993
1838.00,0.2991
1837.00,0.2990
1836.00,0.2990
1835.00,0.2990
1834.00,0.2990
1833.00,0.2990
1832.00,0.2990
1831.00,0.2989
1830.00,0.2988
1829.00,0.2988
1828.00,0.2989
1827.00,0.2987
1826.00,0.2983
1825.00,0.2980
1824.00,0.2981
1823.00,0.2982
1822.00,0.2983
1821.00,0.2984
1820.00,0.2984
1819.00,0.2984
1818.00,0.2983
1817.00,0.2983
1816.00,0.2984
1815.00,0.2986
1814.00,0.2986
1813.00,0.2986
1812.00,0.2986
1811.00,0.2988
1810.00,0.2990
1809.00,0.2994
1808.00,0.2998
1807.00,0.3002
1806.00,0.3005
1805.00,0.3009
1804.00,0.3012
1803.00,0.3013
1802.00,0.3016
1801.00,0.3023
1800.00,0.3033
1799.00,0.3042
1798.00,0.3049
1797.00,0.3053
1796.00,0.3058
1795.00,0.3062
1794.00,0.3066
1793.00,0.3069
1792.00,0.3073
1791.00,0.3077
1790.00,0.3083
1789.00,0.3089
1788.00,0.3093
1787.00,0.3095
1786.00,0.3095
1785.00,0.3097
1784.00,0.3101
1783.00,0.3105
1782.00,0.3109
1781.00,0.3112
1780.00,0.3116
1779.00,0.3122
1778.00,0.3127
1777.00,0.3132
1776.00,0.3138
1775.00,0.3144
1774.00,0.3149
1773.00,0.3157
1772.00,0.3166
1771.00,0.3175
1770.00,0.3182
1769.00,0.3188
1768.00,0.3196
1767.00,0.3207
1766.00,0.3220
1765.00,0.3233
1764.00,0.3244
1763.00,0.3256
1762.00,0.3271
1761.00,0.3291
1760.00,0.3313
1759.00,0.3334
1758.00,0.3356
1757.00,0.3383
1756.00,0.3416
1755.00,0.3449
1754.00,0.3480
1753.00,0.3509
1752.00,0.3540
1751.00,0.3575
1750.00,0.3612
1749.00,0.3649
1748.00,0.3684
1747.00,0.3714
1746.00,0.3737
1745.00,0.3757
1744.00,0.3774
1743.00,0.3789
1742.00,0.3802
1741.00,0.3812
1740.00,0.3817
1739.00,0.3817
1738.00,0.3815
1737.00,0.3810
1736.00,0.3802
1735.00,0.3788
1734.00,0.3775
1733.00,0.3768
1732.00,0.3767
1731.00,0.3764
1730.00,0.3763
1729.00,0.3764
1728.00,0.3771
1727.00,0.3779
1726.00,0.3790
1725.00,0.3805
1724.00,0.3825
1723.00,0.3850
1722.00,0.3879
1721.00,0.3913
1720.00,0.3952
1719.00,0.4002
1718.00,0.4069
1717.00,0.4158
1716.00,0.4259
1715.00,0.4366
1714.00,0.4481
1713.00,0.4599
1712.00,0.4714
1711.00,0.4823
1710.00,0.4922
1709.00,0.5001
1708.00,0.5050
1707.00,0.5067
1706.00,0.5050
1705.00,0.5005
1704.00,0.4942
1703.00,0.4872
1702.00,0.4786
1701.00,0.4666
1700.00,0.4526
1699.00,0.4409
1698.00,0.4322
1697.00,0.4243
1696.00,0.4157
1695.00,0.4078
1694.00,0.4020
1693.00,0.3976
1692.00,0.3937
1691.00,0.3897
1690.00,0.3861
1689.00,0.3832
1688.00,0.3811
1687.00,0.3795
1686.00,0.3779
1685.00,0.3758
1684.00,0.3737
1683.00,0.3723
1682.00,0.3712
1681.00,0.3702
1680.00,0.3693
1679.00,0.3686
1678.00,0.3680
1677.00,0.3675
1676.00,0.3669
1675.00,0.3662
1674.00,0.3658
1673.00,0.3655
1672.00,0.3652
1671.00,0.3646
1670.00,0.3641
1669.00,0.3638
1668.00,0.3637
1667.00,0.3636
1666.00,0.3635
1665.00,0.3634
1664.00,0.3633
1663.00,0.3631
1662.00,0.3631
1661.00,0.3633
1660.00,0.3635
1659.00,0.3636
1658.00,0.3638
1657.00,0.3641
1656.00,0.3645
1655.00,0.3649
1654.00,0.3652
1653.00,0.3664
1652.00,0.3678
1651.00,0.3686
1650.00,0.3690
1649.00,0.3694
1648.00,0.3698
1647.00,0.3706
1646.00,0.3719
1645.00,0.3735
1644.00,0.3749
1643.00,0.3760
1642.00,0.3771
1641.00,0.3784
1640.00,0.3801
1639.00,0.3817
1638.00,0.3833
1637.00,0.3853
1636.00,0.3878
1635.00,0.3905
1634.00,0.3929
1633.00,0.3949
1632.00,0.3967
1631.00,0.3985
1630.00,0.4004
1629.00,0.4029
1628.00,0.4057
1627.00,0.4086
1626.00,0.4115
1625.00,0.4149
1624.00,0.4189
1623.00,0.4234
1622.00,0.4285
1621.00,0.4339
1620.00,0.4399
1619.00,0.4464
1618.00,0.4544
1617.00,0.4647
1616.00,0.4764
1615.00,0.4874
1614.00,0.4972
1613.00,0.5067
1612.00,0.5168
1611.00,0.5269
1610.00,0.5369
1609.00,0.5469
1608.00,0.5566
1607.00,0.5653
1606.00,0.5728
1605.00,0.5795
1604.00,0.5860
1603.00,0.5920
1602.00,0.5977
1601.00,0.6040
1600.00,0.6112
1599.00,0.6191
1598.00,0.6278
1597.00,0.6387
1596.00,0.6531
1595.00,0.6712
1594.00,0.6938
1593.00,0.7229
1592.00,0.7603
1591.00,0.8074
1590.00,0.8665
1589.00,0.9417
1588.00,1.0381
1587.00,1.1591
1586.00,1.3074
1585.00,1.4878
1584.00,1.7058
1583.00,1.9434
1582.00,2.1213
1581.00,2.1525
1580.00,2.0568
1579.00,1.8849
1578.00,1.6741
1577.00,1.4647
1576.00,1.2878
1575.00,1.1575
1574.00,1.0687
1573.00,1.0076
1572.00,0.9622
1571.00,0.9262
1570.00,0.8996
1569.00,0.8868
1568.00,0.8895
1567.00,0.9065
1566.00,0.9386
1565.00,0.9889
1564.00,1.0556
1563.00,1.1282
1562.00,1.1940
1561.00,1.2437
1560.00,1.2530
1559.00,1.1863
1558.00,1.0803
1557.00,0.9902
1556.00,0.9166
1555.00,0.8472
1554.00,0.7833
1553.00,0.7315
1552.00,0.6924
1551.00,0.6609
1550.00,0.6341
1549.00,0.6124
1548.00,0.5962
1547.00,0.5836
1546.00,0.5723
1545.00,0.5625
1544.00,0.5549
1543.00,0.5491
1542.00,0.5442
1541.00,0.5394
1540.00,0.5344
1539.00,0.5293
1538.00,0.5248
1537.00,0.5213
1536.00,0.5184
1535.00,0.5154
1534.00,0.5122
1533.00,0.5100
1532.00,0.5094
1531.00,0.5096
1530.00,0.5102
1529.00,0.5111
1528.00,0.5120
1527.00,0.5123
1526.00,0.5121
1525.00,0.5119
1524.00,0.5120
1523.00,0.5120
1522.00,0.5123
1521.00,0.5138
1520.00,0.5166
1519.00,0.5196
1518.00,0.5226
1517.00,0.5261
1516.00,0.5296
1515.00,0.5322
1514.00,0.5336
1513.00,0.5343
1512.00,0.5349
1511.00,0.5357
1510.00,0.5371
1509.00,0.5402
1508.00,0.5461
1507.00,0.5562
1506.00,0.5695
1505.00,0.5824
1504.00,0.5927
1503.00,0.6009
1502.00,0.6082
1501.00,0.6157
1500.00,0.6231
1499.00,0.6302
1498.00,0.6376
1497.00,0.6468
1496.00,0.6577
1495.00,0.6687
1494.00,0.6793
1493.00,0.6903
1492.00,0.7024
1491.00,0.7158
1490.00,0.7314
1489.00,0.7496
1488.00,0.7697
1487.00,0.7909
1486.00,0.8143
1485.00,0.8414
1484.00,0.8723
1483.00,0.9078
1482.00,0.9501
1481.00,1.0006
1480.00,1.0575
1479.00,1.1192
1478.00,1.1890
1477.00,1.2726
1476.00,1.3713
1475.00,1.4843
1474.00,1.6204
1473.00,1.7993
1472.00,2.0310
1471.00,2.2980
1470.00,2.5830
1469.00,2.9018
1468.00,3.2431
1467.00,3.4608
1466.00,3.5872
1465.00,3.8925
1464.00,4.2551
1463.00,3.9511
1462.00,3.9797
1461.00,4.0545
1460.00,4.0615
1459.00,4.2640
1458.00,3.7238
1457.00,3.6515
1456.00,3.6154
1455.00,3.5115
1454.00,3.6114
1453.00,3.9709
1452.00,4.1665
1451.00,3.6916
1450.00,3.5024
1449.00,3.4622
1448.00,3.3011
1447.00,3.0670
1446.00,2.9062
1445.00,2.7935
1444.00,2.6616
1443.00,2.5093
1442.00,2.3714
1441.00,2.2537
1440.00,2.1426
1439.00,2.0307
1438.00,1.9154
1437.00,1.7948
1436.00,1.6766
1435.00,1.5724
1434.00,1.4822
1433.00,1.3974
1432.00,1.3132
1431.00,1.2320
1430.00,1.1586
1429.00,1.0957
1428.00,1.0441
1427.00,1.0030
1426.00,0.9696
1425.00,0.9411
1424.00,0.9173
1423.00,0.8993
1422.00,0.8861
1421.00,0.8750
1420.00,0.8641
1419.00,0.8538
1418.00,0.8453
1417.00,0.8386
1416.00,0.8332
1415.00,0.8291
1414.00,0.8261
1413.00,0.8239
1412.00,0.8225
1411.00,0.8218
1410.00,0.8209
1409.00,0.8186
1408.00,0.8141
1407.00,0.8072
1406.00,0.7974
1405.00,0.7850
1404.00,0.7717
1403.00,0.7595
1402.00,0.7489
1401.00,0.7390
1400.00,0.7300
1399.00,0.7229
1398.00,0.7182
1397.00,0.7158
1396.00,0.7162
1395.00,0.7203
1394.00,0.7288
1393.00,0.7418
1392.00,0.7606
1391.00,0.7871
1390.00,0.8239
1389.00,0.8742
1388.00,0.9423
1387.00,1.0293
1386.00,1.1293
1385.00,1.2343
1384.00,1.3422
1383.00,1.4572
1382.00,1.5838
1381.00,1.7252
1380.00,1.8840
1379.00,2.0498
1378.00,2.1832
1377.00,2.2326
1376.00,2.1811
1375.00,2.0508
1374.00,1.8854
1373.00,1.7279
1372.00,1.5982
1371.00,1.4973
1370.00,1.4222
1369.00,1.3712
1368.00,1.3402
1367.00,1.3184
1366.00,1.2907
1365.00,1.2456
1364.00,1.1825
1363.00,1.1113
1362.00,1.0450
1361.00,0.9914
1360.00,0.9512
1359.00,0.9217
1358.00,0.9002
1357.00,0.8849
1356.00,0.8746
1355.00,0.8682
1354.00,0.8645
1353.00,0.8623
1352.00,0.8607
1351.00,0.8589
1350.00,0.8566
1349.00,0.8537
1348.00,0.8505
1347.00,0.8475
1346.00,0.8448
1345.00,0.8425
1344.00,0.8404
1343.00,0.8382
1342.00,0.8351
1341.00,0.8301
1340.00,0.8228
1339.00,0.8134
1338.00,0.8021
1337.00,0.7894
1336.00,0.7757
1335.00,0.7615
1334.00,0.7475
1333.00,0.7344
1332.00,0.7228
1331.00,0.7130
1330.00,0.7053
1329.00,0.6994
1328.00,0.6949
1327.00,0.6919
1326.00,0.6901
1325.00,0.6895
1324.00,0.6896
1323.00,0.6903
1322.00,0.6911
1321.00,0.6918
1320.00,0.6924
1319.00,0.6933
1318.00,0.6947
1317.00,0.6966
1316.00,0.6991
1315.00,0.7021
1314.00,0.7055
1313.00,0.7094
1312.00,0.7136
1311.00,0.7178
1310.00,0.7215
1309.00,0.7246
1308.00,0.7272
1307.00,0.7294
1306.00,0.7308
1305.00,0.7308
1304.00,0.7293
1303.00,0.7262
1302.00,0.7221
1301.00,0.7174
1300.00,0.7122
1299.00,0.7068
1298.00,0.7012
1297.00,0.6954
1296.00,0.6899
1295.00,0.6849
1294.00,0.6804
1293.00,0.6763
1292.00,0.6725
1291.00,0.6688
1290.00,0.6653
1289.00,0.6619
1288.00,0.6586
1287.00,0.6554
1286.00,0.6521
1285.00,0.6483
1284.00,0.6443
1283.00,0.6404
1282.00,0.6369
1281.00,0.6340
1280.00,0.6317
1279.00,0.6296
1278.00,0.6276
1277.00,0.6253
1276.00,0.6230
1275.00,0.6207
1274.00,0.6187
1273.00,0.6169
1272.00,0.6156
1271.00,0.6148
1270.00,0.6145
1269.00,0.6139
1268.00,0.6126
1267.00,0.6103
1266.00,0.6070
1265.00,0.6029
1264.00,0.5989
1263.00,0.5954
1262.00,0.5928
1261.00,0.5908
1260.00,0.5892
1259.00,0.5878
1258.00,0.5862
1257.00,0.5842
1256.00,0.5821
1255.00,0.5799
1254.00,0.5782
1253.00,0.5766
1252.00,0.5752
1251.00,0.5738
1250.00,0.5725
1249.00,0.5710
1248.00,0.5693
1247.00,0.5673
1246.00,0.5651
1245.00,0.5624
1244.00,0.5594
1243.00,0.5563
1242.00,0.5531
1241.00,0.5498
1240.00,0.5466
1239.00,0.5439
1238.00,0.5416
1237.00,0.5397
1236.00,0.5380
1235.00,0.5368
1234.00,0.5362
1233.00,0.5361
1232.00,0.5364
1231.00,0.5370
1230.00,0.5376
1229.00,0.5376
1228.00,0.5366
1227.00,0.5347
1226.00,0.5319
1225.00,0.5285
1224.00,0.5251
1223.00,0.5221
1222.00,0.5198
1221.00,0.5181
1220.00,0.5169
1219.00,0.5161
1218.00,0.5158
1217.00,0.5158
1216.00,0.5162
1215.00,0.5171
1214.00,0.5183
1213.00,0.5192
1212.00,0.5193
1211.00,0.5186
1210.00,0.5175
1209.00,0.5161
1208.00,0.5146
1207.00,0.5129
1206.00,0.5112
1205.00,0.5094
1204.00,0.5077
1203.00,0.5063
1202.00,0.5052
1201.00,0.5043
1200.00,0.5037
1199.00,0.5034
1198.00,0.5033
1197.00,0.5029
1196.00,0.5023
1195.00,0.5015
1194.00,0.5008
1193.00,0.5001
1192.00,0.4993
1191.00,0.4986
1190.00,0.4981
1189.00,0.4976
1188.00,0.4971
1187.00,0.4966
1186.00,0.4962
1185.00,0.4957
1184.00,0.4953
1183.00,0.4951
1182.00,0.4953
1181.00,0.4957
1180.00,0.4964
1179.00,0.4975
1178.00,0.4989
1177.00,0.5006
1176.00,0.5027
1175.00,0.5057
1174.00,0.5095
1173.00,0.5141
1172.00,0.5188
1171.00,0.5231
1170.00,0.5263
1169.00,0.5277
1168.00,0.5277
1167.00,0.5267
1166.00,0.5254
1165.00,0.5242
1164.00,0.5233
1163.00,0.5231
1162.00,0.5235
1161.00,0.5245
1160.00,0.5259
1159.00,0.5274
1158.00,0.5287
1157.00,0.5296
1156.00,0.5300
1155.00,0.5297
1154.00,0.5289
1153.00,0.5274
1152.00,0.5255
1151.00,0.5232
1150.00,0.5208
1149.00,0.5184
1148.00,0.5160
1147.00,0.5139
1146.00,0.5122
1145.00,0.5108
1144.00,0.5098
1143.00,0.5096
1142.00,0.5104
1141.00,0.5124
1140.00,0.5157
1139.00,0.5204
1138.00,0.5263
1137.00,0.5332
1136.00,0.5411
1135.00,0.5494
1134.00,0.5569
1133.00,0.5614
1132.00,0.5617
1131.00,0.5576
1130.00,0.5505
1129.00,0.5424
1128.00,0.5349
1127.00,0.5291
1126.00,0.5250
1125.00,0.5222
1124.00,0.5204
1123.00,0.5190
1122.00,0.5176
1121.00,0.5160
1120.00,0.5146
1119.00,0.5142
1118.00,0.5150
1117.00,0.5172
1116.00,0.5204
1115.00,0.5236
1114.00,0.5255
1113.00,0.5247
1112.00,0.5208
1111.00,0.5149
1110.00,0.5083
1109.00,0.5023
1108.00,0.4976
1107.00,0.4944
1106.00,0.4924
1105.00,0.4913
1104.00,0.4906
1103.00,0.4902
1102.00,0.4897
1101.00,0.4888
1100.00,0.4876
1099.00,0.4863
1098.00,0.4851
1097.00,0.4841
1096.00,0.4834
1095.00,0.4832
1094.00,0.4833
1093.00,0.4836
1092.00,0.4840
1091.00,0.4845
1090.00,0.4854
1089.00,0.4869
1088.00,0.4891
1087.00,0.4921
1086.00,0.4960
1085.00,0.5006
1084.00,0.5059
1083.00,0.5122
1082.00,0.5193
1081.00,0.5269
1080.00,0.5346
1079.00,0.5417
1078.00,0.5473
1077.00,0.5503
1076.00,0.5501
1075.00,0.5471
1074.00,0.5420
1073.00,0.5358
1072.00,0.5295
1071.00,0.5239
1070.00,0.5195
1069.00,0.5162
1068.00,0.5138
1067.00,0.5120
1066.00,0.5107
1065.00,0.5098
1064.00,0.5093
1063.00,0.5092
1062.00,0.5095
1061.00,0.5100
1060.00,0.5106
1059.00,0.5112
1058.00,0.5115
1057.00,0.5114
1056.00,0.5108
1055.00,0.5102
1054.00,0.5096
1053.00,0.5092
1052.00,0.5092
1051.00,0.5099
1050.00,0.5114
1049.00,0.5133
1048.00,0.5153
1047.00,0.5171
1046.00,0.5186
1045.00,0.5194
1044.00,0.5196
1043.00,0.5196
1042.00,0.5193
1041.00,0.5190
1040.00,0.5185
1039.00,0.5179
1038.00,0.5172
1037.00,0.5166
1036.00,0.5162
1035.00,0.5164
1034.00,0.5173
1033.00,0.5188
1032.00,0.5206
1031.00,0.5225
1030.00,0.5241
1029.00,0.5249
1028.00,0.5246
1027.00,0.5232
1026.00,0.5202
1025.00,0.5157
1024.00,0.5101
1023.00,0.5043
1022.00,0.4988
1021.00,0.4939
1020.00,0.4895
1019.00,0.4858
1018.00,0.4826
1017.00,0.4796
1016.00,0.4770
1015.00,0.4746
1014.00,0.4726
1013.00,0.4707
1012.00,0.4690
1011.00,0.4677
1010.00,0.4669
1009.00,0.4667
1008.00,0.4669
1007.00,0.4675
1006.00,0.4685
1005.00,0.4698
1004.00,0.4713
1003.00,0.4729
1002.00,0.4745
1001.00,0.4760
1000.00,0.4771
999.00,0.4779
998.00,0.4783
997.00,0.4779
996.00,0.4765
995.00,0.4743
994.00,0.4715
993.00,0.4685
992.00,0.4654
991.00,0.4623
990.00,0.4594
989.00,0.4568
988.00,0.4548
987.00,0.4536
986.00,0.4532
985.00,0.4536
984.00,0.4547
983.00,0.4563
982.00,0.4585
981.00,0.4607
980.00,0.4630
979.00,0.4653
978.00,0.4676
977.00,0.4696
976.00,0.4712
975.00,0.4723
974.00,0.4729
973.00,0.4732
972.00,0.4732
971.00,0.4731
970.00,0.4730
969.00,0.4727
968.00,0.4724
967.00,0.4720
966.00,0.4715
965.00,0.4707
964.00,0.4696
963.00,0.4683
962.00,0.4668
961.00,0.4652
960.00,0.4638
959.00,0.4627
958.00,0.4620
957.00,0.4616
956.00,0.4613
955.00,0.4608
954.00,0.4600
953.00,0.4590
952.00,0.4580
951.00,0.4572
950.00,0.4567
949.00,0.4564
948.00,0.4564
947.00,0.4568
946.00,0.4577
945.00,0.4589
944.00,0.4603
943.00,0.4618
942.00,0.4634
941.00,0.4648
940.00,0.4661
939.00,0.4670
938.00,0.4675
937.00,0.4674
936.00,0.4665
935.00,0.4651
934.00,0.4633
933.00,0.4611
932.00,0.4587
931.00,0.4563
930.00,0.4542
929.00,0.4526
928.00,0.4517
927.00,0.4520
926.00,0.4536
925.00,0.4565
924.00,0.4607
923.00,0.4657
922.00,0.4706
921.00,0.4737
920.00,0.4735
919.00,0.4697
918.00,0.4630
917.00,0.4547
916.00,0.4462
915.00,0.4385
914.00,0.4321
913.00,0.4271
912.00,0.4233
911.00,0.4205
910.00,0.4184
909.00,0.4168
908.00,0.4155
907.00,0.4145
906.00,0.4139
905.00,0.4136
904.00,0.4137
903.00,0.4144
902.00,0.4156
901.00,0.4174
900.00,0.4198
899.00,0.4227
898.00,0.4260
897.00,0.4294
896.00,0.4329
895.00,0.4366
894.00,0.4405
893.00,0.4445
892.00,0.4485
891.00,0.4522
890.00,0.4552
889.00,0.4569
888.00,0.4570
887.00,0.4556
886.00,0.4533
885.00,0.4509
884.00,0.4491
883.00,0.4484
882.00,0.4488
881.00,0.4499
880.00,0.4515
879.00,0.4530
878.00,0.4541
877.00,0.4542
876.00,0.4535
875.00,0.4527
874.00,0.4522
873.00,0.4521
872.00,0.4523
871.00,0.4529
870.00,0.4539
869.00,0.4554
868.00,0.4572
867.00,0.4597
866.00,0.4629
865.00,0.4667
864.00,0.4706
863.00,0.4736
862.00,0.4746
861.00,0.4727
860.00,0.4680
859.00,0.4614
858.00,0.4547
857.00,0.4488
856.00,0.4443
855.00,0.4411
854.00,0.4389
853.00,0.4372
852.00,0.4357
851.00,0.4344
850.00,0.4332
849.00,0.4318
848.00,0.4298
847.00,0.4272
846.00,0.4245
845.00,0.4218
844.00,0.4193
843.00,0.4174
842.00,0.4167
841.00,0.4175
840.00,0.4203
839.00,0.4252
838.00,0.4315
837.00,0.4379
836.00,0.4424
835.00,0.4437
834.00,0.4417
833.00,0.4376
832.00,0.4333
831.00,0.4304
830.00,0.4299
829.00,0.4314
828.00,0.4347
827.00,0.4392
826.00,0.4444
825.00,0.4500
824.00,0.4561
823.00,0.4625
822.00,0.4694
821.00,0.4762
820.00,0.4828
819.00,0.4891
818.00,0.4948
817.00,0.4993
816.00,0.5020
815.00,0.5026
814.00,0.5011
813.00,0.4974
812.00,0.4921
811.00,0.4860
810.00,0.4799
809.00,0.4741
808.00,0.4686
807.00,0.4635
806.00,0.4589
805.00,0.4544
804.00,0.4495
803.00,0.4441
802.00,0.4384
801.00,0.4326
800.00,0.4274
799.00,0.4233
798.00,0.4203
797.00,0.4181
796.00,0.4164
795.00,0.4152
794.00,0.4147
793.00,0.4148
792.00,0.4156
791.00,0.4172
790.00,0.4195
789.00,0.4222
788.00,0.4252
787.00,0.4286
786.00,0.4324
785.00,0.4368
784.00,0.4413
783.00,0.4457
782.00,0.4496
781.00,0.4526
780.00,0.4548
779.00,0.4565
778.00,0.4582
777.00,0.4598
776.00,0.4616
775.00,0.4634
774.00,0.4654
773.00,0.4675
772.00,0.4697
771.00,0.4723
770.00,0.4753
769.00,0.4787
768.00,0.4822
767.00,0.4853
766.00,0.4878
765.00,0.4897
764.00,0.4912
763.00,0.4930
762.00,0.4955
761.00,0.4988
760.00,0.5025
759.00,0.5065
758.00,0.5103
757.00,0.5135
756.00,0.5160
755.00,0.5184
754.00,0.5212
753.00,0.5247
752.00,0.5289
751.00,0.5337
750.00,0.5389
749.00,0.5438
748.00,0.5482
747.00,0.5519
746.00,0.5552
745.00,0.5587
744.00,0.5626
743.00,0.5674
742.00,0.5727
741.00,0.5780
740.00,0.5828
739.00,0.5871
738.00,0.5910
737.00,0.5946
736.00,0.5983
735.00,0.6026
734.00,0.6078
733.00,0.6140
732.00,0.6214
731.00,0.6306
730.00,0.6422
729.00,0.6568
728.00,0.6748
727.00,0.6969
726.00,0.7233
725.00,0.7529
724.00,0.7828
723.00,0.8079
722.00,0.8203
721.00,0.8128
720.00,0.7837
719.00,0.7402
718.00,0.6925
717.00,0.6483
716.00,0.6113
715.00,0.5821
714.00,0.5595
713.00,0.5416
712.00,0.5267
711.00,0.5142
710.00,0.5038
709.00,0.4953
708.00,0.4883
707.00,0.4827
706.00,0.4779
705.00,0.4735
704.00,0.4697
703.00,0.4669
702.00,0.4655
701.00,0.4649
700.00,0.4634
699.00,0.4588
698.00,0.4493
697.00,0.4353
696.00,0.4192
695.00,0.4040
694.00,0.3915
693.00,0.3822
692.00,0.3757
691.00,0.3711
690.00,0.3678
689.00,0.3650
688.00,0.3626
687.00,0.3607
686.00,0.3593
685.00,0.3580
684.00,0.3571
683.00,0.3565
682.00,0.3563
681.00,0.3560
680.00,0.3556
679.00,0.3551
678.00,0.3549
677.00,0.3550
676.00,0.3553
675.00,0.3557
674.00,0.3560
673.00,0.3560
672.00,0.3560
671.00,0.3564
670.00,0.3574
669.00,0.3582
668.00,0.3581
667.00,0.3575
666.00,0.3574
665.00,0.3577
664.00,0.3583
663.00,0.3591
662.00,0.3602
661.00,0.3613
660.00,0.3622
659.00,0.3631
658.00,0.3641
657.00,0.3651
656.00,0.3659
655.00,0.3666
654.00,0.3674
653.00,0.3682
652.00,0.3690
651.00,0.3697
650.00,0.3704
649.00,0.3711
648.00,0.3718
647.00,0.3726
646.00,0.3738
645.00,0.3753
644.00,0.3770
643.00,0.3787
642.00,0.3803
641.00,0.3815
640.00,0.3825
639.00,0.3835
638.00,0.3843
637.00,0.3850
636.00,0.3854
635.00,0.3858
634.00,0.3861
633.00,0.3863
632.00,0.3865
631.00,0.3871
630.00,0.3884
629.00,0.3899
628.00,0.3914
627.00,0.3931
626.00,0.3952
625.00,0.3975
624.00,0.3998
623.00,0.4017
622.00,0.4034
621.00,0.4051
620.00,0.4068
619.00,0.4083
618.00,0.4098
617.00,0.4107
616.00,0.4111
615.00,0.4108
614.00,0.4098
613.00,0.4083
612.00,0.4066
611.00,0.4052
610.00,0.4043
609.00,0.4037
608.00,0.4029
607.00,0.4019
606.00,0.4007
605.00,0.3995
604.00,0.3981
603.00,0.3970
602.00,0.3964
601.00,0.3962
600.00,0.3964
599.00,0.3968
598.00,0.3973
597.00,0.3981
596.00,0.3991
595.00,0.4005
594.00,0.4021
593.00,0.4038
592.00,0.4056
591.00,0.4074
590.00,0.4091
589.00,0.4108
588.00,0.4125
587.00,0.4147
586.00,0.4169
585.00,0.4191
584.00,0.4213
583.00,0.4240
582.00,0.4272
581.00,0.4304
580.00,0.4335
579.00,0.4364
578.00,0.4392
577.00,0.4415
576.00,0.4433
575.00,0.4452
574.00,0.4472
573.00,0.4491
572.00,0.4509
571.00,0.4528
570.00,0.4551
569.00,0.4576
568.00,0.4595
567.00,0.4607
566.00,0.4616
565.00,0.4627
564.00,0.4638
563.00,0.4649
562.00,0.4656
561.00,0.4661
560.00,0.4667
559.00,0.4676
558.00,0.4692
557.00,0.4709
556.00,0.4724
555.00,0.4734
554.00,0.4739
553.00,0.4742
552.00,0.4746
551.00,0.4754
550.00,0.4767
