Created as New Dataset,
cm-1,A
4000.00,0.3989
3999.00,0.3986
3998.00,0.3984
3997.00,0.3981
3996.00,0.3978
3995.00,0.3973
3994.00,0.3969
3993.00,0.3965
3992.00,0.3962
3991.00,0.3959
3990.00,0.3955
3989.00,0.3951
3988.00,0.3947
3987.00,0.3943
3986.00,0.3939
3985.00,0.3935
3984.00,0.3931
3983.00,0.3927
3982.00,0.3924
3981.00,0.3920
3980.00,0.3917
3979.00,0.3913
3978.00,0.3910
3977.00,0.3907
3976.00,0.3904
3975.00,0.3902
3974.00,0.3900
3973.00,0.3898
3972.00,0.3895
3971.00,0.3893
3970.00,0.3891
3969.00,0.3889
3968.00,0.3887
3967.00,0.3886
3966.00,0.3884
3965.00,0.3882
3964.00,0.3880
3963.00,0.3878
3962.00,0.3876
3961.00,0.3875
3960.00,0.3873
3959.00,0.3871
3958.00,0.3869
3957.00,0.3867
3956.00,0.3866
3955.00,0.3865
3954.00,0.3863
3953.00,0.3861
3952.00,0.3859
3951.00,0.3857
3950.00,0.3855
3949.00,0.3853
3948.00,0.3851
3947.00,0.3849
3946.00,0.3847
3945.00,0.3845
3944.00,0.3844
3943.00,0.3842
3942.00,0.3841
3941.00,0.3840
3940.00,0.3840
3939.00,0.3839
3938.00,0.3838
3937.00,0.3838
3936.00,0.3838
3935.00,0.3837
3934.00,0.3837
3933.00,0.3836
3932.00,0.3836
3931.00,0.3837
3930.00,0.3837
3929.00,0.3838
3928.00,0.3837
3927.00,0.3837
3926.00,0.3838
3925.00,0.3838
3924.00,0.3839
3923.00,0.3839
3922.00,0.3839
3921.00,0.3838
3920.00,0.3837
3919.00,0.3836
3918.00,0.3835
3917.00,0.3834
3916.00,0.3833
3915.00,0.3831
3914.00,0.3830
3913.00,0.3829
3912.00,0.3828
3911.00,0.3827
3910.00,0.3826
3909.00,0.3825
3908.00,0.3824
3907.00,0.3823
3906.00,0.3822
3905.00,0.3822
3904.00,0.3821
3903.00,0.3821
3902.00,0.3820
3901.00,0.3819
3900.00,0.3819
3899.00,0.3820
3898.00,0.3821
3897.00,0.3822
3896.00,0.3822
3895.00,0.3821
3894.00,0.3819
3893.00,0.3818
3892.00,0.3817
3891.00,0.3816
3890.00,0.3815
3889.00,0.3815
3888.00,0.3813
3887.00,0.3812
3886.00,0.3811
3885.00,0.3812
3884.00,0.3813
3883.00,0.3812
3882.00,0.3809
3881.00,0.3808
3880.00,0.3809
3879.00,0.3810
3878.00,0.3809
3877.00,0.3807
3876.00,0.3804
3875.00,0.3802
3874.00,0.3802
3873.00,0.3801
3872.00,0.3799
3871.00,0.3794
3870.00,0.3791
3869.00,0.3791
3868.00,0.3792
3867.00,0.3792
3866.00,0.3790
3865.00,0.3788
3864.00,0.3787
3863.00,0.3786
3862.00,0.3785
3861.00,0.3783
3860.00,0.3783
3859.00,0.3783
3858.00,0.3784
3857.00,0.3785
3856.00,0.3786
3855.00,0.3784
3854.00,0.3782
3853.00,0.3781
3852.00,0.3781
3851.00,0.3781
3850.00,0.3780
3849.00,0.3780
3848.00,0.3780
3847.00,0.3781
3846.00,0.3780
3845.00,0.3778
3844.00,0.3776
3843.00,0.3774
3842.00,0.3774
3841.00,0.3773
3840.00,0.3773
3839.00,0.3773
3838.00,0.3772
3837.00,0.3770
3836.00,0.3768
3835.00,0.3766
3834.00,0.3765
3833.00,0.3763
3832.00,0.3762
3831.00,0.3761
3830.00,0.3760
3829.00,0.3759
3828.00,0.3757
3827.00,0.3756
3826.00,0.3756
3825.00,0.3757
3824.00,0.3757
3823.00,0.3756
3822.00,0.3754
3821.00,0.3755
3820.00,0.3756
3819.00,0.3757
3818.00,0.3754
3817.00,0.3751
3816.00,0.3749
3815.00,0.3750
3814.00,0.3751
3813.00,0.3748
3812.00,0.3745
3811.00,0.3743
3810.00,0.3741
3809.00,0.3739
3808.00,0.3736
3807.00,0.3733
3806.00,0.3731
3805.00,0.3730
3804.00,0.3728
3803.00,0.3724
3802.00,0.3722
3801.00,0.3722
3800.00,0.3722
3799.00,0.3719
3798.00,0.3715
3797.00,0.3712
3796.00,0.3710
3795.00,0.3710
3794.00,0.3708
3793.00,0.3706
3792.00,0.3704
3791.00,0.3703
3790.00,0.3702
3789.00,0.3701
3788.00,0.3699
3787.00,0.3698
3786.00,0.3696
3785.00,0.3696
3784.00,0.3695
3783.00,0.3695
3782.00,0.3693
3781.00,0.3692
3780.00,0.3691
3779.00,0.3691
3778.00,0.3691
3777.00,0.3690
3776.00,0.3687
3775.00,0.3684
3774.00,0.3682
3773.00,0.3681
3772.00,0.3679
3771.00,0.3676
3770.00,0.3674
3769.00,0.3672
3768.00,0.3670
3767.00,0.3667
3766.00,0.3664
3765.00,0.3662
3764.00,0.3661
3763.00,0.3660
3762.00,0.3658
3761.00,0.3655
3760.00,0.3654
3759.00,0.3652
3758.00,0.3650
3757.00,0.3648
3756.00,0.3646
3755.00,0.3644
3754.00,0.3643
3753.00,0.3641
3752.00,0.3640
3751.00,0.3639
3750.00,0.3638
3749.00,0.3637
3748.00,0.3637
3747.00,0.3637
3746.00,0.3636
3745.00,0.3634
3744.00,0.3633
3743.00,0.3634
3742.00,0.3633
3741.00,0.3631
3740.00,0.3629
3739.00,0.3629
3738.00,0.3628
3737.00,0.3626
3736.00,0.3624
3735.00,0.3623
3734.00,0.3623
3733.00,0.3622
3732.00,0.3619
3731.00,0.3618
3730.00,0.3616
3729.00,0.3614
3728.00,0.3611
3727.00,0.3609
3726.00,0.3608
3725.00,0.3607
3724.00,0.3604
3723.00,0.3602
3722.00,0.3600
3721.00,0.3598
3720.00,0.3597
3719.00,0.3596
3718.00,0.3594
3717.00,0.3593
3716.00,0.3593
3715.00,0.3592
3714.00,0.3591
3713.00,0.3590
3712.00,0.3589
3711.00,0.3589
3710.00,0.3590
3709.00,0.3590
3708.00,0.3590
3707.00,0.3590
3706.00,0.3590
3705.00,0.3591
3704.00,0.3591
3703.00,0.3591
3702.00,0.3590
3701.00,0.3590
3700.00,0.3589
3699.00,0.3589
3698.00,0.3588
3697.00,0.3587
3696.00,0.3587
3695.00,0.3587
3694.00,0.3586
3693.00,0.3585
3692.00,0.3585
3691.00,0.3586
3690.00,0.3585
3689.00,0.3584
3688.00,0.3583
3687.00,0.3582
3686.00,0.3582
3685.00,0.3582
3684.00,0.3582
3683.00,0.3582
3682.00,0.3581
3681.00,0.3580
3680.00,0.3579
3679.00,0.3578
3678.00,0.3577
3677.00,0.3575
3676.00,0.3573
3675.00,0.3574
3674.00,0.3575
3673.00,0.3576
3672.00,0.3574
3671.00,0.3572
3670.00,0.3573
3669.00,0.3575
3668.00,0.3576
3667.00,0.3575
3666.00,0.3574
3665.00,0.3574
3664.00,0.3576
3663.00,0.3577
3662.00,0.3578
3661.00,0.3578
3660.00,0.3578
3659.00,0.3578
3658.00,0.3578
3657.00,0.3579
3656.00,0.3579
3655.00,0.3581
3654.00,0.3582
3653.00,0.3581
3652.00,0.3581
3651.00,0.3581
3650.00,0.3583
3649.00,0.3585
3648.00,0.3586
3647.00,0.3586
3646.00,0.3587
3645.00,0.3588
3644.00,0.3590
3643.00,0.3591
3642.00,0.3593
3641.00,0.3594
3640.00,0.3595
3639.00,0.3596
3638.00,0.3597
3637.00,0.3598
3636.00,0.3600
3635.00,0.3601
3634.00,0.3602
3633.00,0.3604
3632.00,0.3606
3631.00,0.3608
3630.00,0.3611
3629.00,0.3615
3628.00,0.3621
3627.00,0.3625
3626.00,0.3628
3625.00,0.3630
3624.00,0.3633
3623.00,0.3636
3622.00,0.3638
3621.00,0.3637
3620.00,0.3636
3619.00,0.3634
3618.00,0.3632
3617.00,0.3629
3616.00,0.3627
3615.00,0.3624
3614.00,0.3623
3613.00,0.3623
3612.00,0.3624
3611.00,0.3624
3610.00,0.3624
3609.00,0.3625
3608.00,0.3625
3607.00,0.3625
3606.00,0.3625
3605.00,0.3623
3604.00,0.3621
3603.00,0.3619
3602.00,0.3616
3601.00,0.3613
3600.00,0.3609
3599.00,0.3604
3598.00,0.3599
3597.00,0.3592
3596.00,0.3586
3595.00,0.3579
3594.00,0.3574
3593.00,0.3569
3592.00,0.3565
3591.00,0.3562
3590.00,0.3558
3589.00,0.3555
3588.00,0.3553
3587.00,0.3552
3586.00,0.3552
3585.00,0.3551
3584.00,0.3549
3583.00,0.3548
3582.00,0.3548
3581.00,0.3548
3580.00,0.3548
3579.00,0.3547
3578.00,0.3547
3577.00,0.3546
3576.00,0.3546
3575.00,0.3547
3574.00,0.3547
3573.00,0.3547
3572.00,0.3548
3571.00,0.3548
3570.00,0.3549
3569.00,0.3550
3568.00,0.3551
3567.00,0.3553
3566.00,0.3555
3565.00,0.3557
3564.00,0.3559
3563.00,0.3560
3562.00,0.3563
3561.00,0.3565
3560.00,0.3568
3559.00,0.3570
3558.00,0.3572
3557.00,0.3575
3556.00,0.3577
3555.00,0.3580
3554.00,0.3583
3553.00,0.3587
3552.00,0.3590
3551.00,0.3594
3550.00,0.3598
3549.00,0.3602
3548.00,0.3605
3547.00,0.3609
3546.00,0.3614
3545.00,0.3619
3544.00,0.3623
3543.00,0.3627
3542.00,0.3630
3541.00,0.3633
3540.00,0.3636
3539.00,0.3639
3538.00,0.3642
3537.00,0.3645
3536.00,0.3648
3535.00,0.3650
3534.00,0.3653
3533.00,0.3656
3532.00,0.3658
3531.00,0.3661
3530.00,0.3663
3529.00,0.3665
3528.00,0.3668
3527.00,0.3670
3526.00,0.3673
3525.00,0.3676
3524.00,0.3678
3523.00,0.3681
3522.00,0.3685
3521.00,0.3689
3520.00,0.3693
3519.00,0.3697
3518.00,0.3701
3517.00,0.3704
3516.00,0.3708
3515.00,0.3712
3514.00,0.3716
3513.00,0.3721
3512.00,0.3726
3511.00,0.3731
3510.00,0.3736
3509.00,0.3740
3508.00,0.3745
3507.00,0.3749
3506.00,0.3754
3505.00,0.3759
3504.00,0.3764
3503.00,0.3769
3502.00,0.3773
3501.00,0.3777
3500.00,0.3782
3499.00,0.3786
3498.00,0.3792
3497.00,0.3798
3496.00,0.3804
3495.00,0.3810
3494.00,0.3816
3493.00,0.3822
3492.00,0.3829
3491.00,0.3835
3490.00,0.3842
3489.00,0.3849
3488.00,0.3856
3487.00,0.3864
3486.00,0.3871
3485.00,0.3878
3484.00,0.3884
3483.00,0.3890
3482.00,0.3895
3481.00,0.3900
3480.00,0.3905
3479.00,0.3910
3478.00,0.3914
3477.00,0.3919
3476.00,0.3924
3475.00,0.3929
3474.00,0.3934
3473.00,0.3940
3472.00,0.3945
3471.00,0.3951
3470.00,0.3956
3469.00,0.3961
3468.00,0.3967
3467.00,0.3971
3466.00,0.3976
3465.00,0.3980
3464.00,0.3985
3463.00,0.3991
3462.00,0.3997
3461.00,0.4003
3460.00,0.4009
3459.00,0.4015
3458.00,0.4021
3457.00,0.4027
3456.00,0.4033
3455.00,0.4039
3454.00,0.4044
3453.00,0.4050
3452.00,0.4057
3451.00,0.4063
3450.00,0.4070
3449.00,0.4077
3448.00,0.4085
3447.00,0.4092
3446.00,0.4099
3445.00,0.4105
3444.00,0.4112
3443.00,0.4120
3442.00,0.4128
3441.00,0.4136
3440.00,0.4144
3439.00,0.4151
3438.00,0.4159
3437.00,0.4167
3436.00,0.4174
3435.00,0.4181
3434.00,0.4188
3433.00,0.4194
3432.00,0.4201
3431.00,0.4208
3430.00,0.4215
3429.00,0.4223
3428.00,0.4231
3427.00,0.4238
3426.00,0.4246
3425.00,0.4254
3424.00,0.4263
3423.00,0.4271
3422.00,0.4279
3421.00,0.4287
3420.00,0.4295
3419.00,0.4303
3418.00,0.4311
3417.00,0.4320
3416.00,0.4330
3415.00,0.4339
3414.00,0.4348
3413.00,0.4356
3412.00,0.4365
3411.00,0.4375
3410.00,0.4385
3409.00,0.4395
3408.00,0.4405
3407.00,0.4415
3406.00,0.4425
3405.00,0.4435
3404.00,0.4445
3403.00,0.4454
3402.00,0.4464
3401.00,0.4474
3400.00,0.4484
3399.00,0.4494
3398.00,0.4505
3397.00,0.4515
3396.00,0.4526
3395.00,0.4536
3394.00,0.4546
3393.00,0.4556
3392.00,0.4567
3391.00,0.4578
3390.00,0.4589
3389.00,0.4600
3388.00,0.4611
3387.00,0.4622
3386.00,0.4632
3385.00,0.4643
3384.00,0.4655
3383.00,0.4666
3382.00,0.4678
3381.00,0.4690
3380.00,0.4701
3379.00,0.4713
3378.00,0.4725
3377.00,0.4737
3376.00,0.4749
3375.00,0.4762
3374.00,0.4774
3373.00,0.4788
3372.00,0.4802
3371.00,0.4816
3370.00,0.4830
3369.00,0.4844
3368.00,0.4858
3367.00,0.4872
3366.00,0.4886
3365.00,0.4901
3364.00,0.4916
3363.00,0.4930
3362.00,0.4945
3361.00,0.4960
3360.00,0.4975
3359.00,0.4991
3358.00,0.5008
3357.00,0.5024
3356.00,0.5040
3355.00,0.5056
3354.00,0.5072
3353.00,0.5088
3352.00,0.5104
3351.00,0.5120
3350.00,0.5136
3349.00,0.5152
3348.00,0.5168
3347.00,0.5183
3346.00,0.5197
3345.00,0.5212
3344.00,0.5227
3343.00,0.5241
3342.00,0.5256
3341.00,0.5270
3340.00,0.5282
3339.00,0.5294
3338.00,0.5305
3337.00,0.5317
3336.00,0.5329
3335.00,0.5340
3334.00,0.5350
3333.00,0.5358
3332.00,0.5364
3331.00,0.5370
3330.00,0.5376
3329.00,0.5380
3328.00,0.5384
3327.00,0.5387
3326.00,0.5389
3325.00,0.5390
3324.00,0.5391
3323.00,0.5390
3322.00,0.5389
3321.00,0.5387
3320.00,0.5384
3319.00,0.5381
3318.00,0.5376
3317.00,0.5371
3316.00,0.5365
3315.00,0.5359
3314.00,0.5352
3313.00,0.5345
3312.00,0.5338
3311.00,0.5331
3310.00,0.5324
3309.00,0.5316
3308.00,0.5308
3307.00,0.5299
3306.00,0.5290
3305.00,0.5281
3304.00,0.5273
3303.00,0.5265
3302.00,0.5257
3301.00,0.5249
3300.00,0.5241
3299.00,0.5233
3298.00,0.5226
3297.00,0.5220
3296.00,0.5213
3295.00,0.5206
3294.00,0.5200
3293.00,0.5195
3292.00,0.5191
3291.00,0.5187
3290.00,0.5183
3289.00,0.5179
3288.00,0.5177
3287.00,0.5174
3286.00,0.5173
3285.00,0.5172
3284.00,0.5171
3283.00,0.5170
3282.00,0.5169
3281.00,0.5168
3280.00,0.5168
3279.00,0.5169
3278.00,0.5171
3277.00,0.5173
3276.00,0.5175
3275.00,0.5177
3274.00,0.5180
3273.00,0.5183
3272.00,0.5186
3271.00,0.5189
3270.00,0.5193
3269.00,0.5197
3268.00,0.5201
3267.00,0.5205
3266.00,0.5209
3265.00,0.5214
3264.00,0.5219
3263.00,0.5225
3262.00,0.5230
3261.00,0.5235
3260.00,0.5240
3259.00,0.5246
3258.00,0.5252
3257.00,0.5257
3256.00,0.5262
3255.00,0.5267
3254.00,0.5273
3253.00,0.5279
3252.00,0.5285
3251.00,0.5291
3250.00,0.5296
3249.00,0.5301
3248.00,0.5306
3247.00,0.5311
3246.00,0.5316
3245.00,0.5321
3244.00,0.5325
3243.00,0.5328
3242.00,0.5331
3241.00,0.5333
3240.00,0.5336
3239.00,0.5338
3238.00,0.5340
3237.00,0.5342
3236.00,0.5344
3235.00,0.5346
3234.00,0.5347
3233.00,0.5348
3232.00,0.5348
3231.00,0.5349
3230.00,0.5349
3229.00,0.5350
3228.00,0.5349
3227.00,0.5349
3226.00,0.5348
3225.00,0.5347
3224.00,0.5347
3223.00,0.5346
3222.00,0.5345
3221.00,0.5343
3220.00,0.5342
3219.00,0.5340
3218.00,0.5338
3217.00,0.5335
3216.00,0.5333
3215.00,0.5332
3214.00,0.5331
3213.00,0.5330
3212.00,0.5329
3211.00,0.5327
3210.00,0.5324
3209.00,0.5322
3208.00,0.5320
3207.00,0.5317
3206.00,0.5315
3205.00,0.5313
3204.00,0.5311
3203.00,0.5307
3202.00,0.5304
3201.00,0.5301
3200.00,0.5298
3199.00,0.5295
3198.00,0.5292
3197.00,0.5288
3196.00,0.5283
3195.00,0.5278
3194.00,0.5273
3193.00,0.5269
3192.00,0.5264
3191.00,0.5260
3190.00,0.5255
3189.00,0.5250
3188.00,0.5245
3187.00,0.5239
3186.00,0.5234
3185.00,0.5228
3184.00,0.5223
3183.00,0.5217
3182.00,0.5211
3181.00,0.5205
3180.00,0.5199
3179.00,0.5193
3178.00,0.5187
3177.00,0.5181
3176.00,0.5175
3175.00,0.5169
3174.00,0.5162
3173.00,0.5156
3172.00,0.5149
3171.00,0.5141
3170.00,0.5134
3169.00,0.5125
3168.00,0.5117
3167.00,0.5109
3166.00,0.5101
3165.00,0.5092
3164.00,0.5083
3163.00,0.5074
3162.00,0.5064
3161.00,0.5056
3160.00,0.5048
3159.00,0.5040
3158.00,0.5032
3157.00,0.5025
3156.00,0.5017
3155.00,0.5010
3154.00,0.5002
3153.00,0.4994
3152.00,0.4986
3151.00,0.4979
3150.00,0.4972
3149.00,0.4966
3148.00,0.4960
3147.00,0.4954
3146.00,0.4947
3145.00,0.4941
3144.00,0.4936
3143.00,0.4931
3142.00,0.4926
3141.00,0.4921
3140.00,0.4917
3139.00,0.4912
3138.00,0.4908
3137.00,0.4903
3136.00,0.4899
3135.00,0.4895
3134.00,0.4891
3133.00,0.4888
3132.00,0.4886
3131.00,0.4883
3130.00,0.4881
3129.00,0.4879
3128.00,0.4878
3127.00,0.4877
3126.00,0.4876
3125.00,0.4876
3124.00,0.4876
3123.00,0.4877
3122.00,0.4878
3121.00,0.4879
3120.00,0.4882
3119.00,0.4884
3118.00,0.4888
3117.00,0.4892
3116.00,0.4897
3115.00,0.4901
3114.00,0.4906
3113.00,0.4911
3112.00,0.4917
3111.00,0.4924
3110.00,0.4931
3109.00,0.4939
3108.00,0.4947
3107.00,0.4956
3106.00,0.4965
3105.00,0.4974
3104.00,0.4982
3103.00,0.4990
3102.00,0.4998
3101.00,0.5005
3100.00,0.5013
3099.00,0.5022
3098.00,0.5032
3097.00,0.5043
3096.00,0.5055
3095.00,0.5068
3094.00,0.5082
3093.00,0.5099
3092.00,0.5118
3091.00,0.5140
3090.00,0.5163
3089.00,0.5188
3088.00,0.5214
3087.00,0.5241
3086.00,0.5269
3085.00,0.5298
3084.00,0.5328
3083.00,0.5359
3082.00,0.5392
3081.00,0.5427
3080.00,0.5464
3079.00,0.5503
3078.00,0.5543
3077.00,0.5585
3076.00,0.5629
3075.00,0.5673
3074.00,0.5717
3073.00,0.5762
3072.00,0.5807
3071.00,0.5853
3070.00,0.5898
3069.00,0.5943
3068.00,0.5987
3067.00,0.6032
3066.00,0.6076
3065.00,0.6118
3064.00,0.6158
3063.00,0.6196
3062.00,0.6230
3061.00,0.6262
3060.00,0.6290
3059.00,0.6317
3058.00,0.6344
3057.00,0.6372
3056.00,0.6402
3055.00,0.6434
3054.00,0.6468
3053.00,0.6502
3052.00,0.6539
3051.00,0.6579
3050.00,0.6620
3049.00,0.6665
3048.00,0.6711
3047.00,0.6758
3046.00,0.6805
3045.00,0.6853
3044.00,0.6900
3043.00,0.6948
3042.00,0.6995
3041.00,0.7042
3040.00,0.7088
3039.00,0.7135
3038.00,0.7183
3037.00,0.7235
3036.00,0.7292
3035.00,0.7354
3034.00,0.7420
3033.00,0.7490
3032.00,0.7565
3031.00,0.7643
3030.00,0.7726
3029.00,0.7814
3028.00,0.7905
3027.00,0.8001
3026.00,0.8100
3025.00,0.8203
3024.00,0.8308
3023.00,0.8415
3022.00,0.8525
3021.00,0.8639
3020.00,0.8757
3019.00,0.8878
3018.00,0.9000
3017.00,0.9124
3016.00,0.9246
3015.00,0.9369
3014.00,0.9493
3013.00,0.9619
3012.00,0.9748
3011.00,0.9882
3010.00,1.0022
3009.00,1.0167
3008.00,1.0320
3007.00,1.0479
3006.00,1.0646
3005.00,1.0820
3004.00,1.0999
3003.00,1.1180
3002.00,1.1363
3001.00,1.1552
3000.00,1.1751
2999.00,1.1964
2998.00,1.2196
2997.00,1.2451
2996.00,1.2730
2995.00,1.3037
2994.00,1.3376
2993.00,1.3754
2992.00,1.4179
2991.00,1.4658
2990.00,1.5195
2989.00,1.5791
2988.00,1.6450
2987.00,1.7182
2986.00,1.7996
2985.00,1.8898
2984.00,1.9891
2983.00,2.0994
2982.00,2.2228
2981.00,2.3608
2980.00,2.5116
2979.00,2.6734
2978.00,2.8468
2977.00,3.0313
2976.00,3.2225
2975.00,3.4149
2974.00,3.6158
2973.00,3.8434
2972.00,4.0714
2971.00,4.1214
2970.00,4.0099
2969.00,3.8990
2968.00,3.8402
2967.00,3.8116
2966.00,3.8106
2965.00,3.8456
2964.00,3.8988
2963.00,3.9619
2962.00,4.0545
2961.00,4.1098
2960.00,4.0105
2959.00,3.8591
2958.00,3.7676
2957.00,3.7805
2956.00,3.8871
2955.00,3.9705
2954.00,3.9643
2953.00,3.9551
2952.00,3.9625
2951.00,3.9684
2950.00,3.8988
2949.00,3.8735
2948.00,3.9856
2947.00,4.3196
2946.00,4.1448
2945.00,3.9099
2944.00,3.7774
2943.00,3.8874
2942.00,3.9855
2941.00,3.9671
2940.00,3.9069
2939.00,3.8313
2938.00,3.7654
2937.00,3.7171
2936.00,3.7014
2935.00,3.7362
2934.00,3.8004
2933.00,3.8658
2932.00,3.9335
2931.00,3.9998
2930.00,4.0968
2929.00,4.3206
2928.00,4.7326
2927.00,4.6302
2926.00,4.2808
2925.00,4.0254
2924.00,3.9608
2923.00,3.9229
2922.00,3.9112
2921.00,3.9227
2920.00,4.0129
2919.00,4.0542
2918.00,3.9801
2917.00,3.9390
2916.00,4.0179
2915.00,4.1534
2914.00,4.1670
2913.00,4.1226
2912.00,4.0687
2911.00,4.0458
2910.00,4.1023
2909.00,4.1924
2908.00,4.2203
2907.00,4.1632
2906.00,4.1119
2905.00,4.0899
2904.00,4.0342
2903.00,3.9904
2902.00,4.0072
2901.00,4.0512
2900.00,4.0783
2899.00,4.1740
2898.00,4.6582
2897.00,4.5673
2896.00,4.3945
2895.00,4.1475
2894.00,4.1681
2893.00,4.2286
2892.00,4.5757
2891.00,4.5994
2890.00,4.4592
2889.00,4.3700
2888.00,4.6474
2887.00,4.1955
2886.00,3.9117
2885.00,3.8200
2884.00,3.9141
2883.00,4.0475
2882.00,3.9269
2881.00,3.7881
2880.00,3.7720
2879.00,4.0188
2878.00,4.3581
2877.00,4.1459
2876.00,3.9691
2875.00,3.9610
2874.00,4.1229
2873.00,4.1850
2872.00,4.2427
2871.00,4.4066
2870.00,4.4373
2869.00,4.4877
2868.00,4.2083
2867.00,3.9440
2866.00,3.7443
2865.00,3.6842
2864.00,3.7701
2863.00,4.0049
2862.00,4.0958
2861.00,3.9893
2860.00,3.8646
2859.00,3.8326
2858.00,3.7409
2857.00,3.6482
2856.00,3.6448
2855.00,3.7068
2854.00,3.7852
2853.00,3.8426
2852.00,3.9360
2851.00,4.1933
2850.00,4.3574
2849.00,4.3962
2848.00,4.5039
2847.00,4.3010
2846.00,4.0583
2845.00,3.8725
2844.00,3.8668
2843.00,3.8750
2842.00,3.9279
2841.00,3.9471
2840.00,3.8471
2839.00,3.7320
2838.00,3.5982
2837.00,3.3815
2836.00,3.1250
2835.00,2.8900
2834.00,2.6859
2833.00,2.5057
2832.00,2.3456
2831.00,2.2046
2830.00,2.0804
2829.00,1.9700
2828.00,1.8715
2827.00,1.7839
2826.00,1.7055
2825.00,1.6347
2824.00,1.5699
2823.00,1.5105
2822.00,1.4560
2821.00,1.4060
2820.00,1.3600
2819.00,1.3176
2818.00,1.2784
2817.00,1.2419
2816.00,1.2079
2815.00,1.1762
2814.00,1.1467
2813.00,1.1188
2812.00,1.0925
2811.00,1.0678
2810.00,1.0444
2809.00,1.0222
2808.00,1.0011
2807.00,0.9809
2806.00,0.9616
2805.00,0.9433
2804.00,0.9258
2803.00,0.9093
2802.00,0.8938
2801.00,0.8790
2800.00,0.8649
2799.00,0.8513
2798.00,0.8383
2797.00,0.8258
2796.00,0.8139
2795.00,0.8024
2794.00,0.7914
2793.00,0.7808
2792.00,0.7703
2791.00,0.7601
2790.00,0.7502
2789.00,0.7405
2788.00,0.7310
2787.00,0.7216
2786.00,0.7125
2785.00,0.7035
2784.00,0.6948
2783.00,0.6863
2782.00,0.6781
2781.00,0.6702
2780.00,0.6626
2779.00,0.6554
2778.00,0.6486
2777.00,0.6421
2776.00,0.6359
2775.00,0.6301
2774.00,0.6246
2773.00,0.6196
2772.00,0.6149
2771.00,0.6105
2770.00,0.6065
2769.00,0.6028
2768.00,0.5995
2767.00,0.5965
2766.00,0.5938
2765.00,0.5915
2764.00,0.5895
2763.00,0.5878
2762.00,0.5863
2761.00,0.5849
2760.00,0.5836
2759.00,0.5823
2758.00,0.5810
2757.00,0.5797
2756.00,0.5786
2755.00,0.5776
2754.00,0.5767
2753.00,0.5760
2752.00,0.5754
2751.00,0.5751
2750.00,0.5750
2749.00,0.5750
2748.00,0.5753
2747.00,0.5758
2746.00,0.5765
2745.00,0.5775
2744.00,0.5788
2743.00,0.5805
2742.00,0.5826
2741.00,0.5851
2740.00,0.5880
2739.00,0.5914
2738.00,0.5952
2737.00,0.5996
2736.00,0.6045
2735.00,0.6099
2734.00,0.6154
2733.00,0.6208
2732.00,0.6257
2731.00,0.6297
2730.00,0.6327
2729.00,0.6347
2728.00,0.6356
2727.00,0.6355
2726.00,0.6346
2725.00,0.6331
2724.00,0.6311
2723.00,0.6286
2722.00,0.6258
2721.00,0.6227
2720.00,0.6193
2719.00,0.6156
2718.00,0.6116
2717.00,0.6074
2716.00,0.6029
2715.00,0.5983
2714.00,0.5937
2713.00,0.5892
2712.00,0.5849
2711.00,0.5809
2710.00,0.5774
2709.00,0.5743
2708.00,0.5716
2707.00,0.5693
2706.00,0.5675
2705.00,0.5660
2704.00,0.5648
2703.00,0.5639
2702.00,0.5632
2701.00,0.5628
2700.00,0.5626
2699.00,0.5626
2698.00,0.5628
2697.00,0.5632
2696.00,0.5636
2695.00,0.5642
2694.00,0.5650
2693.00,0.5659
2692.00,0.5668
2691.00,0.5678
2690.00,0.5687
2689.00,0.5696
2688.00,0.5705
2687.00,0.5712
2686.00,0.5719
2685.00,0.5724
2684.00,0.5728
2683.00,0.5731
2682.00,0.5735
2681.00,0.5738
2680.00,0.5741
2679.00,0.5744
2678.00,0.5748
2677.00,0.5752
2676.00,0.5757
2675.00,0.5761
2674.00,0.5765
2673.00,0.5768
2672.00,0.5770
2671.00,0.5770
2670.00,0.5767
2669.00,0.5762
2668.00,0.5754
2667.00,0.5743
2666.00,0.5730
2665.00,0.5714
2664.00,0.5697
2663.00,0.5678
2662.00,0.5659
2661.00,0.5639
2660.00,0.5618
2659.00,0.5597
2658.00,0.5575
2657.00,0.5554
2656.00,0.5533
2655.00,0.5513
2654.00,0.5494
2653.00,0.5477
2652.00,0.5460
2651.00,0.5444
2650.00,0.5429
2649.00,0.5414
2648.00,0.5399
2647.00,0.5384
2646.00,0.5370
2645.00,0.5357
2644.00,0.5345
2643.00,0.5334
2642.00,0.5324
2641.00,0.5315
2640.00,0.5306
2639.00,0.5296
2638.00,0.5287
2637.00,0.5278
2636.00,0.5268
2635.00,0.5259
2634.00,0.5250
2633.00,0.5242
2632.00,0.5233
2631.00,0.5225
2630.00,0.5217
2629.00,0.5209
2628.00,0.5201
2627.00,0.5192
2626.00,0.5182
2625.00,0.5173
2624.00,0.5164
2623.00,0.5156
2622.00,0.5148
2621.00,0.5139
2620.00,0.5129
2619.00,0.5120
2618.00,0.5111
2617.00,0.5103
2616.00,0.5094
2615.00,0.5084
2614.00,0.5075
2613.00,0.5066
2612.00,0.5056
2611.00,0.5046
2610.00,0.5036
2609.00,0.5027
2608.00,0.5018
2607.00,0.5008
2606.00,0.4998
2605.00,0.4988
2604.00,0.4976
2603.00,0.4964
2602.00,0.4951
2601.00,0.4940
2600.00,0.4928
2599.00,0.4916
2598.00,0.4903
2597.00,0.4890
2596.00,0.4875
2595.00,0.4860
2594.00,0.4844
2593.00,0.4828
2592.00,0.4813
2591.00,0.4797
2590.00,0.4782
2589.00,0.4766
2588.00,0.4751
2587.00,0.4735
2586.00,0.4719
2585.00,0.4702
2584.00,0.4685
2583.00,0.4668
2582.00,0.4651
2581.00,0.4634
2580.00,0.4617
2579.00,0.4599
2578.00,0.4581
2577.00,0.4564
2576.00,0.4546
2575.00,0.4529
2574.00,0.4512
2573.00,0.4496
2572.00,0.4480
2571.00,0.4464
2570.00,0.4448
2569.00,0.4432
2568.00,0.4417
2567.00,0.4403
2566.00,0.4388
2565.00,0.4374
2564.00,0.4360
2563.00,0.4346
2562.00,0.4332
2561.00,0.4320
2560.00,0.4307
2559.00,0.4295
2558.00,0.4283
2557.00,0.4272
2556.00,0.4260
2555.00,0.4248
2554.00,0.4237
2553.00,0.4226
2552.00,0.4215
2551.00,0.4204
2550.00,0.4194
2549.00,0.4184
2548.00,0.4175
2547.00,0.4166
2546.00,0.4157
2545.00,0.4149
2544.00,0.4140
2543.00,0.4132
2542.00,0.4123
2541.00,0.4115
2540.00,0.4107
2539.00,0.4099
2538.00,0.4091
2537.00,0.4084
2536.00,0.4077
2535.00,0.4069
2534.00,0.4061
2533.00,0.4054
2532.00,0.4045
2531.00,0.4037
2530.00,0.4028
2529.00,0.4020
2528.00,0.4012
2527.00,0.4003
2526.00,0.3994
2525.00,0.3985
2524.00,0.3976
2523.00,0.3966
2522.00,0.3956
2521.00,0.3947
2520.00,0.3938
2519.00,0.3929
2518.00,0.3921
2517.00,0.3913
2516.00,0.3906
2515.00,0.3898
2514.00,0.3891
2513.00,0.3884
2512.00,0.3877
2511.00,0.3870
2510.00,0.3862
2509.00,0.3855
2508.00,0.3848
2507.00,0.3842
2506.00,0.3835
2505.00,0.3829
2504.00,0.3823
2503.00,0.3817
2502.00,0.3811
2501.00,0.3805
2500.00,0.3800
2499.00,0.3796
2498.00,0.3791
2497.00,0.3786
2496.00,0.3781
2495.00,0.3776
2494.00,0.3771
2493.00,0.3766
2492.00,0.3762
2491.00,0.3757
2490.00,0.3753
2489.00,0.3749
2488.00,0.3745
2487.00,0.3742
2486.00,0.3738
2485.00,0.3735
2484.00,0.3732
2483.00,0.3729
2482.00,0.3727
2481.00,0.3725
2480.00,0.3723
2479.00,0.3720
2478.00,0.3717
2477.00,0.3713
2476.00,0.3710
2475.00,0.3707
2474.00,0.3704
2473.00,0.3701
2472.00,0.3698
2471.00,0.3696
2470.00,0.3693
2469.00,0.3689
2468.00,0.3686
2467.00,0.3682
2466.00,0.3679
2465.00,0.3676
2464.00,0.3673
2463.00,0.3669
2462.00,0.3665
2461.00,0.3662
2460.00,0.3660
2459.00,0.3658
2458.00,0.3656
2457.00,0.3653
2456.00,0.3651
2455.00,0.3649
2454.00,0.3647
2453.00,0.3646
2452.00,0.3646
2451.00,0.3645
2450.00,0.3645
2449.00,0.3645
2448.00,0.3645
2447.00,0.3646
2446.00,0.3646
2445.00,0.3647
2444.00,0.3648
2443.00,0.3649
2442.00,0.3649
2441.00,0.3650
2440.00,0.3651
2439.00,0.3651
2438.00,0.3652
2437.00,0.3652
2436.00,0.3653
2435.00,0.3653
2434.00,0.3652
2433.00,0.3652
2432.00,0.3651
2431.00,0.3652
2430.00,0.3652
2429.00,0.3652
2428.00,0.3652
2427.00,0.3652
2426.00,0.3651
2425.00,0.3651
2424.00,0.3651
2423.00,0.3651
2422.00,0.3651
2421.00,0.3651
2420.00,0.3652
2419.00,0.3652
2418.00,0.3653
2417.00,0.3654
2416.00,0.3655
2415.00,0.3656
2414.00,0.3657
2413.00,0.3657
2412.00,0.3658
2411.00,0.3659
2410.00,0.3660
2409.00,0.3661
2408.00,0.3661
2407.00,0.3660
2406.00,0.3660
2405.00,0.3661
2404.00,0.3660
2403.00,0.3660
2402.00,0.3658
2401.00,0.3657
2400.00,0.3655
2399.00,0.3653
2398.00,0.3651
2397.00,0.3650
2396.00,0.3648
2395.00,0.3646
2394.00,0.3644
2393.00,0.3643
2392.00,0.3641
2391.00,0.3639
2390.00,0.3636
2389.00,0.3635
2388.00,0.3633
2387.00,0.3632
2386.00,0.3632
2385.00,0.3631
2384.00,0.3630
2383.00,0.3629
2382.00,0.3628
2381.00,0.3628
2380.00,0.3628
2379.00,0.3628
2378.00,0.3628
2377.00,0.3628
2376.00,0.3629
2375.00,0.3628
2374.00,0.3627
2373.00,0.3625
2372.00,0.3624
2371.00,0.3623
2370.00,0.3622
2369.00,0.3622
2368.00,0.3621
2367.00,0.3620
2366.00,0.3619
2365.00,0.3620
2364.00,0.3620
2363.00,0.3619
2362.00,0.3618
2361.00,0.3617
2360.00,0.3616
2359.00,0.3616
2358.00,0.3615
2357.00,0.3614
2356.00,0.3613
2355.00,0.3612
2354.00,0.3611
2353.00,0.3611
2352.00,0.3610
2351.00,0.3609
2350.00,0.3608
2349.00,0.3607
2348.00,0.3606
2347.00,0.3605
2346.00,0.3604
2345.00,0.3603
2344.00,0.3601
2343.00,0.3599
2342.00,0.3597
2341.00,0.3596
2340.00,0.3596
2339.00,0.3596
2338.00,0.3596
2337.00,0.3596
2336.00,0.3595
2335.00,0.3593
2334.00,0.3591
2333.00,0.3590
2332.00,0.3588
2331.00,0.3587
2330.00,0.3586
2329.00,0.3584
2328.00,0.3582
2327.00,0.3580
2326.00,0.3578
2325.00,0.3576
2324.00,0.3574
2323.00,0.3572
2322.00,0.3571
2321.00,0.3568
2320.00,0.3566
2319.00,0.3563
2318.00,0.3559
2317.00,0.3556
2316.00,0.3554
2315.00,0.3552
2314.00,0.3550
2313.00,0.3548
2312.00,0.3544
2311.00,0.3540
2310.00,0.3536
2309.00,0.3533
2308.00,0.3530
2307.00,0.3527
2306.00,0.3524
2305.00,0.3521
2304.00,0.3518
2303.00,0.3516
2302.00,0.3514
2301.00,0.3512
2300.00,0.3510
2299.00,0.3507
2298.00,0.3505
2297.00,0.3503
2296.00,0.3501
2295.00,0.3498
2294.00,0.3496
2293.00,0.3493
2292.00,0.3491
2291.00,0.3487
2290.00,0.3484
2289.00,0.3481
2288.00,0.3479
2287.00,0.3477
2286.00,0.3475
2285.00,0.3472
2284.00,0.3469
2283.00,0.3465
2282.00,0.3462
2281.00,0.3458
2280.00,0.3455
2279.00,0.3451
2278.00,0.3448
2277.00,0.3444
2276.00,0.3441
2275.00,0.3438
2274.00,0.3434
2273.00,0.3431
2272.00,0.3428
2271.00,0.3426
2270.00,0.3424
2269.00,0.3422
2268.00,0.3420
2267.00,0.3418
2266.00,0.3416
2265.00,0.3415
2264.00,0.3414
2263.00,0.3413
2262.00,0.3411
2261.00,0.3409
2260.00,0.3407
2259.00,0.3404
2258.00,0.3402
2257.00,0.3400
2256.00,0.3398
2255.00,0.3396
2254.00,0.3393
2253.00,0.3391
2252.00,0.3389
2251.00,0.3387
2250.00,0.3384
2249.00,0.3381
2248.00,0.3379
2247.00,0.3377
2246.00,0.3375
2245.00,0.3373
2244.00,0.3371
2243.00,0.3368
2242.00,0.3366
2241.00,0.3364
2240.00,0.3361
2239.00,0.3359
2238.00,0.3357
2237.00,0.3355
2236.00,0.3353
2235.00,0.3352
2234.00,0.3351
2233.00,0.3350
2232.00,0.3348
2231.00,0.3347
2230.00,0.3345
2229.00,0.3344
2228.00,0.3344
2227.00,0.3343
2226.00,0.3341
2225.00,0.3340
2224.00,0.3339
2223.00,0.3339
2222.00,0.3338
2221.00,0.3339
2220.00,0.3340
2219.00,0.3340
2218.00,0.3339
2217.00,0.3338
2216.00,0.3338
2215.00,0.3337
2214.00,0.3337
2213.00,0.3336
2212.00,0.3336
2211.00,0.3335
2210.00,0.3334
2209.00,0.3334
2208.00,0.3334
2207.00,0.3333
2206.00,0.3332
2205.00,0.3331
2204.00,0.3330
2203.00,0.3328
2202.00,0.3327
2201.00,0.3326
2200.00,0.3325
2199.00,0.3325
2198.00,0.3325
2197.00,0.3325
2196.00,0.3326
2195.00,0.3326
2194.00,0.3325
2193.00,0.3326
2192.00,0.3326
2191.00,0.3327
2190.00,0.3328
2189.00,0.3328
2188.00,0.3328
2187.00,0.3329
2186.00,0.3329
2185.00,0.3330
2184.00,0.3330
2183.00,0.3331
2182.00,0.3330
2181.00,0.3330
2180.00,0.3329
2179.00,0.3328
2178.00,0.3326
2177.00,0.3325
2176.00,0.3323
2175.00,0.3322
2174.00,0.3320
2173.00,0.3318
2172.00,0.3317
2171.00,0.3315
2170.00,0.3314
2169.00,0.3312
2168.00,0.3310
2167.00,0.3307
2166.00,0.3305
2165.00,0.3303
2164.00,0.3302
2163.00,0.3300
2162.00,0.3298
2161.00,0.3297
2160.00,0.3296
2159.00,0.3294
2158.00,0.3293
2157.00,0.3291
2156.00,0.3290
2155.00,0.3289
2154.00,0.3287
2153.00,0.3286
2152.00,0.3285
2151.00,0.3283
2150.00,0.3281
2149.00,0.3279
2148.00,0.3277
2147.00,0.3275
2146.00,0.3271
2145.00,0.3268
2144.00,0.3264
2143.00,0.3260
2142.00,0.3256
2141.00,0.3252
2140.00,0.3248
2139.00,0.3244
2138.00,0.3240
2137.00,0.3237
2136.00,0.3235
2135.00,0.3232
2134.00,0.3229
2133.00,0.3226
2132.00,0.3223
2131.00,0.3220
2130.00,0.3218
2129.00,0.3216
2128.00,0.3214
2127.00,0.3212
2126.00,0.3210
2125.00,0.3209
2124.00,0.3207
2123.00,0.3206
2122.00,0.3204
2121.00,0.3203
2120.00,0.3202
2119.00,0.3201
2118.00,0.3201
2117.00,0.3200
2116.00,0.3200
2115.00,0.3200
2114.00,0.3199
2113.00,0.3199
2112.00,0.3199
2111.00,0.3199
2110.00,0.3199
2109.00,0.3199
2108.00,0.3199
2107.00,0.3199
2106.00,0.3197
2105.00,0.3197
2104.00,0.3196
2103.00,0.3195
2102.00,0.3194
2101.00,0.3193
2100.00,0.3192
2099.00,0.3190
2098.00,0.3189
2097.00,0.3188
2096.00,0.3188
2095.00,0.3186
2094.00,0.3185
2093.00,0.3184
2092.00,0.3183
2091.00,0.3183
2090.00,0.3182
2089.00,0.3182
2088.00,0.3181
2087.00,0.3181
2086.00,0.3180
2085.00,0.3180
2084.00,0.3180
2083.00,0.3180
2082.00,0.3180
2081.00,0.3181
2080.00,0.3182
2079.00,0.3183
2078.00,0.3183
2077.00,0.3184
2076.00,0.3185
2075.00,0.3186
2074.00,0.3186
2073.00,0.3187
2072.00,0.3189
2071.00,0.3190
2070.00,0.3190
2069.00,0.3192
2068.00,0.3193
2067.00,0.3194
2066.00,0.3194
2065.00,0.3195
2064.00,0.3196
2063.00,0.3196
2062.00,0.3196
2061.00,0.3196
2060.00,0.3197
2059.00,0.3198
2058.00,0.3198
2057.00,0.3199
2056.00,0.3200
2055.00,0.3201
2054.00,0.3201
2053.00,0.3203
2052.00,0.3204
2051.00,0.3205
2050.00,0.3206
2049.00,0.3208
2048.00,0.3210
2047.00,0.3212
2046.00,0.3214
2045.00,0.3216
2044.00,0.3218
2043.00,0.3220
2042.00,0.3222
2041.00,0.3224
2040.00,0.3225
2039.00,0.3227
2038.00,0.3228
2037.00,0.3229
2036.00,0.3230
2035.00,0.3231
2034.00,0.3232
2033.00,0.3232
2032.00,0.3233
2031.00,0.3233
2030.00,0.3232
2029.00,0.3232
2028.00,0.3231
2027.00,0.3230
2026.00,0.3229
2025.00,0.3227
2024.00,0.3225
2023.00,0.3222
2022.00,0.3219
2021.00,0.3216
2020.00,0.3212
2019.00,0.3207
2018.00,0.3202
2017.00,0.3196
2016.00,0.3190
2015.00,0.3183
2014.00,0.3177
2013.00,0.3171
2012.00,0.3166
2011.00,0.3161
2010.00,0.3156
2009.00,0.3152
2008.00,0.3149
2007.00,0.3147
2006.00,0.3145
2005.00,0.3143
2004.00,0.3142
2003.00,0.3140
2002.00,0.3138
2001.00,0.3137
2000.00,0.3136
1999.00,0.3135
1998.00,0.3134
1997.00,0.3133
1996.00,0.3133
1995.00,0.3132
1994.00,0.3131
1993.00,0.3131
1992.00,0.3131
1991.00,0.3130
1990.00,0.3128
1989.00,0.3127
1988.00,0.3126
1987.00,0.3124
1986.00,0.3123
1985.00,0.3121
1984.00,0.3120
1983.00,0.3119
1982.00,0.3118
1981.00,0.3118
1980.00,0.3117
1979.00,0.3117
1978.00,0.3116
1977.00,0.3116
1976.00,0.3115
1975.00,0.3115
1974.00,0.3115
1973.00,0.3115
1972.00,0.3116
1971.00,0.3117
1970.00,0.3118
1969.00,0.3119
1968.00,0.3121
1967.00,0.3122
1966.00,0.3123
1965.00,0.3123
1964.00,0.3123
1963.00,0.3124
1962.00,0.3125
1961.00,0.3126
1960.00,0.3128
1959.00,0.3129
1958.00,0.3130
1957.00,0.3132
1956.00,0.3133
1955.00,0.3134
1954.00,0.3136
1953.00,0.3137
1952.00,0.3138
1951.00,0.3138
1950.00,0.3138
1949.00,0.3139
1948.00,0.3140
1947.00,0.3141
1946.00,0.3143
1945.00,0.3145
1944.00,0.3148
1943.00,0.3152
1942.00,0.3157
1941.00,0.3162
1940.00,0.3167
1939.00,0.3171
1938.00,0.3173
1937.00,0.3174
1936.00,0.3174
1935.00,0.3173
1934.00,0.3172
1933.00,0.3171
1932.00,0.3171
1931.00,0.3172
1930.00,0.3173
1929.00,0.3174
1928.00,0.3175
1927.00,0.3176
1926.00,0.3178
1925.00,0.3180
1924.00,0.3184
1923.00,0.3188
1922.00,0.3192
1921.00,0.3195
1920.00,0.3198
1919.00,0.3201
1918.00,0.3204
1917.00,0.3208
1916.00,0.3210
1915.00,0.3212
1914.00,0.3213
1913.00,0.3213
1912.00,0.3213
1911.00,0.3213
1910.00,0.3214
1909.00,0.3215
1908.00,0.3215
1907.00,0.3215
1906.00,0.3214
1905.00,0.3214
1904.00,0.3215
1903.00,0.3216
1902.00,0.3217
1901.00,0.3217
1900.00,0.3218
1899.00,0.3218
1898.00,0.3219
1897.00,0.3222
1896.00,0.3225
1895.00,0.3228
1894.00,0.3230
1893.00,0.3232
1892.00,0.3234
1891.00,0.3235
1890.00,0.3237
1889.00,0.3240
1888.00,0.3241
1887.00,0.3242
1886.00,0.3243
1885.00,0.3244
1884.00,0.3245
1883.00,0.3245
1882.00,0.3244
1881.00,0.3244
1880.00,0.3243
1879.00,0.3241
1878.00,0.3239
1877.00,0.3236
1876.00,0.3234
1875.00,0.3232
1874.00,0.3229
1873.00,0.3226
1872.00,0.3223
1871.00,0.3220
1870.00,0.3217
1869.00,0.3216
1868.00,0.3215
1867.00,0.3214
1866.00,0.3212
1865.00,0.3211
1864.00,0.3209
1863.00,0.3207
1862.00,0.3205
1861.00,0.3203
1860.00,0.3202
1859.00,0.3199
1858.00,0.3197
1857.00,0.3195
1856.00,0.3193
1855.00,0.3192
1854.00,0.3191
1853.00,0.3190
1852.00,0.3190
1851.00,0.3190
1850.00,0.3190
1849.00,0.3190
1848.00,0.3190
1847.00,0.3187
1846.00,0.3184
1845.00,0.3181
1844.00,0.3180
1843.00,0.3179
1842.00,0.3178
1841.00,0.3177
1840.00,0.3176
1839.00,0.3175
1838.00,0.3174
1837.00,0.3172
1836.00,0.3171
1835.00,0.3170
1834.00,0.3168
1833.00,0.3166
1832.00,0.3165
1831.00,0.3163
1830.00,0.3163
1829.00,0.3163
1828.00,0.3163
1827.00,0.3163
1826.00,0.3162
1825.00,0.3163
1824.00,0.3164
1823.00,0.3165
1822.00,0.3165
1821.00,0.3166
1820.00,0.3167
1819.00,0.3168
1818.00,0.3169
1817.00,0.3171
1816.00,0.3173
1815.00,0.3175
1814.00,0.3176
1813.00,0.3178
1812.00,0.3180
1811.00,0.3183
1810.00,0.3185
1809.00,0.3187
1808.00,0.3190
1807.00,0.3192
1806.00,0.3195
1805.00,0.3198
1804.00,0.3202
1803.00,0.3205
1802.00,0.3209
1801.00,0.3214
1800.00,0.3219
1799.00,0.3225
1798.00,0.3230
1797.00,0.3235
1796.00,0.3240
1795.00,0.3242
1794.00,0.3244
1793.00,0.3246
1792.00,0.3250
1791.00,0.3255
1790.00,0.3260
1789.00,0.3266
1788.00,0.3272
1787.00,0.3276
1786.00,0.3279
1785.00,0.3283
1784.00,0.3288
1783.00,0.3293
1782.00,0.3298
1781.00,0.3304
1780.00,0.3309
1779.00,0.3314
1778.00,0.3319
1777.00,0.3324
1776.00,0.3330
1775.00,0.3335
1774.00,0.3341
1773.00,0.3347
1772.00,0.3355
1771.00,0.3362
1770.00,0.3369
1769.00,0.3376
1768.00,0.3386
1767.00,0.3395
1766.00,0.3404
1765.00,0.3414
1764.00,0.3424
1763.00,0.3436
1762.00,0.3451
1761.00,0.3469
1760.00,0.3488
1759.00,0.3508
1758.00,0.3530
1757.00,0.3556
1756.00,0.3585
1755.00,0.3614
1754.00,0.3643
1753.00,0.3675
1752.00,0.3710
1751.00,0.3748
1750.00,0.3785
1749.00,0.3820
1748.00,0.3852
1747.00,0.3880
1746.00,0.3905
1745.00,0.3927
1744.00,0.3945
1743.00,0.3959
1742.00,0.3968
1741.00,0.3975
1740.00,0.3981
1739.00,0.3983
1738.00,0.3981
1737.00,0.3977
1736.00,0.3971
1735.00,0.3963
1734.00,0.3955
1733.00,0.3950
1732.00,0.3945
1731.00,0.3938
1730.00,0.3932
1729.00,0.3929
1728.00,0.3930
1727.00,0.3933
1726.00,0.3940
1725.00,0.3952
1724.00,0.3970
1723.00,0.3992
1722.00,0.4018
1721.00,0.4048
1720.00,0.4087
1719.00,0.4140
1718.00,0.4212
1717.00,0.4300
1716.00,0.4395
1715.00,0.4494
1714.00,0.4602
1713.00,0.4715
1712.00,0.4827
1711.00,0.4933
1710.00,0.5027
1709.00,0.5099
1708.00,0.5140
1707.00,0.5150
1706.00,0.5130
1705.00,0.5081
1704.00,0.5013
1703.00,0.4937
1702.00,0.4844
1701.00,0.4722
1700.00,0.4588
1699.00,0.4482
1698.00,0.4407
1697.00,0.4339
1696.00,0.4263
1695.00,0.4188
1694.00,0.4129
1693.00,0.4085
1692.00,0.4048
1691.00,0.4015
1690.00,0.3984
1689.00,0.3959
1688.00,0.3938
1687.00,0.3921
1686.00,0.3904
1685.00,0.3884
1684.00,0.3864
1683.00,0.3845
1682.00,0.3833
1681.00,0.3825
1680.00,0.3818
1679.00,0.3809
1678.00,0.3799
1677.00,0.3790
1676.00,0.3782
1675.00,0.3776
1674.00,0.3773
1673.00,0.3772
1672.00,0.3771
1671.00,0.3770
1670.00,0.3769
1669.00,0.3771
1668.00,0.3774
1667.00,0.3775
1666.00,0.3775
1665.00,0.3774
1664.00,0.3773
1663.00,0.3774
1662.00,0.3776
1661.00,0.3781
1660.00,0.3785
1659.00,0.3788
1658.00,0.3790
1657.00,0.3792
1656.00,0.3796
1655.00,0.3800
1654.00,0.3807
1653.00,0.3820
1652.00,0.3833
1651.00,0.3840
1650.00,0.3843
1649.00,0.3847
1648.00,0.3858
1647.00,0.3870
1646.00,0.3884
1645.00,0.3901
1644.00,0.3917
1643.00,0.3932
1642.00,0.3947
1641.00,0.3964
1640.00,0.3982
1639.00,0.3998
1638.00,0.4016
1637.00,0.4038
1636.00,0.4063
1635.00,0.4088
1634.00,0.4113
1633.00,0.4138
1632.00,0.4162
1631.00,0.4185
1630.00,0.4207
1629.00,0.4233
1628.00,0.4263
1627.00,0.4292
1626.00,0.4320
1625.00,0.4354
1624.00,0.4395
1623.00,0.4442
1622.00,0.4494
1621.00,0.4550
1620.00,0.4610
1619.00,0.4677
1618.00,0.4759
1617.00,0.4865
1616.00,0.4983
1615.00,0.5094
1614.00,0.5193
1613.00,0.5293
1612.00,0.5399
1611.00,0.5507
1610.00,0.5613
1609.00,0.5718
1608.00,0.5819
1607.00,0.5909
1606.00,0.5986
1605.00,0.6058
1604.00,0.6128
1603.00,0.6193
1602.00,0.6253
1601.00,0.6318
1600.00,0.6392
1599.00,0.6474
1598.00,0.6567
1597.00,0.6686
1596.00,0.6841
1595.00,0.7036
1594.00,0.7278
1593.00,0.7587
1592.00,0.7982
1591.00,0.8476
1590.00,0.9094
1589.00,0.9879
1588.00,1.0884
1587.00,1.2143
1586.00,1.3676
1585.00,1.5535
1584.00,1.7773
1583.00,2.0204
1582.00,2.2024
1581.00,2.2386
1580.00,2.1462
1579.00,1.9709
1578.00,1.7532
1577.00,1.5382
1576.00,1.3563
1575.00,1.2207
1574.00,1.1268
1573.00,1.0615
1572.00,1.0130
1571.00,0.9749
1570.00,0.9475
1569.00,0.9347
1568.00,0.9382
1567.00,0.9565
1566.00,0.9904
1565.00,1.0427
1564.00,1.1117
1563.00,1.1864
1562.00,1.2530
1561.00,1.2990
1560.00,1.2977
1559.00,1.2196
1558.00,1.1075
1557.00,1.0146
1556.00,0.9400
1555.00,0.8712
1554.00,0.8084
1553.00,0.7574
1552.00,0.7189
1551.00,0.6882
1550.00,0.6620
1549.00,0.6405
1548.00,0.6239
1547.00,0.6110
1546.00,0.5999
1545.00,0.5906
1544.00,0.5831
1543.00,0.5768
1542.00,0.5711
1541.00,0.5660
1540.00,0.5611
1539.00,0.5559
1538.00,0.5512
1537.00,0.5474
1536.00,0.5442
1535.00,0.5410
1534.00,0.5379
1533.00,0.5358
1532.00,0.5351
1531.00,0.5352
1530.00,0.5357
1529.00,0.5367
1528.00,0.5378
1527.00,0.5383
1526.00,0.5380
1525.00,0.5374
1524.00,0.5372
1523.00,0.5374
1522.00,0.5383
1521.00,0.5403
1520.00,0.5431
1519.00,0.5462
1518.00,0.5496
1517.00,0.5538
1516.00,0.5577
1515.00,0.5603
1514.00,0.5615
1513.00,0.5623
1512.00,0.5633
1511.00,0.5646
1510.00,0.5668
1509.00,0.5707
1508.00,0.5774
1507.00,0.5872
1506.00,0.5988
1505.00,0.6107
1504.00,0.6213
1503.00,0.6304
1502.00,0.6386
1501.00,0.6468
1500.00,0.6546
1499.00,0.6620
1498.00,0.6699
1497.00,0.6795
1496.00,0.6907
1495.00,0.7019
1494.00,0.7127
1493.00,0.7242
1492.00,0.7372
1491.00,0.7521
1490.00,0.7689
1489.00,0.7877
1488.00,0.8078
1487.00,0.8288
1486.00,0.8523
1485.00,0.8797
1484.00,0.9116
1483.00,0.9484
1482.00,0.9921
1481.00,1.0438
1480.00,1.1018
1479.00,1.1650
1478.00,1.2371
1477.00,1.3232
1476.00,1.4243
1475.00,1.5396
1474.00,1.6778
1473.00,1.8593
1472.00,2.0956
1471.00,2.3717
1470.00,2.6707
1469.00,3.0119
1468.00,3.4145
1467.00,3.7688
1466.00,4.1379
1465.00,4.3587
1464.00,4.4092
1463.00,4.2593
1462.00,4.0192
1461.00,4.4374
1460.00,4.3812
1459.00,3.8833
1458.00,3.4644
1457.00,3.4330
1456.00,3.4954
1455.00,3.4853
1454.00,3.5707
1453.00,3.9003
1452.00,4.2265
1451.00,3.7807
1450.00,3.6459
1449.00,3.6871
1448.00,3.6196
1447.00,3.3764
1446.00,3.1537
1445.00,2.9945
1444.00,2.8172
1443.00,2.6299
1442.00,2.4747
1441.00,2.3524
1440.00,2.2411
1439.00,2.1272
1438.00,2.0067
1437.00,1.8791
1436.00,1.7539
1435.00,1.6442
1434.00,1.5499
1433.00,1.4621
1432.00,1.3754
1431.00,1.2920
1430.00,1.2165
1429.00,1.1515
1428.00,1.0978
1427.00,1.0549
1426.00,1.0201
1425.00,0.9908
1424.00,0.9663
1423.00,0.9471
1422.00,0.9324
1421.00,0.9200
1420.00,0.9083
1419.00,0.8975
1418.00,0.8881
1417.00,0.8800
1416.00,0.8732
1415.00,0.8677
1414.00,0.8635
1413.00,0.8602
1412.00,0.8579
1411.00,0.8565
1410.00,0.8549
1409.00,0.8519
1408.00,0.8467
1407.00,0.8389
1406.00,0.8284
1405.00,0.8154
1404.00,0.8013
1403.00,0.7881
1402.00,0.7764
1401.00,0.7659
1400.00,0.7566
1399.00,0.7493
1398.00,0.7444
1397.00,0.7420
1396.00,0.7423
1395.00,0.7464
1394.00,0.7547
1393.00,0.7677
1392.00,0.7867
1391.00,0.8139
1390.00,0.8517
1389.00,0.9035
1388.00,0.9734
1387.00,1.0625
1386.00,1.1650
1385.00,1.2732
1384.00,1.3850
1383.00,1.5036
1382.00,1.6333
1381.00,1.7777
1380.00,1.9402
1379.00,2.1120
1378.00,2.2532
1377.00,2.3065
1376.00,2.2504
1375.00,2.1129
1374.00,1.9429
1373.00,1.7826
1372.00,1.6501
1371.00,1.5467
1370.00,1.4702
1369.00,1.4190
1368.00,1.3883
1367.00,1.3663
1366.00,1.3370
1365.00,1.2894
1364.00,1.2239
1363.00,1.1509
1362.00,1.0832
1361.00,1.0280
1360.00,0.9864
1359.00,0.9557
1358.00,0.9333
1357.00,0.9174
1356.00,0.9068
1355.00,0.9003
1354.00,0.8966
1353.00,0.8945
1352.00,0.8927
1351.00,0.8907
1350.00,0.8878
1349.00,0.8844
1348.00,0.8808
1347.00,0.8774
1346.00,0.8746
1345.00,0.8724
1344.00,0.8706
1343.00,0.8688
1342.00,0.8660
1341.00,0.8615
1340.00,0.8547
1339.00,0.8453
1338.00,0.8336
1337.00,0.8202
1336.00,0.8056
1335.00,0.7906
1334.00,0.7761
1333.00,0.7627
1332.00,0.7508
1331.00,0.7408
1330.00,0.7328
1329.00,0.7265
1328.00,0.7218
1327.00,0.7187
1326.00,0.7170
1325.00,0.7164
1324.00,0.7165
1323.00,0.7172
1322.00,0.7181
1321.00,0.7189
1320.00,0.7197
1319.00,0.7206
1318.00,0.7219
1317.00,0.7236
1316.00,0.7260
1315.00,0.7290
1314.00,0.7327
1313.00,0.7367
1312.00,0.7408
1311.00,0.7447
1310.00,0.7482
1309.00,0.7513
1308.00,0.7538
1307.00,0.7558
1306.00,0.7570
1305.00,0.7569
1304.00,0.7554
1303.00,0.7523
1302.00,0.7481
1301.00,0.7430
1300.00,0.7375
1299.00,0.7317
1298.00,0.7259
1297.00,0.7200
1296.00,0.7144
1295.00,0.7092
1294.00,0.7047
1293.00,0.7006
1292.00,0.6967
1291.00,0.6931
1290.00,0.6896
1289.00,0.6861
1288.00,0.6826
1287.00,0.6792
1286.00,0.6755
1285.00,0.6716
1284.00,0.6673
1283.00,0.6633
1282.00,0.6598
1281.00,0.6568
1280.00,0.6543
1279.00,0.6521
1278.00,0.6501
1277.00,0.6479
1276.00,0.6456
1275.00,0.6434
1274.00,0.6413
1273.00,0.6395
1272.00,0.6381
1271.00,0.6372
1270.00,0.6366
1269.00,0.6360
1268.00,0.6346
1267.00,0.6321
1266.00,0.6284
1265.00,0.6239
1264.00,0.6195
1263.00,0.6157
1262.00,0.6128
1261.00,0.6105
1260.00,0.6087
1259.00,0.6070
1258.00,0.6053
1257.00,0.6035
1256.00,0.6014
1255.00,0.5993
1254.00,0.5975
1253.00,0.5960
1252.00,0.5947
1251.00,0.5935
1250.00,0.5922
1249.00,0.5907
1248.00,0.5891
1247.00,0.5873
1246.00,0.5852
1245.00,0.5826
1244.00,0.5795
1243.00,0.5761
1242.00,0.5728
1241.00,0.5694
1240.00,0.5662
1239.00,0.5634
1238.00,0.5610
1237.00,0.5589
1236.00,0.5573
1235.00,0.5561
1234.00,0.5555
1233.00,0.5554
1232.00,0.5557
1231.00,0.5564
1230.00,0.5571
1229.00,0.5571
1228.00,0.5561
1227.00,0.5539
1226.00,0.5510
1225.00,0.5476
1224.00,0.5443
1223.00,0.5414
1222.00,0.5388
1221.00,0.5367
1220.00,0.5352
1219.00,0.5343
1218.00,0.5341
1217.00,0.5344
1216.00,0.5352
1215.00,0.5363
1214.00,0.5375
1213.00,0.5382
1212.00,0.5381
1211.00,0.5373
1210.00,0.5362
1209.00,0.5349
1208.00,0.5335
1207.00,0.5322
1206.00,0.5307
1205.00,0.5292
1204.00,0.5277
1203.00,0.5264
1202.00,0.5255
1201.00,0.5248
1200.00,0.5243
1199.00,0.5239
1198.00,0.5236
1197.00,0.5231
1196.00,0.5223
1195.00,0.5215
1194.00,0.5208
1193.00,0.5202
1192.00,0.5195
1191.00,0.5189
1190.00,0.5184
1189.00,0.5178
1188.00,0.5171
1187.00,0.5164
1186.00,0.5158
1185.00,0.5152
1184.00,0.5148
1183.00,0.5146
1182.00,0.5146
1181.00,0.5150
1180.00,0.5156
1179.00,0.5166
1178.00,0.5179
1177.00,0.5195
1176.00,0.5216
1175.00,0.5246
1174.00,0.5286
1173.00,0.5334
1172.00,0.5385
1171.00,0.5433
1170.00,0.5469
1169.00,0.5487
1168.00,0.5488
1167.00,0.5477
1166.00,0.5463
1165.00,0.5450
1164.00,0.5441
1163.00,0.5440
1162.00,0.5445
1161.00,0.5456
1160.00,0.5471
1159.00,0.5487
1158.00,0.5502
1157.00,0.5514
1156.00,0.5520
1155.00,0.5519
1154.00,0.5512
1153.00,0.5497
1152.00,0.5475
1151.00,0.5448
1150.00,0.5420
1149.00,0.5392
1148.00,0.5364
1147.00,0.5340
1146.00,0.5321
1145.00,0.5307
1144.00,0.5300
1143.00,0.5300
1142.00,0.5311
1141.00,0.5331
1140.00,0.5363
1139.00,0.5408
1138.00,0.5465
1137.00,0.5534
1136.00,0.5612
1135.00,0.5695
1134.00,0.5769
1133.00,0.5814
1132.00,0.5816
1131.00,0.5775
1130.00,0.5703
1129.00,0.5619
1128.00,0.5542
1127.00,0.5481
1126.00,0.5439
1125.00,0.5411
1124.00,0.5393
1123.00,0.5380
1122.00,0.5368
1121.00,0.5354
1120.00,0.5343
1119.00,0.5341
1118.00,0.5351
1117.00,0.5375
1116.00,0.5409
1115.00,0.5443
1114.00,0.5463
1113.00,0.5455
1112.00,0.5415
1111.00,0.5354
1110.00,0.5286
1109.00,0.5225
1108.00,0.5176
1107.00,0.5143
1106.00,0.5122
1105.00,0.5110
1104.00,0.5103
1103.00,0.5099
1102.00,0.5094
1101.00,0.5087
1100.00,0.5077
1099.00,0.5067
1098.00,0.5058
1097.00,0.5050
1096.00,0.5043
1095.00,0.5040
1094.00,0.5042
1093.00,0.5046
1092.00,0.5052
1091.00,0.5061
1090.00,0.5075
1089.00,0.5093
1088.00,0.5116
1087.00,0.5146
1086.00,0.5185
1085.00,0.5232
1084.00,0.5287
1083.00,0.5351
1082.00,0.5422
1081.00,0.5499
1080.00,0.5576
1079.00,0.5646
1078.00,0.5701
1077.00,0.5729
1076.00,0.5726
1075.00,0.5695
1074.00,0.5642
1073.00,0.5578
1072.00,0.5515
1071.00,0.5460
1070.00,0.5417
1069.00,0.5384
1068.00,0.5357
1067.00,0.5337
1066.00,0.5322
1065.00,0.5312
1064.00,0.5307
1063.00,0.5306
1062.00,0.5308
1061.00,0.5312
1060.00,0.5316
1059.00,0.5320
1058.00,0.5321
1057.00,0.5319
1056.00,0.5314
1055.00,0.5308
1054.00,0.5305
1053.00,0.5304
1052.00,0.5307
1051.00,0.5317
1050.00,0.5333
1049.00,0.5354
1048.00,0.5375
1047.00,0.5392
1046.00,0.5404
1045.00,0.5413
1044.00,0.5417
1043.00,0.5419
1042.00,0.5418
1041.00,0.5416
1040.00,0.5413
1039.00,0.5410
1038.00,0.5406
1037.00,0.5399
1036.00,0.5393
1035.00,0.5391
1034.00,0.5398
1033.00,0.5413
1032.00,0.5431
1031.00,0.5448
1030.00,0.5462
1029.00,0.5468
1028.00,0.5464
1027.00,0.5447
1026.00,0.5414
1025.00,0.5367
1024.00,0.5310
1023.00,0.5253
1022.00,0.5198
1021.00,0.5149
1020.00,0.5106
1019.00,0.5067
1018.00,0.5033
1017.00,0.5003
1016.00,0.4977
1015.00,0.4955
1014.00,0.4938
1013.00,0.4924
1012.00,0.4913
1011.00,0.4904
1010.00,0.4898
1009.00,0.4897
1008.00,0.4899
1007.00,0.4906
1006.00,0.4917
1005.00,0.4931
1004.00,0.4947
1003.00,0.4966
1002.00,0.4985
1001.00,0.5002
1000.00,0.5015
999.00,0.5024
998.00,0.5026
997.00,0.5018
996.00,0.5002
995.00,0.4979
994.00,0.4952
993.00,0.4920
992.00,0.4887
991.00,0.4855
990.00,0.4826
989.00,0.4799
988.00,0.4777
987.00,0.4761
986.00,0.4755
985.00,0.4757
984.00,0.4767
983.00,0.4782
982.00,0.4803
981.00,0.4825
980.00,0.4849
979.00,0.4871
978.00,0.4893
977.00,0.4913
976.00,0.4930
975.00,0.4943
974.00,0.4952
973.00,0.4958
972.00,0.4960
971.00,0.4960
970.00,0.4959
969.00,0.4956
968.00,0.4953
967.00,0.4950
966.00,0.4945
965.00,0.4938
964.00,0.4928
963.00,0.4914
962.00,0.4899
961.00,0.4884
960.00,0.4869
959.00,0.4858
958.00,0.4849
957.00,0.4841
956.00,0.4834
955.00,0.4826
954.00,0.4816
953.00,0.4804
952.00,0.4792
951.00,0.4781
950.00,0.4774
949.00,0.4771
948.00,0.4773
947.00,0.4778
946.00,0.4787
945.00,0.4800
944.00,0.4815
943.00,0.4833
942.00,0.4852
941.00,0.4869
940.00,0.4882
939.00,0.4892
938.00,0.4896
937.00,0.4894
936.00,0.4885
935.00,0.4871
934.00,0.4853
933.00,0.4829
932.00,0.4803
931.00,0.4779
930.00,0.4758
929.00,0.4742
928.00,0.4731
927.00,0.4729
926.00,0.4742
925.00,0.4770
924.00,0.4814
923.00,0.4866
922.00,0.4915
921.00,0.4943
920.00,0.4941
919.00,0.4902
918.00,0.4835
917.00,0.4751
916.00,0.4666
915.00,0.4589
914.00,0.4524
913.00,0.4472
912.00,0.4432
911.00,0.4401
910.00,0.4377
909.00,0.4358
908.00,0.4343
907.00,0.4335
906.00,0.4331
905.00,0.4331
904.00,0.4335
903.00,0.4344
902.00,0.4359
901.00,0.4380
900.00,0.4406
899.00,0.4437
898.00,0.4474
897.00,0.4513
896.00,0.4552
895.00,0.4592
894.00,0.4633
893.00,0.4676
892.00,0.4716
891.00,0.4752
890.00,0.4780
889.00,0.4795
888.00,0.4796
887.00,0.4784
886.00,0.4764
885.00,0.4742
884.00,0.4723
883.00,0.4714
882.00,0.4720
881.00,0.4737
880.00,0.4758
879.00,0.4777
878.00,0.4786
877.00,0.4784
876.00,0.4776
875.00,0.4766
874.00,0.4761
873.00,0.4760
872.00,0.4762
871.00,0.4766
870.00,0.4773
869.00,0.4785
868.00,0.4803
867.00,0.4830
866.00,0.4864
865.00,0.4904
864.00,0.4945
863.00,0.4976
862.00,0.4985
861.00,0.4964
860.00,0.4914
859.00,0.4845
858.00,0.4772
857.00,0.4709
856.00,0.4661
855.00,0.4628
854.00,0.4607
853.00,0.4592
852.00,0.4579
851.00,0.4565
850.00,0.4549
849.00,0.4527
848.00,0.4500
847.00,0.4470
846.00,0.4441
845.00,0.4413
844.00,0.4388
843.00,0.4367
842.00,0.4355
841.00,0.4359
840.00,0.4385
839.00,0.4436
838.00,0.4504
837.00,0.4573
836.00,0.4623
835.00,0.4638
834.00,0.4618
833.00,0.4577
832.00,0.4536
831.00,0.4513
830.00,0.4511
829.00,0.4527
828.00,0.4559
827.00,0.4601
826.00,0.4652
825.00,0.4708
824.00,0.4769
823.00,0.4834
822.00,0.4905
821.00,0.4978
820.00,0.5049
819.00,0.5116
818.00,0.5175
817.00,0.5219
816.00,0.5244
815.00,0.5247
814.00,0.5226
813.00,0.5184
812.00,0.5126
811.00,0.5062
810.00,0.4997
809.00,0.4936
808.00,0.4879
807.00,0.4826
806.00,0.4778
805.00,0.4730
804.00,0.4680
803.00,0.4624
802.00,0.4565
801.00,0.4505
800.00,0.4451
799.00,0.4407
798.00,0.4374
797.00,0.4352
796.00,0.4338
795.00,0.4334
794.00,0.4335
793.00,0.4342
792.00,0.4355
791.00,0.4375
790.00,0.4401
789.00,0.4429
788.00,0.4459
787.00,0.4491
786.00,0.4528
785.00,0.4570
784.00,0.4615
783.00,0.4658
782.00,0.4695
781.00,0.4725
780.00,0.4747
779.00,0.4763
778.00,0.4778
777.00,0.4795
776.00,0.4813
775.00,0.4832
774.00,0.4851
773.00,0.4870
772.00,0.4891
771.00,0.4917
770.00,0.4948
769.00,0.4982
768.00,0.5017
767.00,0.5049
766.00,0.5076
765.00,0.5095
764.00,0.5109
763.00,0.5125
762.00,0.5150
761.00,0.5185
760.00,0.5228
759.00,0.5273
758.00,0.5314
757.00,0.5350
756.00,0.5381
755.00,0.5413
754.00,0.5447
753.00,0.5487
752.00,0.5532
751.00,0.5581
750.00,0.5631
749.00,0.5676
748.00,0.5715
747.00,0.5750
746.00,0.5786
745.00,0.5825
744.00,0.5869
743.00,0.5917
742.00,0.5969
741.00,0.6021
740.00,0.6069
739.00,0.6109
738.00,0.6144
737.00,0.6176
736.00,0.6210
735.00,0.6251
734.00,0.6302
733.00,0.6365
732.00,0.6444
731.00,0.6543
730.00,0.6670
729.00,0.6827
728.00,0.7015
727.00,0.7236
726.00,0.7495
725.00,0.7786
724.00,0.8084
723.00,0.8335
722.00,0.8459
721.00,0.8380
720.00,0.8086
719.00,0.7649
718.00,0.7173
717.00,0.6733
716.00,0.6363
715.00,0.6067
714.00,0.5833
713.00,0.5645
712.00,0.5489
711.00,0.5363
710.00,0.5260
709.00,0.5177
708.00,0.5108
707.00,0.5052
706.00,0.5006
705.00,0.4964
704.00,0.4925
703.00,0.4893
702.00,0.4873
701.00,0.4863
700.00,0.4845
699.00,0.4795
698.00,0.4694
697.00,0.4546
696.00,0.4378
695.00,0.4220
694.00,0.4091
693.00,0.3994
692.00,0.3925
691.00,0.3877
690.00,0.3843
689.00,0.3814
688.00,0.3788
687.00,0.3764
686.00,0.3743
685.00,0.3725
684.00,0.3713
683.00,0.3706
682.00,0.3704
681.00,0.3704
680.00,0.3705
679.00,0.3708
678.00,0.3711
677.00,0.3714
676.00,0.3718
675.00,0.3722
674.00,0.3726
673.00,0.3728
672.00,0.3729
671.00,0.3731
670.00,0.3737
669.00,0.3746
668.00,0.3751
667.00,0.3750
666.00,0.3749
665.00,0.3753
664.00,0.3760
663.00,0.3770
662.00,0.3780
661.00,0.3789
660.00,0.3795
659.00,0.3799
658.00,0.3805
657.00,0.3812
656.00,0.3820
655.00,0.3829
654.00,0.3837
653.00,0.3843
652.00,0.3849
651.00,0.3859
650.00,0.3873
649.00,0.3887
648.00,0.3898
647.00,0.3907
646.00,0.3916
645.00,0.3928
644.00,0.3942
643.00,0.3957
642.00,0.3973
641.00,0.3988
640.00,0.4000
639.00,0.4010
638.00,0.4020
637.00,0.4031
636.00,0.4041
635.00,0.4051
634.00,0.4060
633.00,0.4068
632.00,0.4076
631.00,0.4087
630.00,0.4100
629.00,0.4113
628.00,0.4126
627.00,0.4140
626.00,0.4158
625.00,0.4178
624.00,0.4199
623.00,0.4219
622.00,0.4237
621.00,0.4251
620.00,0.4262
619.00,0.4272
618.00,0.4282
617.00,0.4287
616.00,0.4286
615.00,0.4277
614.00,0.4263
613.00,0.4246
612.00,0.4228
611.00,0.4211
610.00,0.4196
609.00,0.4185
608.00,0.4178
607.00,0.4174
606.00,0.4171
605.00,0.4166
604.00,0.4162
603.00,0.4160
602.00,0.4161
601.00,0.4163
600.00,0.4164
599.00,0.4166
598.00,0.4170
597.00,0.4178
596.00,0.4191
595.00,0.4207
594.00,0.4225
593.00,0.4244
592.00,0.4261
591.00,0.4278
590.00,0.4294
589.00,0.4310
588.00,0.4327
587.00,0.4348
586.00,0.4373
585.00,0.4402
584.00,0.4432
583.00,0.4461
582.00,0.4487
581.00,0.4509
580.00,0.4530
579.00,0.4550
578.00,0.4568
577.00,0.4586
576.00,0.4606
575.00,0.4627
574.00,0.4645
573.00,0.4659
572.00,0.4670
571.00,0.4686
570.00,0.4708
569.00,0.4734
568.00,0.4759
567.00,0.4781
566.00,0.4799
565.00,0.4811
564.00,0.4819
563.00,0.4830
562.00,0.4844
561.00,0.4858
560.00,0.4870
559.00,0.4880
558.00,0.4894
557.00,0.4910
556.00,0.4923
555.00,0.4930
554.00,0.4932
553.00,0.4935
552.00,0.4945
551.00,0.4962
550.00,0.4980
