Created as New Dataset,
cm-1,A
4000.00,0.3115
3999.00,0.3111
3998.00,0.3108
3997.00,0.3105
3996.00,0.3102
3995.00,0.3099
3994.00,0.3095
3993.00,0.3091
3992.00,0.3088
3991.00,0.3085
3990.00,0.3082
3989.00,0.3079
3988.00,0.3075
3987.00,0.3072
3986.00,0.3069
3985.00,0.3065
3984.00,0.3061
3983.00,0.3058
3982.00,0.3055
3981.00,0.3052
3980.00,0.3049
3979.00,0.3045
3978.00,0.3041
3977.00,0.3038
3976.00,0.3034
3975.00,0.3032
3974.00,0.3030
3973.00,0.3028
3972.00,0.3025
3971.00,0.3023
3970.00,0.3020
3969.00,0.3017
3968.00,0.3014
3967.00,0.3011
3966.00,0.3009
3965.00,0.3007
3964.00,0.3005
3963.00,0.3004
3962.00,0.3004
3961.00,0.3002
3960.00,0.3001
3959.00,0.2999
3958.00,0.2998
3957.00,0.2998
3956.00,0.2997
3955.00,0.2996
3954.00,0.2994
3953.00,0.2992
3952.00,0.2991
3951.00,0.2990
3950.00,0.2989
3949.00,0.2989
3948.00,0.2988
3947.00,0.2987
3946.00,0.2985
3945.00,0.2984
3944.00,0.2983
3943.00,0.2982
3942.00,0.2980
3941.00,0.2977
3940.00,0.2976
3939.00,0.2974
3938.00,0.2973
3937.00,0.2972
3936.00,0.2971
3935.00,0.2971
3934.00,0.2971
3933.00,0.2971
3932.00,0.2971
3931.00,0.2971
3930.00,0.2971
3929.00,0.2971
3928.00,0.2971
3927.00,0.2971
3926.00,0.2971
3925.00,0.2970
3924.00,0.2968
3923.00,0.2968
3922.00,0.2968
3921.00,0.2969
3920.00,0.2970
3919.00,0.2970
3918.00,0.2971
3917.00,0.2972
3916.00,0.2972
3915.00,0.2972
3914.00,0.2971
3913.00,0.2969
3912.00,0.2967
3911.00,0.2965
3910.00,0.2962
3909.00,0.2961
3908.00,0.2961
3907.00,0.2963
3906.00,0.2965
3905.00,0.2968
3904.00,0.2970
3903.00,0.2972
3902.00,0.2974
3901.00,0.2976
3900.00,0.2977
3899.00,0.2976
3898.00,0.2973
3897.00,0.2969
3896.00,0.2965
3895.00,0.2962
3894.00,0.2959
3893.00,0.2958
3892.00,0.2958
3891.00,0.2956
3890.00,0.2955
3889.00,0.2955
3888.00,0.2956
3887.00,0.2959
3886.00,0.2959
3885.00,0.2958
3884.00,0.2956
3883.00,0.2957
3882.00,0.2960
3881.00,0.2962
3880.00,0.2961
3879.00,0.2957
3878.00,0.2953
3877.00,0.2952
3876.00,0.2952
3875.00,0.2951
3874.00,0.2950
3873.00,0.2948
3872.00,0.2949
3871.00,0.2951
3870.00,0.2952
3869.00,0.2951
3868.00,0.2949
3867.00,0.2949
3866.00,0.2949
3865.00,0.2947
3864.00,0.2943
3863.00,0.2939
3862.00,0.2935
3861.00,0.2933
3860.00,0.2931
3859.00,0.2930
3858.00,0.2930
3857.00,0.2931
3856.00,0.2933
3855.00,0.2935
3854.00,0.2938
3853.00,0.2940
3852.00,0.2940
3851.00,0.2940
3850.00,0.2941
3849.00,0.2939
3848.00,0.2936
3847.00,0.2931
3846.00,0.2926
3845.00,0.2923
3844.00,0.2921
3843.00,0.2921
3842.00,0.2923
3841.00,0.2925
3840.00,0.2928
3839.00,0.2930
3838.00,0.2932
3837.00,0.2933
3836.00,0.2933
3835.00,0.2934
3834.00,0.2933
3833.00,0.2931
3832.00,0.2927
3831.00,0.2921
3830.00,0.2915
3829.00,0.2911
3828.00,0.2909
3827.00,0.2908
3826.00,0.2906
3825.00,0.2905
3824.00,0.2906
3823.00,0.2909
3822.00,0.2912
3821.00,0.2913
3820.00,0.2911
3819.00,0.2911
3818.00,0.2912
3817.00,0.2914
3816.00,0.2911
3815.00,0.2904
3814.00,0.2897
3813.00,0.2892
3812.00,0.2889
3811.00,0.2886
3810.00,0.2882
3809.00,0.2880
3808.00,0.2878
3807.00,0.2876
3806.00,0.2874
3805.00,0.2874
3804.00,0.2877
3803.00,0.2881
3802.00,0.2883
3801.00,0.2881
3800.00,0.2878
3799.00,0.2876
3798.00,0.2876
3797.00,0.2875
3796.00,0.2871
3795.00,0.2865
3794.00,0.2858
3793.00,0.2854
3792.00,0.2850
3791.00,0.2846
3790.00,0.2843
3789.00,0.2840
3788.00,0.2837
3787.00,0.2835
3786.00,0.2834
3785.00,0.2832
3784.00,0.2831
3783.00,0.2831
3782.00,0.2831
3781.00,0.2831
3780.00,0.2831
3779.00,0.2829
3778.00,0.2827
3777.00,0.2825
3776.00,0.2824
3775.00,0.2823
3774.00,0.2820
3773.00,0.2818
3772.00,0.2818
3771.00,0.2818
3770.00,0.2818
3769.00,0.2817
3768.00,0.2817
3767.00,0.2818
3766.00,0.2818
3765.00,0.2817
3764.00,0.2814
3763.00,0.2811
3762.00,0.2809
3761.00,0.2808
3760.00,0.2807
3759.00,0.2805
3758.00,0.2803
3757.00,0.2802
3756.00,0.2801
3755.00,0.2801
3754.00,0.2801
3753.00,0.2801
3752.00,0.2801
3751.00,0.2802
3750.00,0.2804
3749.00,0.2806
3748.00,0.2808
3747.00,0.2811
3746.00,0.2814
3745.00,0.2814
3744.00,0.2808
3743.00,0.2800
3742.00,0.2795
3741.00,0.2793
3740.00,0.2792
3739.00,0.2790
3738.00,0.2787
3737.00,0.2785
3736.00,0.2785
3735.00,0.2787
3734.00,0.2790
3733.00,0.2791
3732.00,0.2789
3731.00,0.2785
3730.00,0.2779
3729.00,0.2775
3728.00,0.2771
3727.00,0.2767
3726.00,0.2763
3725.00,0.2759
3724.00,0.2756
3723.00,0.2755
3722.00,0.2754
3721.00,0.2752
3720.00,0.2750
3719.00,0.2748
3718.00,0.2746
3717.00,0.2743
3716.00,0.2740
3715.00,0.2739
3714.00,0.2739
3713.00,0.2739
3712.00,0.2740
3711.00,0.2742
3710.00,0.2744
3709.00,0.2744
3708.00,0.2744
3707.00,0.2741
3706.00,0.2738
3705.00,0.2736
3704.00,0.2734
3703.00,0.2733
3702.00,0.2732
3701.00,0.2731
3700.00,0.2730
3699.00,0.2729
3698.00,0.2729
3697.00,0.2729
3696.00,0.2728
3695.00,0.2727
3694.00,0.2728
3693.00,0.2731
3692.00,0.2734
3691.00,0.2737
3690.00,0.2740
3689.00,0.2742
3688.00,0.2743
3687.00,0.2742
3686.00,0.2740
3685.00,0.2739
3684.00,0.2736
3683.00,0.2732
3682.00,0.2727
3681.00,0.2724
3680.00,0.2722
3679.00,0.2722
3678.00,0.2724
3677.00,0.2727
3676.00,0.2731
3675.00,0.2735
3674.00,0.2737
3673.00,0.2740
3672.00,0.2743
3671.00,0.2744
3670.00,0.2742
3669.00,0.2738
3668.00,0.2733
3667.00,0.2730
3666.00,0.2728
3665.00,0.2725
3664.00,0.2722
3663.00,0.2719
3662.00,0.2716
3661.00,0.2715
3660.00,0.2716
3659.00,0.2718
3658.00,0.2721
3657.00,0.2724
3656.00,0.2726
3655.00,0.2728
3654.00,0.2731
3653.00,0.2737
3652.00,0.2742
3651.00,0.2746
3650.00,0.2749
3649.00,0.2754
3648.00,0.2758
3647.00,0.2761
3646.00,0.2760
3645.00,0.2757
3644.00,0.2752
3643.00,0.2747
3642.00,0.2741
3641.00,0.2737
3640.00,0.2734
3639.00,0.2733
3638.00,0.2732
3637.00,0.2733
3636.00,0.2734
3635.00,0.2736
3634.00,0.2738
3633.00,0.2742
3632.00,0.2746
3631.00,0.2752
3630.00,0.2759
3629.00,0.2765
3628.00,0.2770
3627.00,0.2772
3626.00,0.2774
3625.00,0.2776
3624.00,0.2777
3623.00,0.2776
3622.00,0.2775
3621.00,0.2776
3620.00,0.2777
3619.00,0.2778
3618.00,0.2778
3617.00,0.2778
3616.00,0.2778
3615.00,0.2779
3614.00,0.2778
3613.00,0.2777
3612.00,0.2776
3611.00,0.2775
3610.00,0.2775
3609.00,0.2775
3608.00,0.2774
3607.00,0.2773
3606.00,0.2770
3605.00,0.2767
3604.00,0.2762
3603.00,0.2757
3602.00,0.2752
3601.00,0.2746
3600.00,0.2741
3599.00,0.2736
3598.00,0.2732
3597.00,0.2727
3596.00,0.2723
3595.00,0.2719
3594.00,0.2715
3593.00,0.2711
3592.00,0.2709
3591.00,0.2707
3590.00,0.2705
3589.00,0.2705
3588.00,0.2704
3587.00,0.2704
3586.00,0.2704
3585.00,0.2704
3584.00,0.2702
3583.00,0.2700
3582.00,0.2697
3581.00,0.2695
3580.00,0.2694
3579.00,0.2693
3578.00,0.2693
3577.00,0.2692
3576.00,0.2691
3575.00,0.2691
3574.00,0.2690
3573.00,0.2691
3572.00,0.2691
3571.00,0.2692
3570.00,0.2694
3569.00,0.2696
3568.00,0.2700
3567.00,0.2705
3566.00,0.2710
3565.00,0.2713
3564.00,0.2715
3563.00,0.2716
3562.00,0.2716
3561.00,0.2716
3560.00,0.2715
3559.00,0.2715
3558.00,0.2715
3557.00,0.2717
3556.00,0.2721
3555.00,0.2725
3554.00,0.2730
3553.00,0.2734
3552.00,0.2738
3551.00,0.2741
3550.00,0.2744
3549.00,0.2747
3548.00,0.2752
3547.00,0.2756
3546.00,0.2761
3545.00,0.2765
3544.00,0.2769
3543.00,0.2772
3542.00,0.2775
3541.00,0.2778
3540.00,0.2780
3539.00,0.2782
3538.00,0.2784
3537.00,0.2787
3536.00,0.2789
3535.00,0.2792
3534.00,0.2794
3533.00,0.2796
3532.00,0.2798
3531.00,0.2799
3530.00,0.2800
3529.00,0.2803
3528.00,0.2805
3527.00,0.2809
3526.00,0.2812
3525.00,0.2816
3524.00,0.2820
3523.00,0.2824
3522.00,0.2828
3521.00,0.2830
3520.00,0.2833
3519.00,0.2836
3518.00,0.2839
3517.00,0.2842
3516.00,0.2846
3515.00,0.2849
3514.00,0.2853
3513.00,0.2857
3512.00,0.2861
3511.00,0.2866
3510.00,0.2870
3509.00,0.2874
3508.00,0.2879
3507.00,0.2883
3506.00,0.2887
3505.00,0.2892
3504.00,0.2896
3503.00,0.2900
3502.00,0.2904
3501.00,0.2908
3500.00,0.2913
3499.00,0.2917
3498.00,0.2921
3497.00,0.2925
3496.00,0.2930
3495.00,0.2935
3494.00,0.2941
3493.00,0.2946
3492.00,0.2952
3491.00,0.2959
3490.00,0.2965
3489.00,0.2971
3488.00,0.2978
3487.00,0.2985
3486.00,0.2991
3485.00,0.2997
3484.00,0.3002
3483.00,0.3008
3482.00,0.3013
3481.00,0.3018
3480.00,0.3023
3479.00,0.3027
3478.00,0.3032
3477.00,0.3036
3476.00,0.3039
3475.00,0.3043
3474.00,0.3047
3473.00,0.3052
3472.00,0.3056
3471.00,0.3060
3470.00,0.3065
3469.00,0.3069
3468.00,0.3073
3467.00,0.3078
3466.00,0.3082
3465.00,0.3087
3464.00,0.3091
3463.00,0.3096
3462.00,0.3101
3461.00,0.3105
3460.00,0.3110
3459.00,0.3115
3458.00,0.3120
3457.00,0.3125
3456.00,0.3131
3455.00,0.3136
3454.00,0.3141
3453.00,0.3147
3452.00,0.3153
3451.00,0.3158
3450.00,0.3165
3449.00,0.3172
3448.00,0.3179
3447.00,0.3186
3446.00,0.3193
3445.00,0.3199
3444.00,0.3205
3443.00,0.3212
3442.00,0.3218
3441.00,0.3224
3440.00,0.3230
3439.00,0.3235
3438.00,0.3241
3437.00,0.3247
3436.00,0.3253
3435.00,0.3259
3434.00,0.3265
3433.00,0.3271
3432.00,0.3277
3431.00,0.3283
3430.00,0.3289
3429.00,0.3295
3428.00,0.3301
3427.00,0.3307
3426.00,0.3313
3425.00,0.3320
3424.00,0.3327
3423.00,0.3334
3422.00,0.3342
3421.00,0.3350
3420.00,0.3358
3419.00,0.3365
3418.00,0.3372
3417.00,0.3379
3416.00,0.3386
3415.00,0.3394
3414.00,0.3402
3413.00,0.3409
3412.00,0.3417
3411.00,0.3425
3410.00,0.3433
3409.00,0.3442
3408.00,0.3451
3407.00,0.3459
3406.00,0.3468
3405.00,0.3476
3404.00,0.3485
3403.00,0.3494
3402.00,0.3502
3401.00,0.3511
3400.00,0.3519
3399.00,0.3528
3398.00,0.3537
3397.00,0.3545
3396.00,0.3554
3395.00,0.3562
3394.00,0.3571
3393.00,0.3580
3392.00,0.3590
3391.00,0.3599
3390.00,0.3609
3389.00,0.3619
3388.00,0.3628
3387.00,0.3637
3386.00,0.3647
3385.00,0.3656
3384.00,0.3666
3383.00,0.3676
3382.00,0.3687
3381.00,0.3697
3380.00,0.3708
3379.00,0.3718
3378.00,0.3728
3377.00,0.3738
3376.00,0.3749
3375.00,0.3760
3374.00,0.3772
3373.00,0.3783
3372.00,0.3795
3371.00,0.3807
3370.00,0.3819
3369.00,0.3831
3368.00,0.3843
3367.00,0.3855
3366.00,0.3868
3365.00,0.3881
3364.00,0.3894
3363.00,0.3907
3362.00,0.3919
3361.00,0.3933
3360.00,0.3946
3359.00,0.3961
3358.00,0.3975
3357.00,0.3989
3356.00,0.4003
3355.00,0.4017
3354.00,0.4031
3353.00,0.4045
3352.00,0.4060
3351.00,0.4074
3350.00,0.4088
3349.00,0.4102
3348.00,0.4117
3347.00,0.4131
3346.00,0.4145
3345.00,0.4159
3344.00,0.4172
3343.00,0.4184
3342.00,0.4195
3341.00,0.4206
3340.00,0.4217
3339.00,0.4227
3338.00,0.4236
3337.00,0.4246
3336.00,0.4254
3335.00,0.4263
3334.00,0.4271
3333.00,0.4278
3332.00,0.4283
3331.00,0.4288
3330.00,0.4293
3329.00,0.4297
3328.00,0.4300
3327.00,0.4303
3326.00,0.4304
3325.00,0.4305
3324.00,0.4305
3323.00,0.4304
3322.00,0.4302
3321.00,0.4300
3320.00,0.4297
3319.00,0.4294
3318.00,0.4290
3317.00,0.4286
3316.00,0.4282
3315.00,0.4277
3314.00,0.4271
3313.00,0.4264
3312.00,0.4258
3311.00,0.4251
3310.00,0.4245
3309.00,0.4239
3308.00,0.4232
3307.00,0.4225
3306.00,0.4217
3305.00,0.4209
3304.00,0.4201
3303.00,0.4192
3302.00,0.4184
3301.00,0.4177
3300.00,0.4171
3299.00,0.4165
3298.00,0.4159
3297.00,0.4153
3296.00,0.4147
3295.00,0.4142
3294.00,0.4137
3293.00,0.4133
3292.00,0.4129
3291.00,0.4125
3290.00,0.4121
3289.00,0.4117
3288.00,0.4114
3287.00,0.4111
3286.00,0.4109
3285.00,0.4109
3284.00,0.4108
3283.00,0.4108
3282.00,0.4108
3281.00,0.4109
3280.00,0.4110
3279.00,0.4112
3278.00,0.4114
3277.00,0.4117
3276.00,0.4119
3275.00,0.4122
3274.00,0.4125
3273.00,0.4128
3272.00,0.4131
3271.00,0.4134
3270.00,0.4138
3269.00,0.4142
3268.00,0.4146
3267.00,0.4150
3266.00,0.4154
3265.00,0.4158
3264.00,0.4162
3263.00,0.4167
3262.00,0.4172
3261.00,0.4178
3260.00,0.4183
3259.00,0.4188
3258.00,0.4192
3257.00,0.4197
3256.00,0.4202
3255.00,0.4207
3254.00,0.4212
3253.00,0.4217
3252.00,0.4221
3251.00,0.4226
3250.00,0.4230
3249.00,0.4235
3248.00,0.4240
3247.00,0.4245
3246.00,0.4250
3245.00,0.4255
3244.00,0.4259
3243.00,0.4264
3242.00,0.4268
3241.00,0.4272
3240.00,0.4275
3239.00,0.4278
3238.00,0.4281
3237.00,0.4284
3236.00,0.4287
3235.00,0.4289
3234.00,0.4291
3233.00,0.4293
3232.00,0.4294
3231.00,0.4295
3230.00,0.4295
3229.00,0.4296
3228.00,0.4296
3227.00,0.4296
3226.00,0.4296
3225.00,0.4297
3224.00,0.4298
3223.00,0.4298
3222.00,0.4297
3221.00,0.4296
3220.00,0.4295
3219.00,0.4295
3218.00,0.4294
3217.00,0.4294
3216.00,0.4293
3215.00,0.4293
3214.00,0.4292
3213.00,0.4291
3212.00,0.4291
3211.00,0.4290
3210.00,0.4290
3209.00,0.4290
3208.00,0.4290
3207.00,0.4290
3206.00,0.4290
3205.00,0.4290
3204.00,0.4290
3203.00,0.4289
3202.00,0.4287
3201.00,0.4286
3200.00,0.4284
3199.00,0.4283
3198.00,0.4281
3197.00,0.4280
3196.00,0.4278
3195.00,0.4276
3194.00,0.4273
3193.00,0.4270
3192.00,0.4267
3191.00,0.4264
3190.00,0.4260
3189.00,0.4257
3188.00,0.4253
3187.00,0.4249
3186.00,0.4245
3185.00,0.4241
3184.00,0.4236
3183.00,0.4231
3182.00,0.4226
3181.00,0.4221
3180.00,0.4217
3179.00,0.4213
3178.00,0.4208
3177.00,0.4203
3176.00,0.4198
3175.00,0.4192
3174.00,0.4187
3173.00,0.4183
3172.00,0.4178
3171.00,0.4172
3170.00,0.4166
3169.00,0.4160
3168.00,0.4154
3167.00,0.4148
3166.00,0.4142
3165.00,0.4135
3164.00,0.4128
3163.00,0.4122
3162.00,0.4115
3161.00,0.4109
3160.00,0.4102
3159.00,0.4095
3158.00,0.4087
3157.00,0.4080
3156.00,0.4073
3155.00,0.4067
3154.00,0.4059
3153.00,0.4052
3152.00,0.4045
3151.00,0.4038
3150.00,0.4031
3149.00,0.4025
3148.00,0.4019
3147.00,0.4014
3146.00,0.4008
3145.00,0.4002
3144.00,0.3997
3143.00,0.3992
3142.00,0.3987
3141.00,0.3983
3140.00,0.3980
3139.00,0.3977
3138.00,0.3974
3137.00,0.3972
3136.00,0.3970
3135.00,0.3968
3134.00,0.3966
3133.00,0.3964
3132.00,0.3962
3131.00,0.3960
3130.00,0.3960
3129.00,0.3960
3128.00,0.3961
3127.00,0.3961
3126.00,0.3961
3125.00,0.3962
3124.00,0.3963
3123.00,0.3964
3122.00,0.3966
3121.00,0.3967
3120.00,0.3969
3119.00,0.3972
3118.00,0.3975
3117.00,0.3978
3116.00,0.3981
3115.00,0.3986
3114.00,0.3990
3113.00,0.3995
3112.00,0.4001
3111.00,0.4007
3110.00,0.4015
3109.00,0.4023
3108.00,0.4032
3107.00,0.4041
3106.00,0.4050
3105.00,0.4058
3104.00,0.4067
3103.00,0.4077
3102.00,0.4086
3101.00,0.4095
3100.00,0.4104
3099.00,0.4114
3098.00,0.4124
3097.00,0.4136
3096.00,0.4149
3095.00,0.4163
3094.00,0.4178
3093.00,0.4195
3092.00,0.4213
3091.00,0.4233
3090.00,0.4254
3089.00,0.4277
3088.00,0.4301
3087.00,0.4327
3086.00,0.4353
3085.00,0.4380
3084.00,0.4409
3083.00,0.4439
3082.00,0.4470
3081.00,0.4503
3080.00,0.4538
3079.00,0.4575
3078.00,0.4615
3077.00,0.4655
3076.00,0.4697
3075.00,0.4740
3074.00,0.4784
3073.00,0.4828
3072.00,0.4872
3071.00,0.4917
3070.00,0.4962
3069.00,0.5006
3068.00,0.5050
3067.00,0.5093
3066.00,0.5136
3065.00,0.5176
3064.00,0.5214
3063.00,0.5250
3062.00,0.5283
3061.00,0.5314
3060.00,0.5342
3059.00,0.5368
3058.00,0.5394
3057.00,0.5421
3056.00,0.5449
3055.00,0.5479
3054.00,0.5512
3053.00,0.5547
3052.00,0.5584
3051.00,0.5622
3050.00,0.5662
3049.00,0.5705
3048.00,0.5749
3047.00,0.5795
3046.00,0.5843
3045.00,0.5891
3044.00,0.5938
3043.00,0.5985
3042.00,0.6030
3041.00,0.6074
3040.00,0.6119
3039.00,0.6165
3038.00,0.6214
3037.00,0.6266
3036.00,0.6321
3035.00,0.6380
3034.00,0.6442
3033.00,0.6508
3032.00,0.6579
3031.00,0.6655
3030.00,0.6735
3029.00,0.6820
3028.00,0.6909
3027.00,0.7002
3026.00,0.7098
3025.00,0.7197
3024.00,0.7299
3023.00,0.7405
3022.00,0.7515
3021.00,0.7628
3020.00,0.7743
3019.00,0.7859
3018.00,0.7977
3017.00,0.8097
3016.00,0.8217
3015.00,0.8339
3014.00,0.8461
3013.00,0.8585
3012.00,0.8711
3011.00,0.8841
3010.00,0.8976
3009.00,0.9117
3008.00,0.9265
3007.00,0.9421
3006.00,0.9584
3005.00,0.9753
3004.00,0.9928
3003.00,1.0106
3002.00,1.0289
3001.00,1.0478
3000.00,1.0674
2999.00,1.0882
2998.00,1.1106
2997.00,1.1349
2996.00,1.1616
2995.00,1.1913
2994.00,1.2246
2993.00,1.2621
2992.00,1.3038
2991.00,1.3500
2990.00,1.4014
2989.00,1.4588
2988.00,1.5229
2987.00,1.5946
2986.00,1.6744
2985.00,1.7628
2984.00,1.8602
2983.00,1.9680
2982.00,2.0877
2981.00,2.2203
2980.00,2.3655
2979.00,2.5229
2978.00,2.6930
2977.00,2.8760
2976.00,3.0703
2975.00,3.2718
2974.00,3.4734
2973.00,3.6780
2972.00,3.8698
2971.00,3.9289
2970.00,3.8587
2969.00,3.7959
2968.00,3.8063
2967.00,3.8468
2966.00,3.8820
2965.00,3.9820
2964.00,4.1106
2963.00,4.1614
2962.00,4.1039
2961.00,3.9770
2960.00,3.9254
2959.00,3.9826
2958.00,4.2314
2957.00,4.7198
2956.00,4.8297
2955.00,4.6403
2954.00,4.6555
2953.00,4.6077
2952.00,4.2858
2951.00,4.0724
2950.00,3.9832
2949.00,3.9516
2948.00,3.8912
2947.00,3.8256
2946.00,3.8138
2945.00,3.8792
2944.00,4.0607
2943.00,4.3383
2942.00,4.3321
2941.00,4.0869
2940.00,3.9169
2939.00,3.8486
2938.00,3.8418
2937.00,3.8856
2936.00,4.0070
2935.00,4.2287
2934.00,4.5285
2933.00,4.7266
2932.00,4.6409
2931.00,4.4361
2930.00,4.3148
2929.00,4.2714
2928.00,4.2440
2927.00,4.1983
2926.00,4.0958
2925.00,3.9567
2924.00,3.8295
2923.00,3.7774
2922.00,3.8339
2921.00,4.0296
2920.00,4.3045
2919.00,4.2707
2918.00,4.0971
2917.00,4.0834
2916.00,4.3011
2915.00,4.2770
2914.00,4.2430
2913.00,4.4185
2912.00,4.3405
2911.00,4.1333
2910.00,3.9525
2909.00,3.9649
2908.00,3.9437
2907.00,3.8797
2906.00,3.8815
2905.00,3.9255
2904.00,4.0546
2903.00,4.2168
2902.00,4.2723
2901.00,4.1857
2900.00,4.1146
2899.00,4.1351
2898.00,4.1687
2897.00,4.1504
2896.00,4.1354
2895.00,4.1160
2894.00,4.0429
2893.00,3.9824
2892.00,3.9402
2891.00,3.9121
2890.00,3.8350
2889.00,3.9017
2888.00,4.2578
2887.00,4.2649
2886.00,4.0556
2885.00,3.8834
2884.00,3.9362
2883.00,4.0278
2882.00,4.1536
2881.00,4.6218
2880.00,4.5309
2879.00,4.2056
2878.00,4.0587
2877.00,3.9803
2876.00,3.8705
2875.00,3.8181
2874.00,3.9357
2873.00,4.2268
2872.00,4.3037
2871.00,4.0824
2870.00,3.9259
2869.00,3.8987
2868.00,3.9158
2867.00,3.9039
2866.00,3.8891
2865.00,3.8860
2864.00,3.8880
2863.00,3.8465
2862.00,3.8704
2861.00,4.0449
2860.00,4.1144
2859.00,4.0263
2858.00,4.0586
2857.00,4.2709
2856.00,4.2701
2855.00,4.0606
2854.00,4.1249
2853.00,4.3919
2852.00,4.0835
2851.00,3.8216
2850.00,3.7231
2849.00,3.7788
2848.00,3.8446
2847.00,3.8658
2846.00,3.8761
2845.00,3.8203
2844.00,3.7856
2843.00,3.8313
2842.00,3.9531
2841.00,4.0095
2840.00,3.8363
2839.00,3.5758
2838.00,3.3353
2837.00,3.1091
2836.00,2.8909
2835.00,2.6877
2834.00,2.5044
2833.00,2.3403
2832.00,2.1940
2831.00,2.0631
2830.00,1.9447
2829.00,1.8370
2828.00,1.7398
2827.00,1.6532
2826.00,1.5760
2825.00,1.5066
2824.00,1.4438
2823.00,1.3865
2822.00,1.3341
2821.00,1.2858
2820.00,1.2412
2819.00,1.2001
2818.00,1.1621
2817.00,1.1269
2816.00,1.0941
2815.00,1.0635
2814.00,1.0348
2813.00,1.0077
2812.00,0.9822
2811.00,0.9581
2810.00,0.9353
2809.00,0.9136
2808.00,0.8928
2807.00,0.8729
2806.00,0.8541
2805.00,0.8363
2804.00,0.8196
2803.00,0.8037
2802.00,0.7888
2801.00,0.7745
2800.00,0.7608
2799.00,0.7476
2798.00,0.7350
2797.00,0.7230
2796.00,0.7114
2795.00,0.7003
2794.00,0.6895
2793.00,0.6790
2792.00,0.6689
2791.00,0.6590
2790.00,0.6494
2789.00,0.6399
2788.00,0.6306
2787.00,0.6215
2786.00,0.6126
2785.00,0.6040
2784.00,0.5956
2783.00,0.5873
2782.00,0.5794
2781.00,0.5719
2780.00,0.5647
2779.00,0.5578
2778.00,0.5512
2777.00,0.5449
2776.00,0.5389
2775.00,0.5332
2774.00,0.5279
2773.00,0.5229
2772.00,0.5183
2771.00,0.5141
2770.00,0.5102
2769.00,0.5066
2768.00,0.5033
2767.00,0.5003
2766.00,0.4976
2765.00,0.4953
2764.00,0.4933
2763.00,0.4915
2762.00,0.4900
2761.00,0.4887
2760.00,0.4875
2759.00,0.4864
2758.00,0.4852
2757.00,0.4841
2756.00,0.4831
2755.00,0.4822
2754.00,0.4814
2753.00,0.4806
2752.00,0.4801
2751.00,0.4797
2750.00,0.4796
2749.00,0.4796
2748.00,0.4799
2747.00,0.4804
2746.00,0.4812
2745.00,0.4822
2744.00,0.4834
2743.00,0.4850
2742.00,0.4868
2741.00,0.4891
2740.00,0.4919
2739.00,0.4951
2738.00,0.4988
2737.00,0.5032
2736.00,0.5079
2735.00,0.5130
2734.00,0.5183
2733.00,0.5235
2732.00,0.5284
2731.00,0.5325
2730.00,0.5356
2729.00,0.5376
2728.00,0.5385
2727.00,0.5385
2726.00,0.5378
2725.00,0.5364
2724.00,0.5345
2723.00,0.5322
2722.00,0.5296
2721.00,0.5266
2720.00,0.5233
2719.00,0.5198
2718.00,0.5159
2717.00,0.5118
2716.00,0.5074
2715.00,0.5029
2714.00,0.4984
2713.00,0.4940
2712.00,0.4898
2711.00,0.4860
2710.00,0.4825
2709.00,0.4795
2708.00,0.4768
2707.00,0.4745
2706.00,0.4727
2705.00,0.4712
2704.00,0.4700
2703.00,0.4691
2702.00,0.4684
2701.00,0.4681
2700.00,0.4680
2699.00,0.4680
2698.00,0.4683
2697.00,0.4687
2696.00,0.4694
2695.00,0.4701
2694.00,0.4709
2693.00,0.4718
2692.00,0.4727
2691.00,0.4736
2690.00,0.4744
2689.00,0.4753
2688.00,0.4762
2687.00,0.4771
2686.00,0.4777
2685.00,0.4782
2684.00,0.4786
2683.00,0.4790
2682.00,0.4793
2681.00,0.4796
2680.00,0.4799
2679.00,0.4803
2678.00,0.4806
2677.00,0.4810
2676.00,0.4814
2675.00,0.4817
2674.00,0.4820
2673.00,0.4823
2672.00,0.4825
2671.00,0.4826
2670.00,0.4824
2669.00,0.4820
2668.00,0.4812
2667.00,0.4802
2666.00,0.4789
2665.00,0.4774
2664.00,0.4758
2663.00,0.4740
2662.00,0.4721
2661.00,0.4702
2660.00,0.4683
2659.00,0.4662
2658.00,0.4641
2657.00,0.4621
2656.00,0.4601
2655.00,0.4582
2654.00,0.4563
2653.00,0.4545
2652.00,0.4528
2651.00,0.4512
2650.00,0.4496
2649.00,0.4482
2648.00,0.4468
2647.00,0.4454
2646.00,0.4440
2645.00,0.4427
2644.00,0.4416
2643.00,0.4405
2642.00,0.4394
2641.00,0.4384
2640.00,0.4373
2639.00,0.4363
2638.00,0.4354
2637.00,0.4344
2636.00,0.4335
2635.00,0.4327
2634.00,0.4319
2633.00,0.4311
2632.00,0.4303
2631.00,0.4296
2630.00,0.4288
2629.00,0.4280
2628.00,0.4272
2627.00,0.4264
2626.00,0.4256
2625.00,0.4247
2624.00,0.4239
2623.00,0.4230
2622.00,0.4222
2621.00,0.4213
2620.00,0.4204
2619.00,0.4196
2618.00,0.4187
2617.00,0.4179
2616.00,0.4170
2615.00,0.4161
2614.00,0.4151
2613.00,0.4141
2612.00,0.4131
2611.00,0.4121
2610.00,0.4111
2609.00,0.4101
2608.00,0.4091
2607.00,0.4081
2606.00,0.4071
2605.00,0.4060
2604.00,0.4049
2603.00,0.4039
2602.00,0.4028
2601.00,0.4017
2600.00,0.4006
2599.00,0.3993
2598.00,0.3980
2597.00,0.3967
2596.00,0.3953
2595.00,0.3939
2594.00,0.3926
2593.00,0.3912
2592.00,0.3898
2591.00,0.3883
2590.00,0.3867
2589.00,0.3852
2588.00,0.3837
2587.00,0.3821
2586.00,0.3805
2585.00,0.3788
2584.00,0.3771
2583.00,0.3754
2582.00,0.3737
2581.00,0.3721
2580.00,0.3704
2579.00,0.3686
2578.00,0.3669
2577.00,0.3651
2576.00,0.3634
2575.00,0.3617
2574.00,0.3601
2573.00,0.3585
2572.00,0.3569
2571.00,0.3553
2570.00,0.3538
2569.00,0.3523
2568.00,0.3509
2567.00,0.3494
2566.00,0.3479
2565.00,0.3464
2564.00,0.3449
2563.00,0.3436
2562.00,0.3423
2561.00,0.3411
2560.00,0.3399
2559.00,0.3387
2558.00,0.3375
2557.00,0.3364
2556.00,0.3353
2555.00,0.3342
2554.00,0.3330
2553.00,0.3320
2552.00,0.3310
2551.00,0.3300
2550.00,0.3292
2549.00,0.3283
2548.00,0.3275
2547.00,0.3266
2546.00,0.3257
2545.00,0.3248
2544.00,0.3239
2543.00,0.3231
2542.00,0.3222
2541.00,0.3214
2540.00,0.3206
2539.00,0.3198
2538.00,0.3189
2537.00,0.3181
2536.00,0.3174
2535.00,0.3167
2534.00,0.3159
2533.00,0.3152
2532.00,0.3145
2531.00,0.3137
2530.00,0.3129
2529.00,0.3120
2528.00,0.3112
2527.00,0.3103
2526.00,0.3093
2525.00,0.3084
2524.00,0.3075
2523.00,0.3066
2522.00,0.3057
2521.00,0.3048
2520.00,0.3039
2519.00,0.3031
2518.00,0.3023
2517.00,0.3015
2516.00,0.3008
2515.00,0.3001
2514.00,0.2993
2513.00,0.2987
2512.00,0.2980
2511.00,0.2973
2510.00,0.2966
2509.00,0.2959
2508.00,0.2952
2507.00,0.2946
2506.00,0.2939
2505.00,0.2933
2504.00,0.2927
2503.00,0.2921
2502.00,0.2915
2501.00,0.2909
2500.00,0.2904
2499.00,0.2898
2498.00,0.2893
2497.00,0.2887
2496.00,0.2882
2495.00,0.2877
2494.00,0.2873
2493.00,0.2868
2492.00,0.2864
2491.00,0.2860
2490.00,0.2856
2489.00,0.2853
2488.00,0.2849
2487.00,0.2846
2486.00,0.2842
2485.00,0.2839
2484.00,0.2836
2483.00,0.2832
2482.00,0.2829
2481.00,0.2826
2480.00,0.2823
2479.00,0.2820
2478.00,0.2818
2477.00,0.2815
2476.00,0.2813
2475.00,0.2810
2474.00,0.2807
2473.00,0.2804
2472.00,0.2802
2471.00,0.2799
2470.00,0.2796
2469.00,0.2794
2468.00,0.2791
2467.00,0.2787
2466.00,0.2784
2465.00,0.2781
2464.00,0.2778
2463.00,0.2774
2462.00,0.2771
2461.00,0.2767
2460.00,0.2764
2459.00,0.2761
2458.00,0.2759
2457.00,0.2757
2456.00,0.2756
2455.00,0.2754
2454.00,0.2753
2453.00,0.2752
2452.00,0.2751
2451.00,0.2750
2450.00,0.2749
2449.00,0.2748
2448.00,0.2748
2447.00,0.2747
2446.00,0.2747
2445.00,0.2747
2444.00,0.2747
2443.00,0.2747
2442.00,0.2748
2441.00,0.2748
2440.00,0.2749
2439.00,0.2749
2438.00,0.2750
2437.00,0.2750
2436.00,0.2750
2435.00,0.2750
2434.00,0.2751
2433.00,0.2751
2432.00,0.2752
2431.00,0.2752
2430.00,0.2752
2429.00,0.2751
2428.00,0.2751
2427.00,0.2752
2426.00,0.2752
2425.00,0.2752
2424.00,0.2752
2423.00,0.2752
2422.00,0.2752
2421.00,0.2753
2420.00,0.2754
2419.00,0.2755
2418.00,0.2755
2417.00,0.2756
2416.00,0.2757
2415.00,0.2756
2414.00,0.2756
2413.00,0.2756
2412.00,0.2756
2411.00,0.2756
2410.00,0.2755
2409.00,0.2755
2408.00,0.2755
2407.00,0.2755
2406.00,0.2755
2405.00,0.2755
2404.00,0.2755
2403.00,0.2755
2402.00,0.2754
2401.00,0.2752
2400.00,0.2751
2399.00,0.2749
2398.00,0.2747
2397.00,0.2744
2396.00,0.2742
2395.00,0.2740
2394.00,0.2739
2393.00,0.2737
2392.00,0.2736
2391.00,0.2735
2390.00,0.2733
2389.00,0.2732
2388.00,0.2731
2387.00,0.2730
2386.00,0.2728
2385.00,0.2727
2384.00,0.2727
2383.00,0.2726
2382.00,0.2726
2381.00,0.2726
2380.00,0.2726
2379.00,0.2726
2378.00,0.2726
2377.00,0.2726
2376.00,0.2725
2375.00,0.2724
2374.00,0.2723
2373.00,0.2723
2372.00,0.2722
2371.00,0.2721
2370.00,0.2720
2369.00,0.2718
2368.00,0.2716
2367.00,0.2714
2366.00,0.2712
2365.00,0.2711
2364.00,0.2710
2363.00,0.2709
2362.00,0.2710
2361.00,0.2710
2360.00,0.2711
2359.00,0.2711
2358.00,0.2710
2357.00,0.2710
2356.00,0.2709
2355.00,0.2709
2354.00,0.2708
2353.00,0.2707
2352.00,0.2707
2351.00,0.2706
2350.00,0.2704
2349.00,0.2703
2348.00,0.2702
2347.00,0.2702
2346.00,0.2700
2345.00,0.2699
2344.00,0.2697
2343.00,0.2697
2342.00,0.2697
2341.00,0.2697
2340.00,0.2697
2339.00,0.2695
2338.00,0.2694
2337.00,0.2693
2336.00,0.2693
2335.00,0.2691
2334.00,0.2689
2333.00,0.2687
2332.00,0.2686
2331.00,0.2685
2330.00,0.2683
2329.00,0.2682
2328.00,0.2680
2327.00,0.2678
2326.00,0.2676
2325.00,0.2673
2324.00,0.2671
2323.00,0.2669
2322.00,0.2667
2321.00,0.2666
2320.00,0.2665
2319.00,0.2664
2318.00,0.2662
2317.00,0.2661
2316.00,0.2659
2315.00,0.2657
2314.00,0.2654
2313.00,0.2652
2312.00,0.2649
2311.00,0.2646
2310.00,0.2643
2309.00,0.2640
2308.00,0.2638
2307.00,0.2635
2306.00,0.2631
2305.00,0.2628
2304.00,0.2624
2303.00,0.2621
2302.00,0.2617
2301.00,0.2614
2300.00,0.2611
2299.00,0.2607
2298.00,0.2604
2297.00,0.2601
2296.00,0.2598
2295.00,0.2595
2294.00,0.2592
2293.00,0.2589
2292.00,0.2585
2291.00,0.2582
2290.00,0.2579
2289.00,0.2576
2288.00,0.2573
2287.00,0.2571
2286.00,0.2568
2285.00,0.2565
2284.00,0.2563
2283.00,0.2560
2282.00,0.2557
2281.00,0.2555
2280.00,0.2552
2279.00,0.2549
2278.00,0.2547
2277.00,0.2544
2276.00,0.2542
2275.00,0.2540
2274.00,0.2537
2273.00,0.2535
2272.00,0.2534
2271.00,0.2532
2270.00,0.2530
2269.00,0.2528
2268.00,0.2526
2267.00,0.2524
2266.00,0.2522
2265.00,0.2519
2264.00,0.2517
2263.00,0.2514
2262.00,0.2511
2261.00,0.2508
2260.00,0.2506
2259.00,0.2503
2258.00,0.2500
2257.00,0.2497
2256.00,0.2494
2255.00,0.2491
2254.00,0.2488
2253.00,0.2486
2252.00,0.2484
2251.00,0.2482
2250.00,0.2480
2249.00,0.2478
2248.00,0.2477
2247.00,0.2475
2246.00,0.2473
2245.00,0.2471
2244.00,0.2470
2243.00,0.2468
2242.00,0.2467
2241.00,0.2466
2240.00,0.2465
2239.00,0.2464
2238.00,0.2463
2237.00,0.2462
2236.00,0.2461
2235.00,0.2460
2234.00,0.2459
2233.00,0.2458
2232.00,0.2457
2231.00,0.2456
2230.00,0.2455
2229.00,0.2454
2228.00,0.2452
2227.00,0.2450
2226.00,0.2449
2225.00,0.2448
2224.00,0.2446
2223.00,0.2445
2222.00,0.2443
2221.00,0.2441
2220.00,0.2440
2219.00,0.2438
2218.00,0.2437
2217.00,0.2436
2216.00,0.2435
2215.00,0.2434
2214.00,0.2433
2213.00,0.2433
2212.00,0.2433
2211.00,0.2432
2210.00,0.2432
2209.00,0.2432
2208.00,0.2432
2207.00,0.2432
2206.00,0.2432
2205.00,0.2432
2204.00,0.2433
2203.00,0.2433
2202.00,0.2433
2201.00,0.2433
2200.00,0.2434
2199.00,0.2435
2198.00,0.2436
2197.00,0.2437
2196.00,0.2437
2195.00,0.2437
2194.00,0.2437
2193.00,0.2437
2192.00,0.2437
2191.00,0.2436
2190.00,0.2436
2189.00,0.2436
2188.00,0.2435
2187.00,0.2435
2186.00,0.2433
2185.00,0.2432
2184.00,0.2431
2183.00,0.2430
2182.00,0.2428
2181.00,0.2426
2180.00,0.2425
2179.00,0.2423
2178.00,0.2422
2177.00,0.2420
2176.00,0.2419
2175.00,0.2418
2174.00,0.2416
2173.00,0.2415
2172.00,0.2415
2171.00,0.2414
2170.00,0.2413
2169.00,0.2412
2168.00,0.2412
2167.00,0.2411
2166.00,0.2410
2165.00,0.2409
2164.00,0.2409
2163.00,0.2408
2162.00,0.2407
2161.00,0.2407
2160.00,0.2406
2159.00,0.2405
2158.00,0.2403
2157.00,0.2402
2156.00,0.2401
2155.00,0.2399
2154.00,0.2398
2153.00,0.2396
2152.00,0.2394
2151.00,0.2391
2150.00,0.2388
2149.00,0.2385
2148.00,0.2382
2147.00,0.2378
2146.00,0.2373
2145.00,0.2369
2144.00,0.2364
2143.00,0.2360
2142.00,0.2355
2141.00,0.2351
2140.00,0.2347
2139.00,0.2344
2138.00,0.2340
2137.00,0.2337
2136.00,0.2335
2135.00,0.2333
2134.00,0.2331
2133.00,0.2330
2132.00,0.2328
2131.00,0.2327
2130.00,0.2325
2129.00,0.2324
2128.00,0.2324
2127.00,0.2323
2126.00,0.2322
2125.00,0.2322
2124.00,0.2321
2123.00,0.2321
2122.00,0.2320
2121.00,0.2319
2120.00,0.2318
2119.00,0.2318
2118.00,0.2316
2117.00,0.2315
2116.00,0.2314
2115.00,0.2313
2114.00,0.2312
2113.00,0.2311
2112.00,0.2309
2111.00,0.2308
2110.00,0.2305
2109.00,0.2304
2108.00,0.2302
2107.00,0.2301
2106.00,0.2299
2105.00,0.2298
2104.00,0.2298
2103.00,0.2297
2102.00,0.2295
2101.00,0.2295
2100.00,0.2295
2099.00,0.2294
2098.00,0.2294
2097.00,0.2293
2096.00,0.2292
2095.00,0.2292
2094.00,0.2291
2093.00,0.2291
2092.00,0.2292
2091.00,0.2292
2090.00,0.2292
2089.00,0.2292
2088.00,0.2293
2087.00,0.2293
2086.00,0.2294
2085.00,0.2295
2084.00,0.2295
2083.00,0.2295
2082.00,0.2295
2081.00,0.2295
2080.00,0.2295
2079.00,0.2294
2078.00,0.2294
2077.00,0.2294
2076.00,0.2295
2075.00,0.2295
2074.00,0.2295
2073.00,0.2296
2072.00,0.2296
2071.00,0.2295
2070.00,0.2295
2069.00,0.2295
2068.00,0.2295
2067.00,0.2296
2066.00,0.2298
2065.00,0.2299
2064.00,0.2300
2063.00,0.2300
2062.00,0.2300
2061.00,0.2301
2060.00,0.2302
2059.00,0.2302
2058.00,0.2303
2057.00,0.2305
2056.00,0.2307
2055.00,0.2308
2054.00,0.2309
2053.00,0.2310
2052.00,0.2312
2051.00,0.2313
2050.00,0.2314
2049.00,0.2316
2048.00,0.2319
2047.00,0.2321
2046.00,0.2322
2045.00,0.2324
2044.00,0.2326
2043.00,0.2328
2042.00,0.2329
2041.00,0.2330
2040.00,0.2331
2039.00,0.2332
2038.00,0.2332
2037.00,0.2333
2036.00,0.2334
2035.00,0.2334
2034.00,0.2334
2033.00,0.2334
2032.00,0.2335
2031.00,0.2334
2030.00,0.2334
2029.00,0.2333
2028.00,0.2332
2027.00,0.2332
2026.00,0.2331
2025.00,0.2329
2024.00,0.2328
2023.00,0.2325
2022.00,0.2321
2021.00,0.2318
2020.00,0.2314
2019.00,0.2311
2018.00,0.2306
2017.00,0.2301
2016.00,0.2296
2015.00,0.2290
2014.00,0.2285
2013.00,0.2280
2012.00,0.2275
2011.00,0.2270
2010.00,0.2266
2009.00,0.2263
2008.00,0.2260
2007.00,0.2258
2006.00,0.2255
2005.00,0.2252
2004.00,0.2250
2003.00,0.2248
2002.00,0.2246
2001.00,0.2244
2000.00,0.2243
1999.00,0.2242
1998.00,0.2240
1997.00,0.2239
1996.00,0.2238
1995.00,0.2237
1994.00,0.2236
1993.00,0.2235
1992.00,0.2235
1991.00,0.2234
1990.00,0.2233
1989.00,0.2232
1988.00,0.2231
1987.00,0.2230
1986.00,0.2229
1985.00,0.2228
1984.00,0.2228
1983.00,0.2227
1982.00,0.2226
1981.00,0.2225
1980.00,0.2225
1979.00,0.2224
1978.00,0.2224
1977.00,0.2224
1976.00,0.2224
1975.00,0.2224
1974.00,0.2224
1973.00,0.2224
1972.00,0.2224
1971.00,0.2224
1970.00,0.2224
1969.00,0.2225
1968.00,0.2227
1967.00,0.2228
1966.00,0.2229
1965.00,0.2229
1964.00,0.2229
1963.00,0.2228
1962.00,0.2229
1961.00,0.2230
1960.00,0.2231
1959.00,0.2232
1958.00,0.2233
1957.00,0.2234
1956.00,0.2236
1955.00,0.2237
1954.00,0.2238
1953.00,0.2239
1952.00,0.2240
1951.00,0.2240
1950.00,0.2240
1949.00,0.2241
1948.00,0.2242
1947.00,0.2244
1946.00,0.2246
1945.00,0.2249
1944.00,0.2253
1943.00,0.2258
1942.00,0.2263
1941.00,0.2267
1940.00,0.2270
1939.00,0.2274
1938.00,0.2275
1937.00,0.2276
1936.00,0.2276
1935.00,0.2275
1934.00,0.2273
1933.00,0.2272
1932.00,0.2272
1931.00,0.2273
1930.00,0.2273
1929.00,0.2274
1928.00,0.2275
1927.00,0.2276
1926.00,0.2277
1925.00,0.2280
1924.00,0.2284
1923.00,0.2288
1922.00,0.2292
1921.00,0.2295
1920.00,0.2298
1919.00,0.2300
1918.00,0.2302
1917.00,0.2304
1916.00,0.2308
1915.00,0.2310
1914.00,0.2311
1913.00,0.2311
1912.00,0.2311
1911.00,0.2312
1910.00,0.2314
1909.00,0.2316
1908.00,0.2317
1907.00,0.2316
1906.00,0.2316
1905.00,0.2316
1904.00,0.2316
1903.00,0.2316
1902.00,0.2316
1901.00,0.2316
1900.00,0.2317
1899.00,0.2318
1898.00,0.2319
1897.00,0.2322
1896.00,0.2325
1895.00,0.2328
1894.00,0.2329
1893.00,0.2330
1892.00,0.2332
1891.00,0.2333
1890.00,0.2334
1889.00,0.2336
1888.00,0.2337
1887.00,0.2337
1886.00,0.2337
1885.00,0.2337
1884.00,0.2337
1883.00,0.2337
1882.00,0.2336
1881.00,0.2336
1880.00,0.2335
1879.00,0.2334
1878.00,0.2332
1877.00,0.2331
1876.00,0.2329
1875.00,0.2327
1874.00,0.2325
1873.00,0.2324
1872.00,0.2322
1871.00,0.2320
1870.00,0.2318
1869.00,0.2317
1868.00,0.2317
1867.00,0.2316
1866.00,0.2314
1865.00,0.2312
1864.00,0.2310
1863.00,0.2307
1862.00,0.2304
1861.00,0.2302
1860.00,0.2300
1859.00,0.2297
1858.00,0.2294
1857.00,0.2292
1856.00,0.2290
1855.00,0.2288
1854.00,0.2286
1853.00,0.2285
1852.00,0.2284
1851.00,0.2283
1850.00,0.2282
1849.00,0.2282
1848.00,0.2283
1847.00,0.2282
1846.00,0.2279
1845.00,0.2276
1844.00,0.2274
1843.00,0.2273
1842.00,0.2273
1841.00,0.2273
1840.00,0.2274
1839.00,0.2272
1838.00,0.2271
1837.00,0.2270
1836.00,0.2269
1835.00,0.2268
1834.00,0.2267
1833.00,0.2266
1832.00,0.2266
1831.00,0.2266
1830.00,0.2265
1829.00,0.2265
1828.00,0.2265
1827.00,0.2264
1826.00,0.2262
1825.00,0.2260
1824.00,0.2261
1823.00,0.2262
1822.00,0.2262
1821.00,0.2262
1820.00,0.2262
1819.00,0.2262
1818.00,0.2261
1817.00,0.2261
1816.00,0.2263
1815.00,0.2264
1814.00,0.2265
1813.00,0.2267
1812.00,0.2270
1811.00,0.2273
1810.00,0.2275
1809.00,0.2277
1808.00,0.2280
1807.00,0.2282
1806.00,0.2284
1805.00,0.2286
1804.00,0.2291
1803.00,0.2295
1802.00,0.2300
1801.00,0.2305
1800.00,0.2312
1799.00,0.2318
1798.00,0.2324
1797.00,0.2330
1796.00,0.2336
1795.00,0.2339
1794.00,0.2339
1793.00,0.2341
1792.00,0.2346
1791.00,0.2352
1790.00,0.2357
1789.00,0.2362
1788.00,0.2367
1787.00,0.2369
1786.00,0.2370
1785.00,0.2373
1784.00,0.2377
1783.00,0.2381
1782.00,0.2386
1781.00,0.2390
1780.00,0.2395
1779.00,0.2399
1778.00,0.2403
1777.00,0.2408
1776.00,0.2414
1775.00,0.2419
1774.00,0.2424
1773.00,0.2430
1772.00,0.2437
1771.00,0.2444
1770.00,0.2450
1769.00,0.2459
1768.00,0.2468
1767.00,0.2477
1766.00,0.2486
1765.00,0.2497
1764.00,0.2509
1763.00,0.2521
1762.00,0.2535
1761.00,0.2553
1760.00,0.2573
1759.00,0.2594
1758.00,0.2616
1757.00,0.2641
1756.00,0.2668
1755.00,0.2697
1754.00,0.2726
1753.00,0.2756
1752.00,0.2790
1751.00,0.2827
1750.00,0.2865
1749.00,0.2901
1748.00,0.2932
1747.00,0.2957
1746.00,0.2977
1745.00,0.2995
1744.00,0.3012
1743.00,0.3023
1742.00,0.3030
1741.00,0.3035
1740.00,0.3039
1739.00,0.3042
1738.00,0.3045
1737.00,0.3048
1736.00,0.3047
1735.00,0.3041
1734.00,0.3033
1733.00,0.3029
1732.00,0.3026
1731.00,0.3023
1730.00,0.3017
1729.00,0.3012
1728.00,0.3011
1727.00,0.3013
1726.00,0.3021
1725.00,0.3035
1724.00,0.3057
1723.00,0.3083
1722.00,0.3114
1721.00,0.3149
1720.00,0.3194
1719.00,0.3258
1718.00,0.3351
1717.00,0.3468
1716.00,0.3592
1715.00,0.3718
1714.00,0.3853
1713.00,0.3992
1712.00,0.4129
1711.00,0.4257
1710.00,0.4370
1709.00,0.4456
1708.00,0.4503
1707.00,0.4509
1706.00,0.4476
1705.00,0.4408
1704.00,0.4321
1703.00,0.4229
1702.00,0.4120
1701.00,0.3968
1700.00,0.3798
1699.00,0.3669
1698.00,0.3587
1697.00,0.3514
1696.00,0.3421
1695.00,0.3324
1694.00,0.3251
1693.00,0.3202
1692.00,0.3164
1691.00,0.3127
1690.00,0.3092
1689.00,0.3062
1688.00,0.3040
1687.00,0.3023
1686.00,0.3005
1685.00,0.2981
1684.00,0.2955
1683.00,0.2932
1682.00,0.2919
1681.00,0.2912
1680.00,0.2904
1679.00,0.2892
1678.00,0.2879
1677.00,0.2867
1676.00,0.2854
1675.00,0.2845
1674.00,0.2843
1673.00,0.2844
1672.00,0.2845
1671.00,0.2842
1670.00,0.2839
1669.00,0.2837
1668.00,0.2837
1667.00,0.2838
1666.00,0.2839
1665.00,0.2838
1664.00,0.2836
1663.00,0.2835
1662.00,0.2836
1661.00,0.2839
1660.00,0.2843
1659.00,0.2846
1658.00,0.2849
1657.00,0.2852
1656.00,0.2856
1655.00,0.2860
1654.00,0.2867
1653.00,0.2879
1652.00,0.2890
1651.00,0.2897
1650.00,0.2901
1649.00,0.2906
1648.00,0.2914
1647.00,0.2924
1646.00,0.2934
1645.00,0.2944
1644.00,0.2955
1643.00,0.2965
1642.00,0.2976
1641.00,0.2989
1640.00,0.3004
1639.00,0.3017
1638.00,0.3031
1637.00,0.3049
1636.00,0.3071
1635.00,0.3093
1634.00,0.3114
1633.00,0.3137
1632.00,0.3160
1631.00,0.3180
1630.00,0.3199
1629.00,0.3222
1628.00,0.3250
1627.00,0.3277
1626.00,0.3304
1625.00,0.3334
1624.00,0.3370
1623.00,0.3413
1622.00,0.3461
1621.00,0.3512
1620.00,0.3567
1619.00,0.3628
1618.00,0.3704
1617.00,0.3805
1616.00,0.3918
1615.00,0.4020
1614.00,0.4109
1613.00,0.4197
1612.00,0.4291
1611.00,0.4388
1610.00,0.4484
1609.00,0.4579
1608.00,0.4670
1607.00,0.4749
1606.00,0.4815
1605.00,0.4874
1604.00,0.4930
1603.00,0.4980
1602.00,0.5027
1601.00,0.5075
1600.00,0.5130
1599.00,0.5189
1598.00,0.5257
1597.00,0.5345
1596.00,0.5463
1595.00,0.5615
1594.00,0.5806
1593.00,0.6052
1592.00,0.6370
1591.00,0.6773
1590.00,0.7277
1589.00,0.7921
1588.00,0.8748
1587.00,0.9793
1586.00,1.1077
1585.00,1.2639
1584.00,1.4506
1583.00,1.6499
1582.00,1.7988
1581.00,1.8308
1580.00,1.7579
1579.00,1.6204
1578.00,1.4449
1577.00,1.2613
1576.00,1.1011
1575.00,0.9835
1574.00,0.9055
1573.00,0.8531
1572.00,0.8145
1571.00,0.7833
1570.00,0.7597
1569.00,0.7478
1568.00,0.7498
1567.00,0.7645
1566.00,0.7923
1565.00,0.8358
1564.00,0.8930
1563.00,0.9539
1562.00,1.0076
1561.00,1.0468
1560.00,1.0529
1559.00,0.9937
1558.00,0.9003
1557.00,0.8249
1556.00,0.7665
1555.00,0.7105
1554.00,0.6573
1553.00,0.6135
1552.00,0.5809
1551.00,0.5548
1550.00,0.5321
1549.00,0.5133
1548.00,0.4993
1547.00,0.4887
1546.00,0.4797
1545.00,0.4720
1544.00,0.4659
1543.00,0.4608
1542.00,0.4564
1541.00,0.4524
1540.00,0.4484
1539.00,0.4436
1538.00,0.4392
1537.00,0.4360
1536.00,0.4334
1535.00,0.4305
1534.00,0.4273
1533.00,0.4249
1532.00,0.4239
1531.00,0.4239
1530.00,0.4242
1529.00,0.4250
1528.00,0.4261
1527.00,0.4267
1526.00,0.4267
1525.00,0.4266
1524.00,0.4269
1523.00,0.4277
1522.00,0.4291
1521.00,0.4316
1520.00,0.4348
1519.00,0.4381
1518.00,0.4418
1517.00,0.4462
1516.00,0.4503
1515.00,0.4529
1514.00,0.4540
1513.00,0.4548
1512.00,0.4559
1511.00,0.4573
1510.00,0.4595
1509.00,0.4634
1508.00,0.4703
1507.00,0.4805
1506.00,0.4921
1505.00,0.5031
1504.00,0.5129
1503.00,0.5210
1502.00,0.5284
1501.00,0.5358
1500.00,0.5431
1499.00,0.5499
1498.00,0.5572
1497.00,0.5666
1496.00,0.5774
1495.00,0.5877
1494.00,0.5975
1493.00,0.6080
1492.00,0.6202
1491.00,0.6344
1490.00,0.6509
1489.00,0.6695
1488.00,0.6891
1487.00,0.7091
1486.00,0.7311
1485.00,0.7568
1484.00,0.7865
1483.00,0.8209
1482.00,0.8624
1481.00,0.9121
1480.00,0.9677
1479.00,1.0274
1478.00,1.0949
1477.00,1.1763
1476.00,1.2726
1475.00,1.3818
1474.00,1.5131
1473.00,1.6903
1472.00,1.9278
1471.00,2.2090
1470.00,2.5153
1469.00,2.8680
1468.00,3.2769
1467.00,3.5778
1466.00,3.8320
1465.00,4.0209
1464.00,4.0678
1463.00,4.1287
1462.00,3.9503
1461.00,4.2483
1460.00,4.3050
1459.00,3.7879
1458.00,3.5813
1457.00,3.6547
1456.00,3.6910
1455.00,3.6772
1454.00,3.6640
1453.00,3.7707
1452.00,3.7371
1451.00,3.4548
1450.00,3.3285
1449.00,3.2938
1448.00,3.1507
1447.00,2.9353
1446.00,2.7833
1445.00,2.6703
1444.00,2.5364
1443.00,2.3877
1442.00,2.2572
1441.00,2.1463
1440.00,2.0395
1439.00,1.9299
1438.00,1.8151
1437.00,1.6923
1436.00,1.5710
1435.00,1.4662
1434.00,1.3780
1433.00,1.2958
1432.00,1.2136
1431.00,1.1332
1430.00,1.0598
1429.00,0.9968
1428.00,0.9455
1427.00,0.9053
1426.00,0.8730
1425.00,0.8452
1424.00,0.8214
1423.00,0.8030
1422.00,0.7895
1421.00,0.7782
1420.00,0.7672
1419.00,0.7568
1418.00,0.7479
1417.00,0.7404
1416.00,0.7344
1415.00,0.7298
1414.00,0.7261
1413.00,0.7230
1412.00,0.7207
1411.00,0.7190
1410.00,0.7173
1409.00,0.7143
1408.00,0.7095
1407.00,0.7029
1406.00,0.6939
1405.00,0.6825
1404.00,0.6702
1403.00,0.6590
1402.00,0.6493
1401.00,0.6404
1400.00,0.6325
1399.00,0.6266
1398.00,0.6231
1397.00,0.6218
1396.00,0.6230
1395.00,0.6280
1394.00,0.6372
1393.00,0.6506
1392.00,0.6698
1391.00,0.6968
1390.00,0.7339
1389.00,0.7846
1388.00,0.8538
1387.00,0.9427
1386.00,1.0446
1385.00,1.1503
1384.00,1.2582
1383.00,1.3733
1382.00,1.4998
1381.00,1.6402
1380.00,1.7976
1379.00,1.9639
1378.00,2.1005
1377.00,2.1525
1376.00,2.1019
1375.00,1.9720
1374.00,1.8052
1373.00,1.6458
1372.00,1.5152
1371.00,1.4146
1370.00,1.3404
1369.00,1.2903
1368.00,1.2598
1367.00,1.2383
1366.00,1.2109
1365.00,1.1664
1364.00,1.1036
1363.00,1.0318
1362.00,0.9641
1361.00,0.9092
1360.00,0.8680
1359.00,0.8377
1358.00,0.8155
1357.00,0.7997
1356.00,0.7891
1355.00,0.7825
1354.00,0.7785
1353.00,0.7760
1352.00,0.7738
1351.00,0.7713
1350.00,0.7682
1349.00,0.7646
1348.00,0.7608
1347.00,0.7573
1346.00,0.7543
1345.00,0.7519
1344.00,0.7498
1343.00,0.7478
1342.00,0.7453
1341.00,0.7413
1340.00,0.7351
1339.00,0.7263
1338.00,0.7153
1337.00,0.7026
1336.00,0.6890
1335.00,0.6753
1334.00,0.6620
1333.00,0.6498
1332.00,0.6389
1331.00,0.6298
1330.00,0.6225
1329.00,0.6166
1328.00,0.6120
1327.00,0.6087
1326.00,0.6068
1325.00,0.6060
1324.00,0.6061
1323.00,0.6068
1322.00,0.6077
1321.00,0.6087
1320.00,0.6096
1319.00,0.6108
1318.00,0.6125
1317.00,0.6145
1316.00,0.6170
1315.00,0.6198
1314.00,0.6231
1313.00,0.6267
1312.00,0.6305
1311.00,0.6342
1310.00,0.6376
1309.00,0.6405
1308.00,0.6428
1307.00,0.6446
1306.00,0.6456
1305.00,0.6455
1304.00,0.6442
1303.00,0.6417
1302.00,0.6382
1301.00,0.6341
1300.00,0.6293
1299.00,0.6242
1298.00,0.6189
1297.00,0.6135
1296.00,0.6081
1295.00,0.6031
1294.00,0.5986
1293.00,0.5944
1292.00,0.5904
1291.00,0.5866
1290.00,0.5831
1289.00,0.5797
1288.00,0.5764
1287.00,0.5731
1286.00,0.5695
1285.00,0.5656
1284.00,0.5615
1283.00,0.5575
1282.00,0.5540
1281.00,0.5509
1280.00,0.5482
1279.00,0.5459
1278.00,0.5438
1277.00,0.5418
1276.00,0.5397
1275.00,0.5376
1274.00,0.5356
1273.00,0.5338
1272.00,0.5322
1271.00,0.5311
1270.00,0.5303
1269.00,0.5294
1268.00,0.5279
1267.00,0.5254
1266.00,0.5221
1265.00,0.5182
1264.00,0.5144
1263.00,0.5113
1262.00,0.5088
1261.00,0.5068
1260.00,0.5049
1259.00,0.5032
1258.00,0.5015
1257.00,0.4997
1256.00,0.4978
1255.00,0.4961
1254.00,0.4946
1253.00,0.4932
1252.00,0.4920
1251.00,0.4909
1250.00,0.4898
1249.00,0.4886
1248.00,0.4871
1247.00,0.4852
1246.00,0.4831
1245.00,0.4805
1244.00,0.4776
1243.00,0.4745
1242.00,0.4714
1241.00,0.4684
1240.00,0.4655
1239.00,0.4628
1238.00,0.4604
1237.00,0.4583
1236.00,0.4564
1235.00,0.4551
1234.00,0.4544
1233.00,0.4542
1232.00,0.4543
1231.00,0.4548
1230.00,0.4552
1229.00,0.4549
1228.00,0.4537
1227.00,0.4518
1226.00,0.4493
1225.00,0.4465
1224.00,0.4436
1223.00,0.4410
1222.00,0.4388
1221.00,0.4370
1220.00,0.4356
1219.00,0.4347
1218.00,0.4343
1217.00,0.4344
1216.00,0.4349
1215.00,0.4358
1214.00,0.4365
1213.00,0.4369
1212.00,0.4368
1211.00,0.4362
1210.00,0.4353
1209.00,0.4341
1208.00,0.4326
1207.00,0.4310
1206.00,0.4293
1205.00,0.4275
1204.00,0.4256
1203.00,0.4239
1202.00,0.4224
1201.00,0.4213
1200.00,0.4205
1199.00,0.4201
1198.00,0.4198
1197.00,0.4194
1196.00,0.4187
1195.00,0.4180
1194.00,0.4174
1193.00,0.4168
1192.00,0.4162
1191.00,0.4159
1190.00,0.4156
1189.00,0.4152
1188.00,0.4147
1187.00,0.4141
1186.00,0.4137
1185.00,0.4134
1184.00,0.4131
1183.00,0.4131
1182.00,0.4132
1181.00,0.4135
1180.00,0.4141
1179.00,0.4151
1178.00,0.4163
1177.00,0.4178
1176.00,0.4197
1175.00,0.4226
1174.00,0.4265
1173.00,0.4311
1172.00,0.4360
1171.00,0.4404
1170.00,0.4437
1169.00,0.4451
1168.00,0.4447
1167.00,0.4433
1166.00,0.4416
1165.00,0.4401
1164.00,0.4391
1163.00,0.4387
1162.00,0.4388
1161.00,0.4395
1160.00,0.4408
1159.00,0.4425
1158.00,0.4442
1157.00,0.4455
1156.00,0.4461
1155.00,0.4459
1154.00,0.4450
1153.00,0.4434
1152.00,0.4412
1151.00,0.4387
1150.00,0.4361
1149.00,0.4334
1148.00,0.4308
1147.00,0.4284
1146.00,0.4262
1145.00,0.4243
1144.00,0.4230
1143.00,0.4224
1142.00,0.4228
1141.00,0.4241
1140.00,0.4263
1139.00,0.4296
1138.00,0.4340
1137.00,0.4394
1136.00,0.4456
1135.00,0.4524
1134.00,0.4585
1133.00,0.4622
1132.00,0.4623
1131.00,0.4587
1130.00,0.4524
1129.00,0.4452
1128.00,0.4384
1127.00,0.4331
1126.00,0.4295
1125.00,0.4272
1124.00,0.4255
1123.00,0.4240
1122.00,0.4225
1121.00,0.4209
1120.00,0.4196
1119.00,0.4190
1118.00,0.4195
1117.00,0.4211
1116.00,0.4235
1115.00,0.4263
1114.00,0.4280
1113.00,0.4275
1112.00,0.4245
1111.00,0.4195
1110.00,0.4139
1109.00,0.4088
1108.00,0.4049
1107.00,0.4022
1106.00,0.4006
1105.00,0.3997
1104.00,0.3991
1103.00,0.3986
1102.00,0.3981
1101.00,0.3973
1100.00,0.3963
1099.00,0.3952
1098.00,0.3942
1097.00,0.3933
1096.00,0.3925
1095.00,0.3919
1094.00,0.3916
1093.00,0.3918
1092.00,0.3923
1091.00,0.3930
1090.00,0.3938
1089.00,0.3949
1088.00,0.3965
1087.00,0.3988
1086.00,0.4020
1085.00,0.4058
1084.00,0.4102
1083.00,0.4154
1082.00,0.4214
1081.00,0.4279
1080.00,0.4346
1079.00,0.4408
1078.00,0.4458
1077.00,0.4487
1076.00,0.4490
1075.00,0.4467
1074.00,0.4424
1073.00,0.4370
1072.00,0.4316
1071.00,0.4268
1070.00,0.4230
1069.00,0.4199
1068.00,0.4176
1067.00,0.4161
1066.00,0.4153
1065.00,0.4149
1064.00,0.4147
1063.00,0.4148
1062.00,0.4152
1061.00,0.4157
1060.00,0.4162
1059.00,0.4166
1058.00,0.4166
1057.00,0.4161
1056.00,0.4153
1055.00,0.4144
1054.00,0.4138
1053.00,0.4136
1052.00,0.4139
1051.00,0.4149
1050.00,0.4164
1049.00,0.4181
1048.00,0.4198
1047.00,0.4214
1046.00,0.4227
1045.00,0.4234
1044.00,0.4236
1043.00,0.4236
1042.00,0.4234
1041.00,0.4231
1040.00,0.4229
1039.00,0.4228
1038.00,0.4226
1037.00,0.4222
1036.00,0.4218
1035.00,0.4218
1034.00,0.4226
1033.00,0.4238
1032.00,0.4252
1031.00,0.4267
1030.00,0.4279
1029.00,0.4282
1028.00,0.4275
1027.00,0.4256
1026.00,0.4224
1025.00,0.4182
1024.00,0.4133
1023.00,0.4082
1022.00,0.4035
1021.00,0.3992
1020.00,0.3955
1019.00,0.3922
1018.00,0.3893
1017.00,0.3867
1016.00,0.3843
1015.00,0.3822
1014.00,0.3804
1013.00,0.3788
1012.00,0.3773
1011.00,0.3763
1010.00,0.3758
1009.00,0.3758
1008.00,0.3760
1007.00,0.3766
1006.00,0.3775
1005.00,0.3785
1004.00,0.3798
1003.00,0.3813
1002.00,0.3828
1001.00,0.3842
1000.00,0.3853
999.00,0.3860
998.00,0.3864
997.00,0.3860
996.00,0.3849
995.00,0.3833
994.00,0.3814
993.00,0.3792
992.00,0.3767
991.00,0.3741
990.00,0.3717
989.00,0.3697
988.00,0.3682
987.00,0.3674
986.00,0.3674
985.00,0.3680
984.00,0.3693
983.00,0.3710
982.00,0.3732
981.00,0.3756
980.00,0.3783
979.00,0.3810
978.00,0.3837
977.00,0.3860
976.00,0.3878
975.00,0.3893
974.00,0.3903
973.00,0.3909
972.00,0.3912
971.00,0.3914
970.00,0.3915
969.00,0.3915
968.00,0.3914
967.00,0.3913
966.00,0.3910
965.00,0.3905
964.00,0.3896
963.00,0.3884
962.00,0.3872
961.00,0.3859
960.00,0.3848
959.00,0.3839
958.00,0.3835
957.00,0.3832
956.00,0.3830
955.00,0.3828
954.00,0.3824
953.00,0.3817
952.00,0.3807
951.00,0.3798
950.00,0.3790
949.00,0.3787
948.00,0.3788
947.00,0.3794
946.00,0.3803
945.00,0.3813
944.00,0.3823
943.00,0.3836
942.00,0.3850
941.00,0.3864
940.00,0.3876
939.00,0.3885
938.00,0.3890
937.00,0.3890
936.00,0.3883
935.00,0.3869
934.00,0.3851
933.00,0.3828
932.00,0.3803
931.00,0.3779
930.00,0.3758
929.00,0.3741
928.00,0.3731
927.00,0.3729
926.00,0.3739
925.00,0.3762
924.00,0.3799
923.00,0.3843
922.00,0.3886
921.00,0.3913
920.00,0.3913
919.00,0.3883
918.00,0.3827
917.00,0.3755
916.00,0.3679
915.00,0.3609
914.00,0.3552
913.00,0.3507
912.00,0.3473
911.00,0.3448
910.00,0.3430
909.00,0.3415
908.00,0.3401
907.00,0.3389
906.00,0.3382
905.00,0.3380
904.00,0.3382
903.00,0.3389
902.00,0.3402
901.00,0.3420
900.00,0.3443
899.00,0.3471
898.00,0.3503
897.00,0.3537
896.00,0.3573
895.00,0.3609
894.00,0.3647
893.00,0.3685
892.00,0.3723
891.00,0.3758
890.00,0.3784
889.00,0.3798
888.00,0.3798
887.00,0.3786
886.00,0.3768
885.00,0.3749
884.00,0.3733
883.00,0.3725
882.00,0.3726
881.00,0.3734
880.00,0.3746
879.00,0.3758
878.00,0.3765
877.00,0.3766
876.00,0.3763
875.00,0.3759
874.00,0.3758
873.00,0.3758
872.00,0.3760
871.00,0.3765
870.00,0.3773
869.00,0.3786
868.00,0.3803
867.00,0.3826
866.00,0.3853
865.00,0.3883
864.00,0.3911
863.00,0.3933
862.00,0.3939
861.00,0.3920
860.00,0.3878
859.00,0.3820
858.00,0.3760
857.00,0.3706
856.00,0.3664
855.00,0.3634
854.00,0.3614
853.00,0.3600
852.00,0.3589
851.00,0.3579
850.00,0.3568
849.00,0.3552
848.00,0.3530
847.00,0.3504
846.00,0.3477
845.00,0.3450
844.00,0.3423
843.00,0.3401
842.00,0.3387
841.00,0.3386
840.00,0.3403
839.00,0.3441
838.00,0.3495
837.00,0.3551
836.00,0.3592
835.00,0.3607
834.00,0.3593
833.00,0.3561
832.00,0.3529
831.00,0.3510
830.00,0.3511
829.00,0.3531
828.00,0.3566
827.00,0.3613
826.00,0.3667
825.00,0.3725
824.00,0.3786
823.00,0.3852
822.00,0.3923
821.00,0.3995
820.00,0.4064
819.00,0.4127
818.00,0.4181
817.00,0.4222
816.00,0.4246
815.00,0.4249
814.00,0.4232
813.00,0.4194
812.00,0.4141
811.00,0.4081
810.00,0.4018
809.00,0.3956
808.00,0.3899
807.00,0.3849
806.00,0.3803
805.00,0.3757
804.00,0.3707
803.00,0.3650
802.00,0.3590
801.00,0.3531
800.00,0.3475
799.00,0.3430
798.00,0.3397
797.00,0.3375
796.00,0.3362
795.00,0.3355
794.00,0.3354
793.00,0.3358
792.00,0.3368
791.00,0.3384
790.00,0.3406
789.00,0.3434
788.00,0.3465
787.00,0.3499
786.00,0.3540
785.00,0.3586
784.00,0.3633
783.00,0.3678
782.00,0.3714
781.00,0.3742
780.00,0.3762
779.00,0.3779
778.00,0.3795
777.00,0.3810
776.00,0.3825
775.00,0.3842
774.00,0.3861
773.00,0.3882
772.00,0.3904
771.00,0.3931
770.00,0.3962
769.00,0.3995
768.00,0.4027
767.00,0.4056
766.00,0.4079
765.00,0.4094
764.00,0.4105
763.00,0.4117
762.00,0.4136
761.00,0.4163
760.00,0.4198
759.00,0.4238
758.00,0.4278
757.00,0.4311
756.00,0.4339
755.00,0.4366
754.00,0.4399
753.00,0.4441
752.00,0.4487
751.00,0.4535
750.00,0.4583
749.00,0.4629
748.00,0.4670
747.00,0.4708
746.00,0.4743
745.00,0.4777
744.00,0.4814
743.00,0.4857
742.00,0.4906
741.00,0.4956
740.00,0.5003
739.00,0.5045
738.00,0.5083
737.00,0.5118
736.00,0.5152
735.00,0.5190
734.00,0.5237
733.00,0.5296
732.00,0.5370
731.00,0.5464
730.00,0.5581
729.00,0.5723
728.00,0.5893
727.00,0.6095
726.00,0.6331
725.00,0.6595
724.00,0.6862
723.00,0.7085
722.00,0.7191
721.00,0.7109
720.00,0.6831
719.00,0.6423
718.00,0.5979
717.00,0.5566
716.00,0.5216
715.00,0.4935
714.00,0.4712
713.00,0.4531
712.00,0.4382
711.00,0.4259
710.00,0.4160
709.00,0.4082
708.00,0.4019
707.00,0.3966
706.00,0.3919
705.00,0.3875
704.00,0.3837
703.00,0.3810
702.00,0.3798
701.00,0.3792
700.00,0.3775
699.00,0.3724
698.00,0.3627
697.00,0.3488
696.00,0.3332
695.00,0.3188
694.00,0.3072
693.00,0.2983
692.00,0.2917
691.00,0.2869
690.00,0.2834
689.00,0.2806
688.00,0.2783
687.00,0.2765
686.00,0.2751
685.00,0.2740
684.00,0.2730
683.00,0.2721
682.00,0.2714
681.00,0.2709
680.00,0.2706
679.00,0.2705
678.00,0.2706
677.00,0.2707
676.00,0.2707
675.00,0.2709
674.00,0.2711
673.00,0.2714
672.00,0.2717
671.00,0.2721
670.00,0.2725
669.00,0.2728
668.00,0.2730
667.00,0.2735
666.00,0.2743
665.00,0.2753
664.00,0.2761
663.00,0.2768
662.00,0.2777
661.00,0.2788
660.00,0.2798
659.00,0.2808
658.00,0.2819
657.00,0.2828
656.00,0.2837
655.00,0.2848
654.00,0.2861
653.00,0.2874
652.00,0.2886
651.00,0.2895
650.00,0.2904
649.00,0.2912
648.00,0.2921
647.00,0.2932
646.00,0.2947
645.00,0.2965
644.00,0.2983
643.00,0.3000
642.00,0.3014
641.00,0.3027
640.00,0.3038
639.00,0.3050
638.00,0.3061
637.00,0.3072
636.00,0.3082
635.00,0.3089
634.00,0.3094
633.00,0.3097
632.00,0.3100
631.00,0.3106
630.00,0.3116
629.00,0.3132
628.00,0.3150
627.00,0.3171
626.00,0.3195
625.00,0.3220
624.00,0.3246
623.00,0.3268
622.00,0.3286
621.00,0.3300
620.00,0.3312
619.00,0.3322
618.00,0.3334
617.00,0.3344
616.00,0.3353
615.00,0.3355
614.00,0.3351
613.00,0.3342
612.00,0.3332
611.00,0.3322
610.00,0.3310
609.00,0.3292
608.00,0.3271
607.00,0.3253
606.00,0.3242
605.00,0.3235
604.00,0.3233
603.00,0.3233
602.00,0.3233
601.00,0.3230
600.00,0.3227
599.00,0.3228
598.00,0.3239
597.00,0.3256
596.00,0.3274
595.00,0.3290
594.00,0.3303
593.00,0.3314
592.00,0.3325
591.00,0.3339
590.00,0.3357
589.00,0.3377
588.00,0.3401
587.00,0.3430
586.00,0.3460
585.00,0.3488
584.00,0.3513
583.00,0.3538
582.00,0.3566
581.00,0.3592
580.00,0.3615
579.00,0.3636
578.00,0.3657
577.00,0.3677
576.00,0.3695
575.00,0.3713
574.00,0.3733
573.00,0.3755
572.00,0.3776
571.00,0.3793
570.00,0.3806
569.00,0.3816
568.00,0.3827
567.00,0.3840
566.00,0.3853
565.00,0.3864
564.00,0.3872
563.00,0.3876
562.00,0.3875
561.00,0.3870
560.00,0.3865
559.00,0.3867
558.00,0.3875
557.00,0.3885
556.00,0.3895
555.00,0.3905
554.00,0.3915
553.00,0.3923
552.00,0.3928
551.00,0.3934
550.00,0.3941
