Created as New Dataset,
cm-1,A
4000.00,0.3436
3999.00,0.3432
3998.00,0.3429
3997.00,0.3425
3996.00,0.3421
3995.00,0.3418
3994.00,0.3414
3993.00,0.3410
3992.00,0.3407
3991.00,0.3402
3990.00,0.3397
3989.00,0.3392
3988.00,0.3387
3987.00,0.3383
3986.00,0.3380
3985.00,0.3377
3984.00,0.3374
3983.00,0.3370
3982.00,0.3366
3981.00,0.3362
3980.00,0.3358
3979.00,0.3354
3978.00,0.3351
3977.00,0.3347
3976.00,0.3344
3975.00,0.3342
3974.00,0.3339
3973.00,0.3336
3972.00,0.3333
3971.00,0.3330
3970.00,0.3326
3969.00,0.3323
3968.00,0.3321
3967.00,0.3318
3966.00,0.3316
3965.00,0.3314
3964.00,0.3313
3963.00,0.3310
3962.00,0.3308
3961.00,0.3305
3960.00,0.3302
3959.00,0.3300
3958.00,0.3298
3957.00,0.3297
3956.00,0.3295
3955.00,0.3294
3954.00,0.3292
3953.00,0.3291
3952.00,0.3290
3951.00,0.3289
3950.00,0.3287
3949.00,0.3286
3948.00,0.3285
3947.00,0.3284
3946.00,0.3283
3945.00,0.3282
3944.00,0.3280
3943.00,0.3278
3942.00,0.3276
3941.00,0.3274
3940.00,0.3273
3939.00,0.3272
3938.00,0.3271
3937.00,0.3270
3936.00,0.3269
3935.00,0.3269
3934.00,0.3269
3933.00,0.3269
3932.00,0.3270
3931.00,0.3271
3930.00,0.3271
3929.00,0.3270
3928.00,0.3270
3927.00,0.3270
3926.00,0.3269
3925.00,0.3268
3924.00,0.3267
3923.00,0.3267
3922.00,0.3267
3921.00,0.3268
3920.00,0.3268
3919.00,0.3268
3918.00,0.3267
3917.00,0.3265
3916.00,0.3264
3915.00,0.3263
3914.00,0.3262
3913.00,0.3260
3912.00,0.3259
3911.00,0.3258
3910.00,0.3257
3909.00,0.3258
3908.00,0.3259
3907.00,0.3262
3906.00,0.3264
3905.00,0.3266
3904.00,0.3267
3903.00,0.3269
3902.00,0.3272
3901.00,0.3273
3900.00,0.3273
3899.00,0.3272
3898.00,0.3269
3897.00,0.3265
3896.00,0.3262
3895.00,0.3259
3894.00,0.3256
3893.00,0.3254
3892.00,0.3252
3891.00,0.3250
3890.00,0.3250
3889.00,0.3251
3888.00,0.3252
3887.00,0.3253
3886.00,0.3252
3885.00,0.3251
3884.00,0.3251
3883.00,0.3252
3882.00,0.3253
3881.00,0.3251
3880.00,0.3249
3879.00,0.3245
3878.00,0.3243
3877.00,0.3243
3876.00,0.3242
3875.00,0.3242
3874.00,0.3241
3873.00,0.3241
3872.00,0.3241
3871.00,0.3241
3870.00,0.3241
3869.00,0.3240
3868.00,0.3240
3867.00,0.3240
3866.00,0.3240
3865.00,0.3238
3864.00,0.3235
3863.00,0.3231
3862.00,0.3227
3861.00,0.3223
3860.00,0.3220
3859.00,0.3218
3858.00,0.3218
3857.00,0.3221
3856.00,0.3225
3855.00,0.3227
3854.00,0.3229
3853.00,0.3231
3852.00,0.3234
3851.00,0.3235
3850.00,0.3232
3849.00,0.3227
3848.00,0.3222
3847.00,0.3217
3846.00,0.3213
3845.00,0.3210
3844.00,0.3209
3843.00,0.3208
3842.00,0.3209
3841.00,0.3211
3840.00,0.3213
3839.00,0.3213
3838.00,0.3214
3837.00,0.3216
3836.00,0.3217
3835.00,0.3217
3834.00,0.3216
3833.00,0.3213
3832.00,0.3209
3831.00,0.3204
3830.00,0.3200
3829.00,0.3197
3828.00,0.3194
3827.00,0.3192
3826.00,0.3190
3825.00,0.3191
3824.00,0.3192
3823.00,0.3195
3822.00,0.3195
3821.00,0.3195
3820.00,0.3195
3819.00,0.3195
3818.00,0.3195
3817.00,0.3192
3816.00,0.3188
3815.00,0.3183
3814.00,0.3179
3813.00,0.3174
3812.00,0.3170
3811.00,0.3166
3810.00,0.3163
3809.00,0.3161
3808.00,0.3158
3807.00,0.3156
3806.00,0.3154
3805.00,0.3155
3804.00,0.3156
3803.00,0.3157
3802.00,0.3157
3801.00,0.3155
3800.00,0.3154
3799.00,0.3153
3798.00,0.3151
3797.00,0.3148
3796.00,0.3142
3795.00,0.3137
3794.00,0.3131
3793.00,0.3127
3792.00,0.3123
3791.00,0.3120
3790.00,0.3117
3789.00,0.3115
3788.00,0.3113
3787.00,0.3112
3786.00,0.3110
3785.00,0.3109
3784.00,0.3107
3783.00,0.3107
3782.00,0.3106
3781.00,0.3105
3780.00,0.3104
3779.00,0.3102
3778.00,0.3100
3777.00,0.3099
3776.00,0.3097
3775.00,0.3094
3774.00,0.3091
3773.00,0.3090
3772.00,0.3089
3771.00,0.3088
3770.00,0.3086
3769.00,0.3085
3768.00,0.3084
3767.00,0.3084
3766.00,0.3083
3765.00,0.3081
3764.00,0.3079
3763.00,0.3077
3762.00,0.3076
3761.00,0.3074
3760.00,0.3072
3759.00,0.3070
3758.00,0.3069
3757.00,0.3068
3756.00,0.3067
3755.00,0.3067
3754.00,0.3067
3753.00,0.3067
3752.00,0.3067
3751.00,0.3067
3750.00,0.3069
3749.00,0.3071
3748.00,0.3074
3747.00,0.3077
3746.00,0.3079
3745.00,0.3076
3744.00,0.3070
3743.00,0.3065
3742.00,0.3061
3741.00,0.3058
3740.00,0.3055
3739.00,0.3053
3738.00,0.3052
3737.00,0.3050
3736.00,0.3049
3735.00,0.3049
3734.00,0.3049
3733.00,0.3048
3732.00,0.3045
3731.00,0.3041
3730.00,0.3036
3729.00,0.3033
3728.00,0.3030
3727.00,0.3026
3726.00,0.3023
3725.00,0.3019
3724.00,0.3016
3723.00,0.3014
3722.00,0.3012
3721.00,0.3010
3720.00,0.3008
3719.00,0.3006
3718.00,0.3003
3717.00,0.3000
3716.00,0.2998
3715.00,0.2997
3714.00,0.2997
3713.00,0.2998
3712.00,0.2999
3711.00,0.3001
3710.00,0.3003
3709.00,0.3003
3708.00,0.3002
3707.00,0.3000
3706.00,0.2997
3705.00,0.2995
3704.00,0.2993
3703.00,0.2991
3702.00,0.2990
3701.00,0.2988
3700.00,0.2987
3699.00,0.2986
3698.00,0.2986
3697.00,0.2985
3696.00,0.2984
3695.00,0.2984
3694.00,0.2985
3693.00,0.2988
3692.00,0.2991
3691.00,0.2994
3690.00,0.2996
3689.00,0.2998
3688.00,0.2999
3687.00,0.3000
3686.00,0.2999
3685.00,0.2996
3684.00,0.2992
3683.00,0.2988
3682.00,0.2985
3681.00,0.2983
3680.00,0.2982
3679.00,0.2983
3678.00,0.2985
3677.00,0.2987
3676.00,0.2989
3675.00,0.2992
3674.00,0.2995
3673.00,0.2998
3672.00,0.3000
3671.00,0.3000
3670.00,0.2997
3669.00,0.2993
3668.00,0.2988
3667.00,0.2985
3666.00,0.2981
3665.00,0.2978
3664.00,0.2975
3663.00,0.2972
3662.00,0.2970
3661.00,0.2970
3660.00,0.2971
3659.00,0.2973
3658.00,0.2976
3657.00,0.2978
3656.00,0.2981
3655.00,0.2985
3654.00,0.2989
3653.00,0.2995
3652.00,0.3000
3651.00,0.3004
3650.00,0.3007
3649.00,0.3011
3648.00,0.3015
3647.00,0.3017
3646.00,0.3017
3645.00,0.3016
3644.00,0.3014
3643.00,0.3011
3642.00,0.3008
3641.00,0.3006
3640.00,0.3005
3639.00,0.3006
3638.00,0.3009
3637.00,0.3012
3636.00,0.3017
3635.00,0.3021
3634.00,0.3026
3633.00,0.3033
3632.00,0.3041
3631.00,0.3051
3630.00,0.3062
3629.00,0.3074
3628.00,0.3087
3627.00,0.3099
3626.00,0.3107
3625.00,0.3113
3624.00,0.3116
3623.00,0.3116
3622.00,0.3115
3621.00,0.3111
3620.00,0.3106
3619.00,0.3098
3618.00,0.3091
3617.00,0.3084
3616.00,0.3079
3615.00,0.3073
3614.00,0.3069
3613.00,0.3066
3612.00,0.3064
3611.00,0.3065
3610.00,0.3065
3609.00,0.3065
3608.00,0.3064
3607.00,0.3063
3606.00,0.3061
3605.00,0.3059
3604.00,0.3056
3603.00,0.3052
3602.00,0.3048
3601.00,0.3043
3600.00,0.3039
3599.00,0.3034
3598.00,0.3029
3597.00,0.3023
3596.00,0.3017
3595.00,0.3009
3594.00,0.3002
3593.00,0.2996
3592.00,0.2992
3591.00,0.2990
3590.00,0.2987
3589.00,0.2985
3588.00,0.2982
3587.00,0.2980
3586.00,0.2978
3585.00,0.2975
3584.00,0.2972
3583.00,0.2968
3582.00,0.2965
3581.00,0.2962
3580.00,0.2960
3579.00,0.2959
3578.00,0.2957
3577.00,0.2957
3576.00,0.2956
3575.00,0.2957
3574.00,0.2957
3573.00,0.2959
3572.00,0.2961
3571.00,0.2963
3570.00,0.2965
3569.00,0.2968
3568.00,0.2971
3567.00,0.2974
3566.00,0.2977
3565.00,0.2979
3564.00,0.2980
3563.00,0.2981
3562.00,0.2981
3561.00,0.2982
3560.00,0.2982
3559.00,0.2983
3558.00,0.2984
3557.00,0.2986
3556.00,0.2989
3555.00,0.2993
3554.00,0.2997
3553.00,0.3001
3552.00,0.3005
3551.00,0.3008
3550.00,0.3012
3549.00,0.3017
3548.00,0.3021
3547.00,0.3026
3546.00,0.3031
3545.00,0.3036
3544.00,0.3041
3543.00,0.3046
3542.00,0.3051
3541.00,0.3055
3540.00,0.3059
3539.00,0.3062
3538.00,0.3066
3537.00,0.3069
3536.00,0.3072
3535.00,0.3075
3534.00,0.3078
3533.00,0.3082
3532.00,0.3086
3531.00,0.3089
3530.00,0.3092
3529.00,0.3095
3528.00,0.3098
3527.00,0.3102
3526.00,0.3107
3525.00,0.3111
3524.00,0.3115
3523.00,0.3118
3522.00,0.3121
3521.00,0.3125
3520.00,0.3129
3519.00,0.3133
3518.00,0.3137
3517.00,0.3140
3516.00,0.3144
3515.00,0.3148
3514.00,0.3153
3513.00,0.3158
3512.00,0.3164
3511.00,0.3170
3510.00,0.3175
3509.00,0.3181
3508.00,0.3187
3507.00,0.3193
3506.00,0.3200
3505.00,0.3206
3504.00,0.3212
3503.00,0.3218
3502.00,0.3225
3501.00,0.3231
3500.00,0.3237
3499.00,0.3244
3498.00,0.3250
3497.00,0.3257
3496.00,0.3264
3495.00,0.3271
3494.00,0.3279
3493.00,0.3287
3492.00,0.3296
3491.00,0.3304
3490.00,0.3313
3489.00,0.3322
3488.00,0.3330
3487.00,0.3338
3486.00,0.3346
3485.00,0.3353
3484.00,0.3361
3483.00,0.3368
3482.00,0.3376
3481.00,0.3383
3480.00,0.3390
3479.00,0.3397
3478.00,0.3402
3477.00,0.3408
3476.00,0.3414
3475.00,0.3420
3474.00,0.3427
3473.00,0.3433
3472.00,0.3440
3471.00,0.3447
3470.00,0.3455
3469.00,0.3462
3468.00,0.3468
3467.00,0.3476
3466.00,0.3483
3465.00,0.3492
3464.00,0.3500
3463.00,0.3508
3462.00,0.3516
3461.00,0.3523
3460.00,0.3531
3459.00,0.3539
3458.00,0.3547
3457.00,0.3556
3456.00,0.3564
3455.00,0.3573
3454.00,0.3581
3453.00,0.3589
3452.00,0.3597
3451.00,0.3606
3450.00,0.3616
3449.00,0.3626
3448.00,0.3637
3447.00,0.3647
3446.00,0.3657
3445.00,0.3666
3444.00,0.3675
3443.00,0.3685
3442.00,0.3695
3441.00,0.3705
3440.00,0.3714
3439.00,0.3724
3438.00,0.3735
3437.00,0.3746
3436.00,0.3757
3435.00,0.3767
3434.00,0.3777
3433.00,0.3787
3432.00,0.3797
3431.00,0.3807
3430.00,0.3816
3429.00,0.3826
3428.00,0.3837
3427.00,0.3847
3426.00,0.3858
3425.00,0.3869
3424.00,0.3880
3423.00,0.3891
3422.00,0.3902
3421.00,0.3914
3420.00,0.3925
3419.00,0.3937
3418.00,0.3948
3417.00,0.3959
3416.00,0.3970
3415.00,0.3982
3414.00,0.3995
3413.00,0.4007
3412.00,0.4019
3411.00,0.4030
3410.00,0.4041
3409.00,0.4053
3408.00,0.4064
3407.00,0.4077
3406.00,0.4089
3405.00,0.4101
3404.00,0.4114
3403.00,0.4126
3402.00,0.4139
3401.00,0.4151
3400.00,0.4164
3399.00,0.4176
3398.00,0.4188
3397.00,0.4200
3396.00,0.4211
3395.00,0.4222
3394.00,0.4233
3393.00,0.4244
3392.00,0.4256
3391.00,0.4267
3390.00,0.4279
3389.00,0.4290
3388.00,0.4300
3387.00,0.4311
3386.00,0.4321
3385.00,0.4332
3384.00,0.4343
3383.00,0.4355
3382.00,0.4366
3381.00,0.4377
3380.00,0.4389
3379.00,0.4400
3378.00,0.4411
3377.00,0.4423
3376.00,0.4436
3375.00,0.4448
3374.00,0.4460
3373.00,0.4472
3372.00,0.4484
3371.00,0.4496
3370.00,0.4509
3369.00,0.4523
3368.00,0.4537
3367.00,0.4550
3366.00,0.4564
3365.00,0.4577
3364.00,0.4590
3363.00,0.4603
3362.00,0.4615
3361.00,0.4628
3360.00,0.4642
3359.00,0.4656
3358.00,0.4671
3357.00,0.4685
3356.00,0.4699
3355.00,0.4713
3354.00,0.4727
3353.00,0.4741
3352.00,0.4757
3351.00,0.4771
3350.00,0.4786
3349.00,0.4799
3348.00,0.4811
3347.00,0.4823
3346.00,0.4835
3345.00,0.4848
3344.00,0.4860
3343.00,0.4872
3342.00,0.4883
3341.00,0.4893
3340.00,0.4903
3339.00,0.4912
3338.00,0.4920
3337.00,0.4927
3336.00,0.4934
3335.00,0.4940
3334.00,0.4946
3333.00,0.4952
3332.00,0.4957
3331.00,0.4960
3330.00,0.4963
3329.00,0.4965
3328.00,0.4966
3327.00,0.4967
3326.00,0.4966
3325.00,0.4964
3324.00,0.4962
3323.00,0.4960
3322.00,0.4958
3321.00,0.4956
3320.00,0.4952
3319.00,0.4948
3318.00,0.4943
3317.00,0.4937
3316.00,0.4932
3315.00,0.4927
3314.00,0.4921
3313.00,0.4914
3312.00,0.4908
3311.00,0.4901
3310.00,0.4894
3309.00,0.4886
3308.00,0.4880
3307.00,0.4873
3306.00,0.4868
3305.00,0.4862
3304.00,0.4856
3303.00,0.4849
3302.00,0.4842
3301.00,0.4837
3300.00,0.4831
3299.00,0.4826
3298.00,0.4821
3297.00,0.4816
3296.00,0.4811
3295.00,0.4807
3294.00,0.4803
3293.00,0.4799
3292.00,0.4796
3291.00,0.4793
3290.00,0.4791
3289.00,0.4790
3288.00,0.4789
3287.00,0.4789
3286.00,0.4789
3285.00,0.4788
3284.00,0.4789
3283.00,0.4789
3282.00,0.4790
3281.00,0.4791
3280.00,0.4793
3279.00,0.4795
3278.00,0.4797
3277.00,0.4799
3276.00,0.4802
3275.00,0.4805
3274.00,0.4807
3273.00,0.4810
3272.00,0.4813
3271.00,0.4817
3270.00,0.4821
3269.00,0.4826
3268.00,0.4830
3267.00,0.4834
3266.00,0.4838
3265.00,0.4842
3264.00,0.4845
3263.00,0.4849
3262.00,0.4853
3261.00,0.4857
3260.00,0.4862
3259.00,0.4866
3258.00,0.4870
3257.00,0.4874
3256.00,0.4878
3255.00,0.4883
3254.00,0.4886
3253.00,0.4890
3252.00,0.4894
3251.00,0.4897
3250.00,0.4900
3249.00,0.4903
3248.00,0.4906
3247.00,0.4908
3246.00,0.4910
3245.00,0.4912
3244.00,0.4914
3243.00,0.4914
3242.00,0.4915
3241.00,0.4915
3240.00,0.4916
3239.00,0.4916
3238.00,0.4917
3237.00,0.4917
3236.00,0.4918
3235.00,0.4919
3234.00,0.4920
3233.00,0.4919
3232.00,0.4918
3231.00,0.4916
3230.00,0.4915
3229.00,0.4913
3228.00,0.4911
3227.00,0.4909
3226.00,0.4908
3225.00,0.4907
3224.00,0.4905
3223.00,0.4903
3222.00,0.4901
3221.00,0.4899
3220.00,0.4898
3219.00,0.4896
3218.00,0.4893
3217.00,0.4891
3216.00,0.4889
3215.00,0.4887
3214.00,0.4885
3213.00,0.4882
3212.00,0.4880
3211.00,0.4877
3210.00,0.4875
3209.00,0.4873
3208.00,0.4872
3207.00,0.4870
3206.00,0.4868
3205.00,0.4866
3204.00,0.4864
3203.00,0.4861
3202.00,0.4859
3201.00,0.4857
3200.00,0.4856
3199.00,0.4853
3198.00,0.4850
3197.00,0.4847
3196.00,0.4844
3195.00,0.4842
3194.00,0.4840
3193.00,0.4837
3192.00,0.4833
3191.00,0.4829
3190.00,0.4825
3189.00,0.4820
3188.00,0.4815
3187.00,0.4811
3186.00,0.4806
3185.00,0.4801
3184.00,0.4796
3183.00,0.4791
3182.00,0.4786
3181.00,0.4781
3180.00,0.4776
3179.00,0.4770
3178.00,0.4764
3177.00,0.4757
3176.00,0.4749
3175.00,0.4742
3174.00,0.4734
3173.00,0.4727
3172.00,0.4720
3171.00,0.4712
3170.00,0.4705
3169.00,0.4697
3168.00,0.4690
3167.00,0.4683
3166.00,0.4676
3165.00,0.4669
3164.00,0.4661
3163.00,0.4653
3162.00,0.4645
3161.00,0.4636
3160.00,0.4628
3159.00,0.4620
3158.00,0.4612
3157.00,0.4604
3156.00,0.4596
3155.00,0.4588
3154.00,0.4581
3153.00,0.4574
3152.00,0.4567
3151.00,0.4559
3150.00,0.4552
3149.00,0.4544
3148.00,0.4537
3147.00,0.4530
3146.00,0.4522
3145.00,0.4516
3144.00,0.4510
3143.00,0.4504
3142.00,0.4499
3141.00,0.4494
3140.00,0.4489
3139.00,0.4485
3138.00,0.4481
3137.00,0.4477
3136.00,0.4473
3135.00,0.4470
3134.00,0.4467
3133.00,0.4465
3132.00,0.4463
3131.00,0.4461
3130.00,0.4460
3129.00,0.4459
3128.00,0.4459
3127.00,0.4459
3126.00,0.4460
3125.00,0.4460
3124.00,0.4461
3123.00,0.4462
3122.00,0.4465
3121.00,0.4468
3120.00,0.4471
3119.00,0.4475
3118.00,0.4480
3117.00,0.4485
3116.00,0.4490
3115.00,0.4495
3114.00,0.4500
3113.00,0.4506
3112.00,0.4513
3111.00,0.4521
3110.00,0.4530
3109.00,0.4539
3108.00,0.4548
3107.00,0.4557
3106.00,0.4567
3105.00,0.4578
3104.00,0.4589
3103.00,0.4599
3102.00,0.4610
3101.00,0.4620
3100.00,0.4632
3099.00,0.4643
3098.00,0.4656
3097.00,0.4670
3096.00,0.4685
3095.00,0.4702
3094.00,0.4720
3093.00,0.4740
3092.00,0.4763
3091.00,0.4788
3090.00,0.4814
3089.00,0.4843
3088.00,0.4872
3087.00,0.4903
3086.00,0.4935
3085.00,0.4967
3084.00,0.5001
3083.00,0.5037
3082.00,0.5074
3081.00,0.5114
3080.00,0.5156
3079.00,0.5201
3078.00,0.5247
3077.00,0.5295
3076.00,0.5344
3075.00,0.5395
3074.00,0.5447
3073.00,0.5500
3072.00,0.5552
3071.00,0.5604
3070.00,0.5657
3069.00,0.5710
3068.00,0.5763
3067.00,0.5815
3066.00,0.5866
3065.00,0.5916
3064.00,0.5963
3063.00,0.6006
3062.00,0.6045
3061.00,0.6081
3060.00,0.6114
3059.00,0.6146
3058.00,0.6178
3057.00,0.6210
3056.00,0.6244
3055.00,0.6280
3054.00,0.6317
3053.00,0.6358
3052.00,0.6400
3051.00,0.6445
3050.00,0.6492
3049.00,0.6542
3048.00,0.6595
3047.00,0.6651
3046.00,0.6707
3045.00,0.6762
3044.00,0.6817
3043.00,0.6872
3042.00,0.6926
3041.00,0.6980
3040.00,0.7034
3039.00,0.7089
3038.00,0.7145
3037.00,0.7206
3036.00,0.7271
3035.00,0.7341
3034.00,0.7416
3033.00,0.7497
3032.00,0.7583
3031.00,0.7674
3030.00,0.7770
3029.00,0.7870
3028.00,0.7973
3027.00,0.8079
3026.00,0.8191
3025.00,0.8308
3024.00,0.8429
3023.00,0.8553
3022.00,0.8680
3021.00,0.8810
3020.00,0.8942
3019.00,0.9076
3018.00,0.9213
3017.00,0.9353
3016.00,0.9494
3015.00,0.9637
3014.00,0.9781
3013.00,0.9928
3012.00,1.0078
3011.00,1.0234
3010.00,1.0397
3009.00,1.0567
3008.00,1.0743
3007.00,1.0926
3006.00,1.1118
3005.00,1.1320
3004.00,1.1530
3003.00,1.1746
3002.00,1.1967
3001.00,1.2194
3000.00,1.2428
2999.00,1.2675
2998.00,1.2938
2997.00,1.3223
2996.00,1.3535
2995.00,1.3884
2994.00,1.4276
2993.00,1.4718
2992.00,1.5213
2991.00,1.5763
2990.00,1.6373
2989.00,1.7045
2988.00,1.7786
2987.00,1.8611
2986.00,1.9540
2985.00,2.0583
2984.00,2.1743
2983.00,2.3032
2982.00,2.4476
2981.00,2.6102
2980.00,2.7873
2979.00,2.9692
2978.00,3.1498
2977.00,3.3372
2976.00,3.5523
2975.00,3.8022
2974.00,3.9991
2973.00,4.0012
2972.00,3.8865
2971.00,3.8230
2970.00,3.8230
2969.00,3.9311
2968.00,4.2130
2967.00,4.1788
2966.00,3.9215
2965.00,3.7872
2964.00,3.8274
2963.00,3.8938
2962.00,3.8670
2961.00,3.9008
2960.00,4.0401
2959.00,4.2342
2958.00,4.4797
2957.00,4.5376
2956.00,4.4591
2955.00,4.5771
2954.00,4.6157
2953.00,4.3307
2952.00,4.1160
2951.00,4.0469
2950.00,3.9801
2949.00,3.8846
2948.00,3.8856
2947.00,3.9722
2946.00,4.0576
2945.00,4.1435
2944.00,4.2778
2943.00,4.2705
2942.00,4.2165
2941.00,4.3467
2940.00,4.1826
2939.00,3.8746
2938.00,3.6662
2937.00,3.6138
2936.00,3.6420
2935.00,3.6744
2934.00,3.7428
2933.00,3.8309
2932.00,4.0252
2931.00,4.4193
2930.00,4.4737
2929.00,4.1982
2928.00,3.9603
2927.00,3.9454
2926.00,4.0012
2925.00,4.0352
2924.00,4.0002
2923.00,3.8525
2922.00,3.7413
2921.00,3.7271
2920.00,3.8683
2919.00,4.2009
2918.00,4.5822
2917.00,4.7082
2916.00,4.3721
2915.00,4.0760
2914.00,3.9045
2913.00,3.9075
2912.00,4.0622
2911.00,4.0808
2910.00,3.9278
2909.00,3.8282
2908.00,3.8997
2907.00,4.1561
2906.00,4.4116
2905.00,4.4483
2904.00,4.2423
2903.00,4.2228
2902.00,4.3774
2901.00,4.2561
2900.00,3.9885
2899.00,3.8050
2898.00,3.8162
2897.00,3.9531
2896.00,4.2198
2895.00,4.6374
2894.00,4.5135
2893.00,4.3276
2892.00,4.2743
2891.00,4.3848
2890.00,4.2766
2889.00,4.0003
2888.00,3.7711
2887.00,3.6423
2886.00,3.6410
2885.00,3.7887
2884.00,4.1132
2883.00,4.4208
2882.00,4.3241
2881.00,4.2622
2880.00,4.4066
2879.00,4.3879
2878.00,4.2330
2877.00,4.2107
2876.00,4.3969
2875.00,4.3951
2874.00,4.1335
2873.00,4.0663
2872.00,4.2975
2871.00,4.3621
2870.00,4.0156
2869.00,3.8111
2868.00,3.8643
2867.00,4.1863
2866.00,4.8406
2865.00,6.3155
2864.00,4.4189
2863.00,4.1097
2862.00,3.9485
2861.00,4.0263
2860.00,4.3873
2859.00,4.2901
2858.00,4.0430
2857.00,3.9083
2856.00,4.0305
2855.00,4.2341
2854.00,4.3980
2853.00,4.5344
2852.00,4.3177
2851.00,4.1817
2850.00,4.1657
2849.00,4.1719
2848.00,4.0768
2847.00,3.9772
2846.00,3.9343
2845.00,3.9745
2844.00,4.1706
2843.00,4.4418
2842.00,4.3721
2841.00,4.3029
2840.00,4.3097
2839.00,4.1472
2838.00,3.8388
2837.00,3.5696
2836.00,3.3383
2835.00,3.1193
2834.00,2.9176
2833.00,2.7334
2832.00,2.5681
2831.00,2.4204
2830.00,2.2860
2829.00,2.1628
2828.00,2.0509
2827.00,1.9507
2826.00,1.8606
2825.00,1.7788
2824.00,1.7040
2823.00,1.6357
2822.00,1.5732
2821.00,1.5155
2820.00,1.4620
2819.00,1.4123
2818.00,1.3663
2817.00,1.3238
2816.00,1.2844
2815.00,1.2480
2814.00,1.2139
2813.00,1.1818
2812.00,1.1512
2811.00,1.1221
2810.00,1.0945
2809.00,1.0685
2808.00,1.0439
2807.00,1.0207
2806.00,0.9987
2805.00,0.9777
2804.00,0.9578
2803.00,0.9386
2802.00,0.9204
2801.00,0.9029
2800.00,0.8864
2799.00,0.8708
2798.00,0.8559
2797.00,0.8416
2796.00,0.8278
2795.00,0.8144
2794.00,0.8016
2793.00,0.7891
2792.00,0.7769
2791.00,0.7650
2790.00,0.7533
2789.00,0.7420
2788.00,0.7309
2787.00,0.7200
2786.00,0.7094
2785.00,0.6990
2784.00,0.6890
2783.00,0.6793
2782.00,0.6698
2781.00,0.6607
2780.00,0.6520
2779.00,0.6438
2778.00,0.6359
2777.00,0.6283
2776.00,0.6212
2775.00,0.6145
2774.00,0.6082
2773.00,0.6024
2772.00,0.5969
2771.00,0.5918
2770.00,0.5871
2769.00,0.5828
2768.00,0.5791
2767.00,0.5756
2766.00,0.5724
2765.00,0.5695
2764.00,0.5669
2763.00,0.5647
2762.00,0.5628
2761.00,0.5611
2760.00,0.5596
2759.00,0.5581
2758.00,0.5567
2757.00,0.5553
2756.00,0.5540
2755.00,0.5527
2754.00,0.5516
2753.00,0.5508
2752.00,0.5502
2751.00,0.5498
2750.00,0.5496
2749.00,0.5497
2748.00,0.5500
2747.00,0.5505
2746.00,0.5514
2745.00,0.5527
2744.00,0.5543
2743.00,0.5563
2742.00,0.5586
2741.00,0.5613
2740.00,0.5646
2739.00,0.5684
2738.00,0.5728
2737.00,0.5778
2736.00,0.5833
2735.00,0.5891
2734.00,0.5952
2733.00,0.6012
2732.00,0.6069
2731.00,0.6116
2730.00,0.6152
2729.00,0.6174
2728.00,0.6184
2727.00,0.6182
2726.00,0.6172
2725.00,0.6155
2724.00,0.6133
2723.00,0.6106
2722.00,0.6074
2721.00,0.6039
2720.00,0.6001
2719.00,0.5958
2718.00,0.5913
2717.00,0.5864
2716.00,0.5812
2715.00,0.5758
2714.00,0.5705
2713.00,0.5653
2712.00,0.5605
2711.00,0.5560
2710.00,0.5520
2709.00,0.5485
2708.00,0.5453
2707.00,0.5426
2706.00,0.5404
2705.00,0.5386
2704.00,0.5372
2703.00,0.5362
2702.00,0.5354
2701.00,0.5350
2700.00,0.5348
2699.00,0.5349
2698.00,0.5352
2697.00,0.5357
2696.00,0.5363
2695.00,0.5370
2694.00,0.5379
2693.00,0.5389
2692.00,0.5400
2691.00,0.5411
2690.00,0.5422
2689.00,0.5433
2688.00,0.5442
2687.00,0.5451
2686.00,0.5460
2685.00,0.5466
2684.00,0.5472
2683.00,0.5476
2682.00,0.5480
2681.00,0.5484
2680.00,0.5487
2679.00,0.5491
2678.00,0.5494
2677.00,0.5498
2676.00,0.5502
2675.00,0.5507
2674.00,0.5512
2673.00,0.5516
2672.00,0.5518
2671.00,0.5518
2670.00,0.5516
2669.00,0.5510
2668.00,0.5501
2667.00,0.5489
2666.00,0.5474
2665.00,0.5457
2664.00,0.5437
2663.00,0.5415
2662.00,0.5393
2661.00,0.5370
2660.00,0.5346
2659.00,0.5322
2658.00,0.5298
2657.00,0.5274
2656.00,0.5250
2655.00,0.5226
2654.00,0.5204
2653.00,0.5183
2652.00,0.5163
2651.00,0.5144
2650.00,0.5127
2649.00,0.5110
2648.00,0.5094
2647.00,0.5078
2646.00,0.5062
2645.00,0.5046
2644.00,0.5032
2643.00,0.5018
2642.00,0.5006
2641.00,0.4994
2640.00,0.4983
2639.00,0.4972
2638.00,0.4962
2637.00,0.4951
2636.00,0.4941
2635.00,0.4930
2634.00,0.4920
2633.00,0.4910
2632.00,0.4900
2631.00,0.4891
2630.00,0.4881
2629.00,0.4871
2628.00,0.4861
2627.00,0.4850
2626.00,0.4840
2625.00,0.4830
2624.00,0.4820
2623.00,0.4809
2622.00,0.4798
2621.00,0.4787
2620.00,0.4775
2619.00,0.4764
2618.00,0.4754
2617.00,0.4743
2616.00,0.4733
2615.00,0.4722
2614.00,0.4712
2613.00,0.4700
2612.00,0.4688
2611.00,0.4676
2610.00,0.4664
2609.00,0.4652
2608.00,0.4640
2607.00,0.4629
2606.00,0.4618
2605.00,0.4607
2604.00,0.4596
2603.00,0.4585
2602.00,0.4572
2601.00,0.4559
2600.00,0.4545
2599.00,0.4530
2598.00,0.4515
2597.00,0.4499
2596.00,0.4483
2595.00,0.4466
2594.00,0.4449
2593.00,0.4432
2592.00,0.4415
2591.00,0.4397
2590.00,0.4378
2589.00,0.4359
2588.00,0.4341
2587.00,0.4322
2586.00,0.4304
2585.00,0.4285
2584.00,0.4266
2583.00,0.4245
2582.00,0.4223
2581.00,0.4202
2580.00,0.4182
2579.00,0.4162
2578.00,0.4142
2577.00,0.4122
2576.00,0.4102
2575.00,0.4083
2574.00,0.4064
2573.00,0.4046
2572.00,0.4028
2571.00,0.4011
2570.00,0.3993
2569.00,0.3976
2568.00,0.3958
2567.00,0.3941
2566.00,0.3923
2565.00,0.3907
2564.00,0.3891
2563.00,0.3876
2562.00,0.3860
2561.00,0.3845
2560.00,0.3830
2559.00,0.3815
2558.00,0.3801
2557.00,0.3787
2556.00,0.3773
2555.00,0.3759
2554.00,0.3746
2553.00,0.3734
2552.00,0.3721
2551.00,0.3709
2550.00,0.3696
2549.00,0.3684
2548.00,0.3672
2547.00,0.3661
2546.00,0.3650
2545.00,0.3640
2544.00,0.3631
2543.00,0.3621
2542.00,0.3612
2541.00,0.3603
2540.00,0.3594
2539.00,0.3586
2538.00,0.3577
2537.00,0.3569
2536.00,0.3560
2535.00,0.3552
2534.00,0.3544
2533.00,0.3536
2532.00,0.3527
2531.00,0.3518
2530.00,0.3509
2529.00,0.3499
2528.00,0.3488
2527.00,0.3478
2526.00,0.3467
2525.00,0.3456
2524.00,0.3445
2523.00,0.3434
2522.00,0.3423
2521.00,0.3412
2520.00,0.3402
2519.00,0.3391
2518.00,0.3381
2517.00,0.3370
2516.00,0.3360
2515.00,0.3350
2514.00,0.3341
2513.00,0.3332
2512.00,0.3323
2511.00,0.3315
2510.00,0.3307
2509.00,0.3299
2508.00,0.3291
2507.00,0.3283
2506.00,0.3276
2505.00,0.3269
2504.00,0.3262
2503.00,0.3256
2502.00,0.3250
2501.00,0.3245
2500.00,0.3239
2499.00,0.3234
2498.00,0.3229
2497.00,0.3224
2496.00,0.3219
2495.00,0.3214
2494.00,0.3209
2493.00,0.3204
2492.00,0.3200
2491.00,0.3195
2490.00,0.3191
2489.00,0.3186
2488.00,0.3181
2487.00,0.3177
2486.00,0.3172
2485.00,0.3168
2484.00,0.3163
2483.00,0.3159
2482.00,0.3155
2481.00,0.3150
2480.00,0.3146
2479.00,0.3142
2478.00,0.3138
2477.00,0.3134
2476.00,0.3130
2475.00,0.3127
2474.00,0.3123
2473.00,0.3120
2472.00,0.3116
2471.00,0.3112
2470.00,0.3109
2469.00,0.3105
2468.00,0.3102
2467.00,0.3098
2466.00,0.3095
2465.00,0.3091
2464.00,0.3087
2463.00,0.3083
2462.00,0.3080
2461.00,0.3077
2460.00,0.3074
2459.00,0.3072
2458.00,0.3070
2457.00,0.3068
2456.00,0.3066
2455.00,0.3064
2454.00,0.3062
2453.00,0.3060
2452.00,0.3058
2451.00,0.3057
2450.00,0.3055
2449.00,0.3054
2448.00,0.3054
2447.00,0.3053
2446.00,0.3053
2445.00,0.3052
2444.00,0.3051
2443.00,0.3051
2442.00,0.3051
2441.00,0.3051
2440.00,0.3051
2439.00,0.3052
2438.00,0.3052
2437.00,0.3053
2436.00,0.3053
2435.00,0.3053
2434.00,0.3053
2433.00,0.3054
2432.00,0.3054
2431.00,0.3054
2430.00,0.3054
2429.00,0.3055
2428.00,0.3056
2427.00,0.3057
2426.00,0.3057
2425.00,0.3058
2424.00,0.3058
2423.00,0.3059
2422.00,0.3059
2421.00,0.3060
2420.00,0.3060
2419.00,0.3061
2418.00,0.3061
2417.00,0.3061
2416.00,0.3062
2415.00,0.3062
2414.00,0.3063
2413.00,0.3063
2412.00,0.3063
2411.00,0.3062
2410.00,0.3062
2409.00,0.3061
2408.00,0.3061
2407.00,0.3061
2406.00,0.3060
2405.00,0.3059
2404.00,0.3058
2403.00,0.3057
2402.00,0.3055
2401.00,0.3054
2400.00,0.3054
2399.00,0.3052
2398.00,0.3050
2397.00,0.3048
2396.00,0.3046
2395.00,0.3043
2394.00,0.3041
2393.00,0.3040
2392.00,0.3039
2391.00,0.3038
2390.00,0.3036
2389.00,0.3035
2388.00,0.3034
2387.00,0.3032
2386.00,0.3031
2385.00,0.3029
2384.00,0.3028
2383.00,0.3027
2382.00,0.3026
2381.00,0.3025
2380.00,0.3025
2379.00,0.3024
2378.00,0.3023
2377.00,0.3023
2376.00,0.3022
2375.00,0.3021
2374.00,0.3019
2373.00,0.3018
2372.00,0.3015
2371.00,0.3012
2370.00,0.3009
2369.00,0.3007
2368.00,0.3006
2367.00,0.3005
2366.00,0.3004
2365.00,0.3003
2364.00,0.3003
2363.00,0.3003
2362.00,0.3004
2361.00,0.3005
2360.00,0.3007
2359.00,0.3008
2358.00,0.3010
2357.00,0.3012
2356.00,0.3016
2355.00,0.3020
2354.00,0.3023
2353.00,0.3024
2352.00,0.3022
2351.00,0.3014
2350.00,0.3005
2349.00,0.2998
2348.00,0.2996
2347.00,0.2998
2346.00,0.3001
2345.00,0.3002
2344.00,0.2999
2343.00,0.2995
2342.00,0.2992
2341.00,0.2990
2340.00,0.2988
2339.00,0.2987
2338.00,0.2985
2337.00,0.2983
2336.00,0.2982
2335.00,0.2980
2334.00,0.2978
2333.00,0.2977
2332.00,0.2976
2331.00,0.2975
2330.00,0.2973
2329.00,0.2971
2328.00,0.2969
2327.00,0.2967
2326.00,0.2965
2325.00,0.2964
2324.00,0.2963
2323.00,0.2963
2322.00,0.2961
2321.00,0.2960
2320.00,0.2957
2319.00,0.2954
2318.00,0.2951
2317.00,0.2948
2316.00,0.2946
2315.00,0.2943
2314.00,0.2940
2313.00,0.2937
2312.00,0.2933
2311.00,0.2929
2310.00,0.2926
2309.00,0.2922
2308.00,0.2918
2307.00,0.2914
2306.00,0.2910
2305.00,0.2906
2304.00,0.2902
2303.00,0.2898
2302.00,0.2894
2301.00,0.2891
2300.00,0.2888
2299.00,0.2885
2298.00,0.2881
2297.00,0.2878
2296.00,0.2875
2295.00,0.2873
2294.00,0.2870
2293.00,0.2867
2292.00,0.2863
2291.00,0.2860
2290.00,0.2856
2289.00,0.2853
2288.00,0.2850
2287.00,0.2847
2286.00,0.2844
2285.00,0.2841
2284.00,0.2838
2283.00,0.2834
2282.00,0.2831
2281.00,0.2828
2280.00,0.2824
2279.00,0.2820
2278.00,0.2817
2277.00,0.2813
2276.00,0.2809
2275.00,0.2806
2274.00,0.2802
2273.00,0.2799
2272.00,0.2797
2271.00,0.2795
2270.00,0.2793
2269.00,0.2791
2268.00,0.2788
2267.00,0.2786
2266.00,0.2783
2265.00,0.2780
2264.00,0.2777
2263.00,0.2774
2262.00,0.2772
2261.00,0.2770
2260.00,0.2767
2259.00,0.2764
2258.00,0.2762
2257.00,0.2759
2256.00,0.2757
2255.00,0.2755
2254.00,0.2752
2253.00,0.2750
2252.00,0.2747
2251.00,0.2744
2250.00,0.2741
2249.00,0.2739
2248.00,0.2737
2247.00,0.2735
2246.00,0.2732
2245.00,0.2730
2244.00,0.2727
2243.00,0.2725
2242.00,0.2722
2241.00,0.2720
2240.00,0.2718
2239.00,0.2716
2238.00,0.2714
2237.00,0.2712
2236.00,0.2711
2235.00,0.2709
2234.00,0.2707
2233.00,0.2706
2232.00,0.2705
2231.00,0.2703
2230.00,0.2702
2229.00,0.2701
2228.00,0.2700
2227.00,0.2699
2226.00,0.2697
2225.00,0.2696
2224.00,0.2695
2223.00,0.2693
2222.00,0.2692
2221.00,0.2691
2220.00,0.2691
2219.00,0.2690
2218.00,0.2688
2217.00,0.2687
2216.00,0.2687
2215.00,0.2686
2214.00,0.2685
2213.00,0.2685
2212.00,0.2684
2211.00,0.2684
2210.00,0.2684
2209.00,0.2684
2208.00,0.2683
2207.00,0.2683
2206.00,0.2682
2205.00,0.2681
2204.00,0.2681
2203.00,0.2681
2202.00,0.2680
2201.00,0.2679
2200.00,0.2678
2199.00,0.2678
2198.00,0.2678
2197.00,0.2678
2196.00,0.2679
2195.00,0.2680
2194.00,0.2680
2193.00,0.2680
2192.00,0.2680
2191.00,0.2680
2190.00,0.2681
2189.00,0.2681
2188.00,0.2682
2187.00,0.2682
2186.00,0.2681
2185.00,0.2680
2184.00,0.2680
2183.00,0.2679
2182.00,0.2679
2181.00,0.2678
2180.00,0.2676
2179.00,0.2674
2178.00,0.2672
2177.00,0.2671
2176.00,0.2670
2175.00,0.2669
2174.00,0.2667
2173.00,0.2666
2172.00,0.2665
2171.00,0.2663
2170.00,0.2662
2169.00,0.2660
2168.00,0.2659
2167.00,0.2657
2166.00,0.2656
2165.00,0.2654
2164.00,0.2652
2163.00,0.2651
2162.00,0.2649
2161.00,0.2648
2160.00,0.2647
2159.00,0.2646
2158.00,0.2644
2157.00,0.2643
2156.00,0.2641
2155.00,0.2640
2154.00,0.2638
2153.00,0.2636
2152.00,0.2634
2151.00,0.2632
2150.00,0.2629
2149.00,0.2626
2148.00,0.2623
2147.00,0.2619
2146.00,0.2614
2145.00,0.2609
2144.00,0.2604
2143.00,0.2599
2142.00,0.2594
2141.00,0.2589
2140.00,0.2584
2139.00,0.2580
2138.00,0.2577
2137.00,0.2573
2136.00,0.2571
2135.00,0.2568
2134.00,0.2565
2133.00,0.2563
2132.00,0.2560
2131.00,0.2558
2130.00,0.2556
2129.00,0.2555
2128.00,0.2554
2127.00,0.2553
2126.00,0.2551
2125.00,0.2550
2124.00,0.2548
2123.00,0.2547
2122.00,0.2546
2121.00,0.2545
2120.00,0.2545
2119.00,0.2544
2118.00,0.2542
2117.00,0.2541
2116.00,0.2541
2115.00,0.2539
2114.00,0.2538
2113.00,0.2536
2112.00,0.2535
2111.00,0.2533
2110.00,0.2531
2109.00,0.2529
2108.00,0.2528
2107.00,0.2526
2106.00,0.2525
2105.00,0.2524
2104.00,0.2524
2103.00,0.2524
2102.00,0.2523
2101.00,0.2523
2100.00,0.2523
2099.00,0.2523
2098.00,0.2522
2097.00,0.2521
2096.00,0.2521
2095.00,0.2521
2094.00,0.2520
2093.00,0.2521
2092.00,0.2521
2091.00,0.2522
2090.00,0.2522
2089.00,0.2522
2088.00,0.2521
2087.00,0.2521
2086.00,0.2520
2085.00,0.2520
2084.00,0.2520
2083.00,0.2519
2082.00,0.2518
2081.00,0.2518
2080.00,0.2517
2079.00,0.2517
2078.00,0.2517
2077.00,0.2517
2076.00,0.2517
2075.00,0.2518
2074.00,0.2518
2073.00,0.2519
2072.00,0.2519
2071.00,0.2519
2070.00,0.2519
2069.00,0.2520
2068.00,0.2522
2067.00,0.2524
2066.00,0.2526
2065.00,0.2529
2064.00,0.2531
2063.00,0.2531
2062.00,0.2531
2061.00,0.2532
2060.00,0.2534
2059.00,0.2535
2058.00,0.2536
2057.00,0.2537
2056.00,0.2538
2055.00,0.2539
2054.00,0.2541
2053.00,0.2543
2052.00,0.2545
2051.00,0.2546
2050.00,0.2548
2049.00,0.2550
2048.00,0.2553
2047.00,0.2555
2046.00,0.2557
2045.00,0.2559
2044.00,0.2561
2043.00,0.2563
2042.00,0.2564
2041.00,0.2565
2040.00,0.2565
2039.00,0.2565
2038.00,0.2566
2037.00,0.2567
2036.00,0.2569
2035.00,0.2570
2034.00,0.2570
2033.00,0.2570
2032.00,0.2571
2031.00,0.2572
2030.00,0.2571
2029.00,0.2571
2028.00,0.2571
2027.00,0.2570
2026.00,0.2569
2025.00,0.2568
2024.00,0.2567
2023.00,0.2564
2022.00,0.2561
2021.00,0.2557
2020.00,0.2553
2019.00,0.2549
2018.00,0.2544
2017.00,0.2539
2016.00,0.2532
2015.00,0.2523
2014.00,0.2515
2013.00,0.2507
2012.00,0.2501
2011.00,0.2495
2010.00,0.2490
2009.00,0.2485
2008.00,0.2482
2007.00,0.2478
2006.00,0.2474
2005.00,0.2471
2004.00,0.2469
2003.00,0.2467
2002.00,0.2466
2001.00,0.2465
2000.00,0.2464
1999.00,0.2463
1998.00,0.2462
1997.00,0.2461
1996.00,0.2460
1995.00,0.2460
1994.00,0.2460
1993.00,0.2461
1992.00,0.2462
1991.00,0.2461
1990.00,0.2458
1989.00,0.2456
1988.00,0.2455
1987.00,0.2453
1986.00,0.2450
1985.00,0.2449
1984.00,0.2448
1983.00,0.2447
1982.00,0.2445
1981.00,0.2444
1980.00,0.2443
1979.00,0.2442
1978.00,0.2442
1977.00,0.2442
1976.00,0.2443
1975.00,0.2443
1974.00,0.2442
1973.00,0.2443
1972.00,0.2443
1971.00,0.2444
1970.00,0.2445
1969.00,0.2448
1968.00,0.2451
1967.00,0.2454
1966.00,0.2455
1965.00,0.2454
1964.00,0.2452
1963.00,0.2452
1962.00,0.2452
1961.00,0.2453
1960.00,0.2454
1959.00,0.2454
1958.00,0.2456
1957.00,0.2457
1956.00,0.2459
1955.00,0.2461
1954.00,0.2462
1953.00,0.2463
1952.00,0.2463
1951.00,0.2463
1950.00,0.2463
1949.00,0.2464
1948.00,0.2466
1947.00,0.2469
1946.00,0.2473
1945.00,0.2478
1944.00,0.2484
1943.00,0.2491
1942.00,0.2497
1941.00,0.2502
1940.00,0.2505
1939.00,0.2507
1938.00,0.2510
1937.00,0.2511
1936.00,0.2512
1935.00,0.2511
1934.00,0.2510
1933.00,0.2510
1932.00,0.2510
1931.00,0.2509
1930.00,0.2509
1929.00,0.2510
1928.00,0.2511
1927.00,0.2512
1926.00,0.2513
1925.00,0.2517
1924.00,0.2524
1923.00,0.2531
1922.00,0.2535
1921.00,0.2537
1920.00,0.2538
1919.00,0.2538
1918.00,0.2539
1917.00,0.2541
1916.00,0.2545
1915.00,0.2547
1914.00,0.2550
1913.00,0.2551
1912.00,0.2553
1911.00,0.2556
1910.00,0.2560
1909.00,0.2563
1908.00,0.2565
1907.00,0.2564
1906.00,0.2562
1905.00,0.2562
1904.00,0.2562
1903.00,0.2562
1902.00,0.2562
1901.00,0.2563
1900.00,0.2564
1899.00,0.2565
1898.00,0.2567
1897.00,0.2570
1896.00,0.2574
1895.00,0.2578
1894.00,0.2579
1893.00,0.2579
1892.00,0.2580
1891.00,0.2581
1890.00,0.2582
1889.00,0.2584
1888.00,0.2584
1887.00,0.2584
1886.00,0.2584
1885.00,0.2585
1884.00,0.2586
1883.00,0.2585
1882.00,0.2585
1881.00,0.2584
1880.00,0.2584
1879.00,0.2583
1878.00,0.2582
1877.00,0.2580
1876.00,0.2578
1875.00,0.2576
1874.00,0.2574
1873.00,0.2573
1872.00,0.2572
1871.00,0.2571
1870.00,0.2569
1869.00,0.2570
1868.00,0.2572
1867.00,0.2571
1866.00,0.2567
1865.00,0.2563
1864.00,0.2558
1863.00,0.2554
1862.00,0.2551
1861.00,0.2548
1860.00,0.2546
1859.00,0.2543
1858.00,0.2540
1857.00,0.2536
1856.00,0.2533
1855.00,0.2531
1854.00,0.2528
1853.00,0.2526
1852.00,0.2525
1851.00,0.2525
1850.00,0.2525
1849.00,0.2527
1848.00,0.2529
1847.00,0.2530
1846.00,0.2526
1845.00,0.2520
1844.00,0.2514
1843.00,0.2512
1842.00,0.2513
1841.00,0.2516
1840.00,0.2519
1839.00,0.2519
1838.00,0.2518
1837.00,0.2517
1836.00,0.2516
1835.00,0.2514
1834.00,0.2513
1833.00,0.2511
1832.00,0.2510
1831.00,0.2508
1830.00,0.2507
1829.00,0.2508
1828.00,0.2508
1827.00,0.2507
1826.00,0.2506
1825.00,0.2506
1824.00,0.2506
1823.00,0.2507
1822.00,0.2507
1821.00,0.2507
1820.00,0.2507
1819.00,0.2507
1818.00,0.2508
1817.00,0.2509
1816.00,0.2511
1815.00,0.2512
1814.00,0.2515
1813.00,0.2520
1812.00,0.2526
1811.00,0.2531
1810.00,0.2533
1809.00,0.2534
1808.00,0.2537
1807.00,0.2539
1806.00,0.2541
1805.00,0.2545
1804.00,0.2552
1803.00,0.2559
1802.00,0.2565
1801.00,0.2572
1800.00,0.2577
1799.00,0.2582
1798.00,0.2589
1797.00,0.2598
1796.00,0.2607
1795.00,0.2611
1794.00,0.2611
1793.00,0.2611
1792.00,0.2615
1791.00,0.2621
1790.00,0.2627
1789.00,0.2634
1788.00,0.2641
1787.00,0.2646
1786.00,0.2650
1785.00,0.2655
1784.00,0.2662
1783.00,0.2668
1782.00,0.2675
1781.00,0.2683
1780.00,0.2691
1779.00,0.2696
1778.00,0.2701
1777.00,0.2706
1776.00,0.2714
1775.00,0.2722
1774.00,0.2729
1773.00,0.2736
1772.00,0.2743
1771.00,0.2749
1770.00,0.2756
1769.00,0.2767
1768.00,0.2780
1767.00,0.2792
1766.00,0.2804
1765.00,0.2817
1764.00,0.2831
1763.00,0.2845
1762.00,0.2862
1761.00,0.2884
1760.00,0.2909
1759.00,0.2935
1758.00,0.2962
1757.00,0.2992
1756.00,0.3024
1755.00,0.3058
1754.00,0.3096
1753.00,0.3138
1752.00,0.3186
1751.00,0.3238
1750.00,0.3291
1749.00,0.3340
1748.00,0.3383
1747.00,0.3419
1746.00,0.3450
1745.00,0.3480
1744.00,0.3506
1743.00,0.3525
1742.00,0.3535
1741.00,0.3540
1740.00,0.3544
1739.00,0.3549
1738.00,0.3556
1737.00,0.3564
1736.00,0.3567
1735.00,0.3563
1734.00,0.3560
1733.00,0.3563
1732.00,0.3567
1731.00,0.3566
1730.00,0.3562
1729.00,0.3558
1728.00,0.3558
1727.00,0.3563
1726.00,0.3575
1725.00,0.3596
1724.00,0.3625
1723.00,0.3660
1722.00,0.3697
1721.00,0.3738
1720.00,0.3788
1719.00,0.3861
1718.00,0.3970
1717.00,0.4106
1716.00,0.4240
1715.00,0.4371
1714.00,0.4508
1713.00,0.4652
1712.00,0.4794
1711.00,0.4925
1710.00,0.5038
1709.00,0.5117
1708.00,0.5149
1707.00,0.5134
1706.00,0.5077
1705.00,0.4983
1704.00,0.4873
1703.00,0.4760
1702.00,0.4625
1701.00,0.4438
1700.00,0.4238
1699.00,0.4101
1698.00,0.4031
1697.00,0.3968
1696.00,0.3877
1695.00,0.3771
1694.00,0.3688
1693.00,0.3634
1692.00,0.3594
1691.00,0.3559
1690.00,0.3527
1689.00,0.3501
1688.00,0.3483
1687.00,0.3471
1686.00,0.3455
1685.00,0.3430
1684.00,0.3398
1683.00,0.3364
1682.00,0.3343
1681.00,0.3338
1680.00,0.3333
1679.00,0.3322
1678.00,0.3305
1677.00,0.3284
1676.00,0.3263
1675.00,0.3247
1674.00,0.3243
1673.00,0.3249
1672.00,0.3254
1671.00,0.3253
1670.00,0.3249
1669.00,0.3246
1668.00,0.3245
1667.00,0.3249
1666.00,0.3253
1665.00,0.3254
1664.00,0.3251
1663.00,0.3248
1662.00,0.3250
1661.00,0.3256
1660.00,0.3264
1659.00,0.3271
1658.00,0.3278
1657.00,0.3284
1656.00,0.3291
1655.00,0.3296
1654.00,0.3304
1653.00,0.3319
1652.00,0.3330
1651.00,0.3342
1650.00,0.3353
1649.00,0.3361
1648.00,0.3375
1647.00,0.3394
1646.00,0.3407
1645.00,0.3418
1644.00,0.3434
1643.00,0.3451
1642.00,0.3467
1641.00,0.3485
1640.00,0.3503
1639.00,0.3521
1638.00,0.3539
1637.00,0.3560
1636.00,0.3583
1635.00,0.3601
1634.00,0.3620
1633.00,0.3649
1632.00,0.3681
1631.00,0.3707
1630.00,0.3730
1629.00,0.3756
1628.00,0.3786
1627.00,0.3817
1626.00,0.3847
1625.00,0.3882
1624.00,0.3926
1623.00,0.3979
1622.00,0.4038
1621.00,0.4103
1620.00,0.4172
1619.00,0.4248
1618.00,0.4343
1617.00,0.4466
1616.00,0.4602
1615.00,0.4722
1614.00,0.4826
1613.00,0.4931
1612.00,0.5044
1611.00,0.5161
1610.00,0.5278
1609.00,0.5395
1608.00,0.5509
1607.00,0.5608
1606.00,0.5689
1605.00,0.5762
1604.00,0.5833
1603.00,0.5900
1602.00,0.5962
1601.00,0.6027
1600.00,0.6101
1599.00,0.6179
1598.00,0.6266
1597.00,0.6378
1596.00,0.6527
1595.00,0.6713
1594.00,0.6941
1593.00,0.7232
1592.00,0.7605
1591.00,0.8074
1590.00,0.8659
1589.00,0.9403
1588.00,1.0360
1587.00,1.1565
1586.00,1.3047
1585.00,1.4877
1584.00,1.7174
1583.00,1.9947
1582.00,2.2830
1581.00,2.5373
1580.00,2.7465
1579.00,2.6970
1578.00,2.3205
1577.00,1.9485
1576.00,1.6607
1575.00,1.4508
1574.00,1.3034
1573.00,1.1984
1572.00,1.1176
1571.00,1.0497
1570.00,0.9952
1569.00,0.9622
1568.00,0.9542
1567.00,0.9680
1566.00,1.0019
1565.00,1.0593
1564.00,1.1391
1563.00,1.2294
1562.00,1.3148
1561.00,1.3865
1560.00,1.4181
1559.00,1.3472
1558.00,1.2131
1557.00,1.1008
1556.00,1.0113
1555.00,0.9248
1554.00,0.8437
1553.00,0.7782
1552.00,0.7296
1551.00,0.6908
1550.00,0.6569
1549.00,0.6288
1548.00,0.6077
1547.00,0.5917
1546.00,0.5781
1545.00,0.5666
1544.00,0.5574
1543.00,0.5496
1542.00,0.5422
1541.00,0.5356
1540.00,0.5294
1539.00,0.5224
1538.00,0.5162
1537.00,0.5122
1536.00,0.5091
1535.00,0.5056
1534.00,0.5021
1533.00,0.5000
1532.00,0.4998
1531.00,0.5010
1530.00,0.5026
1529.00,0.5047
1528.00,0.5070
1527.00,0.5085
1526.00,0.5085
1525.00,0.5079
1524.00,0.5077
1523.00,0.5082
1522.00,0.5098
1521.00,0.5126
1520.00,0.5158
1519.00,0.5191
1518.00,0.5230
1517.00,0.5283
1516.00,0.5334
1515.00,0.5366
1514.00,0.5379
1513.00,0.5388
1512.00,0.5400
1511.00,0.5418
1510.00,0.5447
1509.00,0.5497
1508.00,0.5583
1507.00,0.5704
1506.00,0.5822
1505.00,0.5929
1504.00,0.6036
1503.00,0.6132
1502.00,0.6217
1501.00,0.6297
1500.00,0.6374
1499.00,0.6446
1498.00,0.6527
1497.00,0.6635
1496.00,0.6763
1495.00,0.6885
1494.00,0.6997
1493.00,0.7115
1492.00,0.7254
1491.00,0.7420
1490.00,0.7617
1489.00,0.7837
1488.00,0.8062
1487.00,0.8294
1486.00,0.8550
1485.00,0.8852
1484.00,0.9201
1483.00,0.9606
1482.00,1.0092
1481.00,1.0672
1480.00,1.1323
1479.00,1.2023
1478.00,1.2814
1477.00,1.3769
1476.00,1.4902
1475.00,1.6183
1474.00,1.7702
1473.00,1.9727
1472.00,2.2434
1471.00,2.5628
1470.00,2.9060
1469.00,3.3316
1468.00,3.8819
1467.00,4.1932
1466.00,4.3623
1465.00,3.9828
1464.00,3.7411
1463.00,3.5977
1462.00,3.5471
1461.00,3.7166
1460.00,3.8330
1459.00,3.7346
1458.00,3.6526
1457.00,3.4572
1456.00,3.3588
1455.00,3.5253
1454.00,3.8218
1453.00,3.9617
1452.00,3.9565
1451.00,3.7297
1450.00,3.6687
1449.00,3.8411
1448.00,3.9795
1447.00,3.7171
1446.00,3.4407
1445.00,3.2888
1444.00,3.0859
1443.00,2.8582
1442.00,2.6865
1441.00,2.5537
1440.00,2.4226
1439.00,2.2838
1438.00,2.1436
1437.00,1.9997
1436.00,1.8579
1435.00,1.7333
1434.00,1.6271
1433.00,1.5284
1432.00,1.4299
1431.00,1.3342
1430.00,1.2474
1429.00,1.1736
1428.00,1.1143
1427.00,1.0683
1426.00,1.0318
1425.00,1.0012
1424.00,0.9758
1423.00,0.9565
1422.00,0.9428
1421.00,0.9319
1420.00,0.9220
1419.00,0.9134
1418.00,0.9063
1417.00,0.9003
1416.00,0.8954
1415.00,0.8918
1414.00,0.8896
1413.00,0.8885
1412.00,0.8883
1411.00,0.8886
1410.00,0.8880
1409.00,0.8852
1408.00,0.8794
1407.00,0.8704
1406.00,0.8577
1405.00,0.8414
1404.00,0.8235
1403.00,0.8067
1402.00,0.7918
1401.00,0.7782
1400.00,0.7661
1399.00,0.7566
1398.00,0.7505
1397.00,0.7473
1396.00,0.7474
1395.00,0.7518
1394.00,0.7608
1393.00,0.7752
1392.00,0.7966
1391.00,0.8273
1390.00,0.8698
1389.00,0.9283
1388.00,1.0083
1387.00,1.1114
1386.00,1.2298
1385.00,1.3528
1384.00,1.4781
1383.00,1.6109
1382.00,1.7559
1381.00,1.9169
1380.00,2.0999
1379.00,2.2983
1378.00,2.4638
1377.00,2.5244
1376.00,2.4628
1375.00,2.3083
1374.00,2.1116
1373.00,1.9270
1372.00,1.7776
1371.00,1.6624
1370.00,1.5769
1369.00,1.5192
1368.00,1.4844
1367.00,1.4595
1366.00,1.4263
1365.00,1.3719
1364.00,1.2962
1363.00,1.2111
1362.00,1.1320
1361.00,1.0681
1360.00,1.0201
1359.00,0.9849
1358.00,0.9591
1357.00,0.9408
1356.00,0.9285
1355.00,0.9210
1354.00,0.9167
1353.00,0.9143
1352.00,0.9124
1351.00,0.9101
1350.00,0.9068
1349.00,0.9027
1348.00,0.8983
1347.00,0.8942
1346.00,0.8908
1345.00,0.8880
1344.00,0.8857
1343.00,0.8833
1342.00,0.8802
1341.00,0.8755
1340.00,0.8684
1339.00,0.8580
1338.00,0.8444
1337.00,0.8283
1336.00,0.8110
1335.00,0.7936
1334.00,0.7773
1333.00,0.7625
1332.00,0.7497
1331.00,0.7391
1330.00,0.7307
1329.00,0.7242
1328.00,0.7193
1327.00,0.7160
1326.00,0.7139
1325.00,0.7128
1324.00,0.7123
1323.00,0.7124
1322.00,0.7129
1321.00,0.7136
1320.00,0.7146
1319.00,0.7159
1318.00,0.7176
1317.00,0.7199
1316.00,0.7227
1315.00,0.7262
1314.00,0.7303
1313.00,0.7347
1312.00,0.7393
1311.00,0.7438
1310.00,0.7479
1309.00,0.7514
1308.00,0.7542
1307.00,0.7563
1306.00,0.7574
1305.00,0.7571
1304.00,0.7551
1303.00,0.7515
1302.00,0.7468
1301.00,0.7415
1300.00,0.7359
1299.00,0.7302
1298.00,0.7242
1297.00,0.7179
1296.00,0.7116
1295.00,0.7058
1294.00,0.7006
1293.00,0.6960
1292.00,0.6918
1291.00,0.6880
1290.00,0.6842
1289.00,0.6805
1288.00,0.6767
1287.00,0.6727
1286.00,0.6683
1285.00,0.6636
1284.00,0.6587
1283.00,0.6539
1282.00,0.6496
1281.00,0.6460
1280.00,0.6430
1279.00,0.6406
1278.00,0.6383
1277.00,0.6359
1276.00,0.6332
1275.00,0.6306
1274.00,0.6282
1273.00,0.6264
1272.00,0.6251
1271.00,0.6244
1270.00,0.6239
1269.00,0.6228
1268.00,0.6206
1267.00,0.6171
1266.00,0.6125
1265.00,0.6073
1264.00,0.6023
1263.00,0.5981
1262.00,0.5949
1261.00,0.5923
1260.00,0.5903
1259.00,0.5886
1258.00,0.5868
1257.00,0.5849
1256.00,0.5826
1255.00,0.5804
1254.00,0.5784
1253.00,0.5768
1252.00,0.5756
1251.00,0.5745
1250.00,0.5734
1249.00,0.5717
1248.00,0.5696
1247.00,0.5673
1246.00,0.5649
1245.00,0.5620
1244.00,0.5586
1243.00,0.5548
1242.00,0.5510
1241.00,0.5472
1240.00,0.5438
1239.00,0.5408
1238.00,0.5382
1237.00,0.5360
1236.00,0.5340
1235.00,0.5324
1234.00,0.5314
1233.00,0.5310
1232.00,0.5313
1231.00,0.5322
1230.00,0.5331
1229.00,0.5334
1228.00,0.5325
1227.00,0.5303
1226.00,0.5272
1225.00,0.5236
1224.00,0.5199
1223.00,0.5166
1222.00,0.5139
1221.00,0.5117
1220.00,0.5100
1219.00,0.5090
1218.00,0.5086
1217.00,0.5089
1216.00,0.5098
1215.00,0.5109
1214.00,0.5120
1213.00,0.5124
1212.00,0.5120
1211.00,0.5110
1210.00,0.5097
1209.00,0.5082
1208.00,0.5066
1207.00,0.5050
1206.00,0.5034
1205.00,0.5017
1204.00,0.5000
1203.00,0.4984
1202.00,0.4971
1201.00,0.4961
1200.00,0.4953
1199.00,0.4949
1198.00,0.4945
1197.00,0.4940
1196.00,0.4935
1195.00,0.4929
1194.00,0.4925
1193.00,0.4921
1192.00,0.4918
1191.00,0.4915
1190.00,0.4912
1189.00,0.4905
1188.00,0.4897
1187.00,0.4890
1186.00,0.4884
1185.00,0.4879
1184.00,0.4875
1183.00,0.4873
1182.00,0.4874
1181.00,0.4876
1180.00,0.4880
1179.00,0.4889
1178.00,0.4901
1177.00,0.4917
1176.00,0.4940
1175.00,0.4971
1174.00,0.5014
1173.00,0.5065
1172.00,0.5121
1171.00,0.5172
1170.00,0.5210
1169.00,0.5228
1168.00,0.5226
1167.00,0.5213
1166.00,0.5195
1165.00,0.5179
1164.00,0.5168
1163.00,0.5166
1162.00,0.5172
1161.00,0.5184
1160.00,0.5200
1159.00,0.5219
1158.00,0.5238
1157.00,0.5252
1156.00,0.5259
1155.00,0.5258
1154.00,0.5249
1153.00,0.5233
1152.00,0.5210
1151.00,0.5182
1150.00,0.5153
1149.00,0.5125
1148.00,0.5098
1147.00,0.5075
1146.00,0.5056
1145.00,0.5042
1144.00,0.5034
1143.00,0.5038
1142.00,0.5054
1141.00,0.5083
1140.00,0.5124
1139.00,0.5177
1138.00,0.5242
1137.00,0.5319
1136.00,0.5403
1135.00,0.5489
1134.00,0.5559
1133.00,0.5594
1132.00,0.5581
1131.00,0.5522
1130.00,0.5434
1129.00,0.5339
1128.00,0.5254
1127.00,0.5189
1126.00,0.5143
1125.00,0.5113
1124.00,0.5094
1123.00,0.5082
1122.00,0.5070
1121.00,0.5058
1120.00,0.5049
1119.00,0.5049
1118.00,0.5065
1117.00,0.5097
1116.00,0.5140
1115.00,0.5183
1114.00,0.5207
1113.00,0.5196
1112.00,0.5145
1111.00,0.5068
1110.00,0.4983
1109.00,0.4907
1108.00,0.4846
1107.00,0.4803
1106.00,0.4775
1105.00,0.4757
1104.00,0.4745
1103.00,0.4736
1102.00,0.4727
1101.00,0.4718
1100.00,0.4706
1099.00,0.4692
1098.00,0.4678
1097.00,0.4664
1096.00,0.4654
1095.00,0.4648
1094.00,0.4648
1093.00,0.4651
1092.00,0.4658
1091.00,0.4671
1090.00,0.4690
1089.00,0.4715
1088.00,0.4749
1087.00,0.4792
1086.00,0.4845
1085.00,0.4906
1084.00,0.4976
1083.00,0.5055
1082.00,0.5144
1081.00,0.5236
1080.00,0.5324
1079.00,0.5401
1078.00,0.5457
1077.00,0.5483
1076.00,0.5478
1075.00,0.5442
1074.00,0.5384
1073.00,0.5313
1072.00,0.5242
1071.00,0.5179
1070.00,0.5128
1069.00,0.5086
1068.00,0.5051
1067.00,0.5025
1066.00,0.5007
1065.00,0.4994
1064.00,0.4986
1063.00,0.4982
1062.00,0.4983
1061.00,0.4986
1060.00,0.4988
1059.00,0.4990
1058.00,0.4990
1057.00,0.4986
1056.00,0.4978
1055.00,0.4968
1054.00,0.4960
1053.00,0.4955
1052.00,0.4957
1051.00,0.4968
1050.00,0.4987
1049.00,0.5010
1048.00,0.5031
1047.00,0.5049
1046.00,0.5062
1045.00,0.5067
1044.00,0.5066
1043.00,0.5062
1042.00,0.5060
1041.00,0.5059
1040.00,0.5059
1039.00,0.5058
1038.00,0.5056
1037.00,0.5052
1036.00,0.5052
1035.00,0.5059
1034.00,0.5077
1033.00,0.5103
1032.00,0.5133
1031.00,0.5163
1030.00,0.5188
1029.00,0.5198
1028.00,0.5191
1027.00,0.5167
1026.00,0.5126
1025.00,0.5072
1024.00,0.5010
1023.00,0.4946
1022.00,0.4885
1021.00,0.4830
1020.00,0.4779
1019.00,0.4735
1018.00,0.4697
1017.00,0.4665
1016.00,0.4638
1015.00,0.4616
1014.00,0.4595
1013.00,0.4576
1012.00,0.4560
1011.00,0.4547
1010.00,0.4538
1009.00,0.4535
1008.00,0.4536
1007.00,0.4542
1006.00,0.4552
1005.00,0.4566
1004.00,0.4584
1003.00,0.4604
1002.00,0.4628
1001.00,0.4649
1000.00,0.4667
999.00,0.4678
998.00,0.4681
997.00,0.4674
996.00,0.4657
995.00,0.4632
994.00,0.4602
993.00,0.4567
992.00,0.4528
991.00,0.4487
990.00,0.4447
989.00,0.4410
988.00,0.4380
987.00,0.4361
986.00,0.4354
985.00,0.4356
984.00,0.4366
983.00,0.4383
982.00,0.4405
981.00,0.4431
980.00,0.4460
979.00,0.4489
978.00,0.4516
977.00,0.4540
976.00,0.4560
975.00,0.4575
974.00,0.4584
973.00,0.4588
972.00,0.4587
971.00,0.4586
970.00,0.4586
969.00,0.4584
968.00,0.4582
967.00,0.4579
966.00,0.4576
965.00,0.4570
964.00,0.4561
963.00,0.4548
962.00,0.4534
961.00,0.4519
960.00,0.4506
959.00,0.4496
958.00,0.4491
957.00,0.4489
956.00,0.4487
955.00,0.4484
954.00,0.4479
953.00,0.4470
952.00,0.4459
951.00,0.4449
950.00,0.4442
949.00,0.4439
948.00,0.4440
947.00,0.4444
946.00,0.4451
945.00,0.4461
944.00,0.4474
943.00,0.4492
942.00,0.4512
941.00,0.4529
940.00,0.4541
939.00,0.4549
938.00,0.4551
937.00,0.4545
936.00,0.4531
935.00,0.4508
934.00,0.4481
933.00,0.4451
932.00,0.4421
931.00,0.4395
930.00,0.4374
929.00,0.4359
928.00,0.4351
927.00,0.4353
926.00,0.4369
925.00,0.4401
924.00,0.4448
923.00,0.4508
922.00,0.4569
921.00,0.4613
920.00,0.4623
919.00,0.4594
918.00,0.4529
917.00,0.4440
916.00,0.4342
915.00,0.4248
914.00,0.4166
913.00,0.4097
912.00,0.4042
911.00,0.4000
910.00,0.3968
909.00,0.3942
908.00,0.3921
907.00,0.3906
906.00,0.3897
905.00,0.3893
904.00,0.3893
903.00,0.3898
902.00,0.3910
901.00,0.3929
900.00,0.3957
899.00,0.3992
898.00,0.4033
897.00,0.4075
896.00,0.4117
895.00,0.4161
894.00,0.4208
893.00,0.4257
892.00,0.4306
891.00,0.4350
890.00,0.4385
889.00,0.4405
888.00,0.4411
887.00,0.4403
886.00,0.4385
885.00,0.4359
884.00,0.4332
883.00,0.4312
882.00,0.4303
881.00,0.4305
880.00,0.4315
879.00,0.4326
878.00,0.4336
877.00,0.4340
876.00,0.4342
875.00,0.4345
874.00,0.4351
873.00,0.4358
872.00,0.4369
871.00,0.4383
870.00,0.4401
869.00,0.4423
868.00,0.4450
867.00,0.4484
866.00,0.4524
865.00,0.4571
864.00,0.4620
863.00,0.4662
862.00,0.4683
861.00,0.4672
860.00,0.4625
859.00,0.4553
858.00,0.4473
857.00,0.4398
856.00,0.4334
855.00,0.4283
854.00,0.4242
853.00,0.4208
852.00,0.4179
851.00,0.4156
850.00,0.4135
849.00,0.4110
848.00,0.4081
847.00,0.4049
846.00,0.4015
845.00,0.3983
844.00,0.3954
843.00,0.3934
842.00,0.3927
841.00,0.3940
840.00,0.3978
839.00,0.4043
838.00,0.4126
837.00,0.4209
836.00,0.4267
835.00,0.4284
834.00,0.4258
833.00,0.4205
832.00,0.4146
831.00,0.4103
830.00,0.4088
829.00,0.4100
828.00,0.4134
827.00,0.4184
826.00,0.4244
825.00,0.4309
824.00,0.4379
823.00,0.4454
822.00,0.4534
821.00,0.4614
820.00,0.4691
819.00,0.4765
818.00,0.4828
817.00,0.4875
816.00,0.4899
815.00,0.4899
814.00,0.4876
813.00,0.4832
812.00,0.4771
811.00,0.4699
810.00,0.4624
809.00,0.4552
808.00,0.4486
807.00,0.4427
806.00,0.4374
805.00,0.4321
804.00,0.4263
803.00,0.4201
802.00,0.4136
801.00,0.4072
800.00,0.4014
799.00,0.3969
798.00,0.3938
797.00,0.3916
796.00,0.3902
795.00,0.3895
794.00,0.3894
793.00,0.3899
792.00,0.3910
791.00,0.3931
790.00,0.3959
789.00,0.3990
788.00,0.4022
787.00,0.4058
786.00,0.4100
785.00,0.4151
784.00,0.4205
783.00,0.4256
782.00,0.4299
781.00,0.4331
780.00,0.4355
779.00,0.4374
778.00,0.4391
777.00,0.4406
776.00,0.4423
775.00,0.4442
774.00,0.4466
773.00,0.4493
772.00,0.4522
771.00,0.4553
770.00,0.4588
769.00,0.4624
768.00,0.4661
767.00,0.4697
766.00,0.4727
765.00,0.4751
764.00,0.4770
763.00,0.4794
762.00,0.4829
761.00,0.4874
760.00,0.4922
759.00,0.4968
758.00,0.5006
757.00,0.5040
756.00,0.5070
755.00,0.5103
754.00,0.5141
753.00,0.5186
752.00,0.5239
751.00,0.5297
750.00,0.5356
749.00,0.5410
748.00,0.5458
747.00,0.5503
746.00,0.5545
745.00,0.5589
744.00,0.5636
743.00,0.5693
742.00,0.5757
741.00,0.5822
740.00,0.5879
739.00,0.5928
738.00,0.5974
737.00,0.6022
736.00,0.6075
735.00,0.6136
734.00,0.6206
733.00,0.6284
732.00,0.6375
731.00,0.6489
730.00,0.6637
729.00,0.6822
728.00,0.7044
727.00,0.7308
726.00,0.7614
725.00,0.7952
724.00,0.8285
723.00,0.8542
722.00,0.8633
721.00,0.8484
720.00,0.8108
719.00,0.7603
718.00,0.7078
717.00,0.6599
716.00,0.6194
715.00,0.5866
714.00,0.5607
713.00,0.5399
712.00,0.5227
711.00,0.5084
710.00,0.4969
709.00,0.4876
708.00,0.4800
707.00,0.4735
706.00,0.4676
705.00,0.4619
704.00,0.4567
703.00,0.4527
702.00,0.4504
701.00,0.4491
700.00,0.4466
699.00,0.4403
698.00,0.4283
697.00,0.4112
696.00,0.3919
695.00,0.3740
694.00,0.3595
693.00,0.3485
692.00,0.3404
691.00,0.3344
690.00,0.3300
689.00,0.3267
688.00,0.3243
687.00,0.3226
686.00,0.3213
685.00,0.3202
684.00,0.3191
683.00,0.3181
682.00,0.3173
681.00,0.3166
680.00,0.3161
679.00,0.3159
678.00,0.3161
677.00,0.3162
676.00,0.3163
675.00,0.3163
674.00,0.3162
673.00,0.3161
672.00,0.3157
671.00,0.3152
670.00,0.3149
669.00,0.3153
668.00,0.3160
667.00,0.3165
666.00,0.3171
665.00,0.3180
664.00,0.3187
663.00,0.3194
662.00,0.3204
661.00,0.3215
660.00,0.3227
659.00,0.3238
658.00,0.3249
657.00,0.3260
656.00,0.3270
655.00,0.3282
654.00,0.3297
653.00,0.3312
652.00,0.3327
651.00,0.3341
650.00,0.3354
649.00,0.3363
648.00,0.3371
647.00,0.3382
646.00,0.3396
645.00,0.3410
644.00,0.3423
643.00,0.3434
642.00,0.3446
641.00,0.3457
640.00,0.3468
639.00,0.3478
638.00,0.3488
637.00,0.3496
636.00,0.3501
635.00,0.3504
634.00,0.3507
633.00,0.3513
632.00,0.3521
631.00,0.3532
630.00,0.3543
629.00,0.3554
628.00,0.3568
627.00,0.3589
626.00,0.3616
625.00,0.3645
624.00,0.3671
623.00,0.3695
622.00,0.3715
621.00,0.3731
620.00,0.3744
619.00,0.3755
618.00,0.3767
617.00,0.3777
616.00,0.3782
615.00,0.3783
614.00,0.3781
613.00,0.3775
612.00,0.3765
611.00,0.3752
610.00,0.3735
609.00,0.3714
608.00,0.3689
607.00,0.3663
606.00,0.3642
605.00,0.3629
604.00,0.3623
603.00,0.3624
602.00,0.3625
601.00,0.3625
600.00,0.3626
599.00,0.3631
598.00,0.3643
597.00,0.3660
596.00,0.3681
595.00,0.3706
594.00,0.3735
593.00,0.3763
592.00,0.3786
591.00,0.3806
590.00,0.3826
589.00,0.3848
588.00,0.3873
587.00,0.3900
586.00,0.3926
585.00,0.3950
584.00,0.3973
583.00,0.3997
582.00,0.4024
581.00,0.4053
580.00,0.4078
579.00,0.4099
578.00,0.4116
577.00,0.4132
576.00,0.4147
575.00,0.4164
574.00,0.4184
573.00,0.4207
572.00,0.4232
571.00,0.4258
570.00,0.4284
569.00,0.4308
568.00,0.4329
567.00,0.4348
566.00,0.4366
565.00,0.4388
564.00,0.4412
563.00,0.4436
562.00,0.4456
561.00,0.4472
560.00,0.4489
559.00,0.4510
558.00,0.4533
557.00,0.4554
556.00,0.4571
555.00,0.4584
554.00,0.4595
553.00,0.4605
552.00,0.4615
551.00,0.4624
550.00,0.4632
