Created as New Dataset,
cm-1,A
4000.00,0.4153
3999.00,0.4150
3998.00,0.4147
3997.00,0.4143
3996.00,0.4139
3995.00,0.4135
3994.00,0.4132
3993.00,0.4129
3992.00,0.4127
3991.00,0.4124
3990.00,0.4120
3989.00,0.4115
3988.00,0.4110
3987.00,0.4106
3986.00,0.4102
3985.00,0.4099
3984.00,0.4095
3983.00,0.4091
3982.00,0.4087
3981.00,0.4083
3980.00,0.4080
3979.00,0.4076
3978.00,0.4074
3977.00,0.4071
3976.00,0.4068
3975.00,0.4066
3974.00,0.4063
3973.00,0.4061
3972.00,0.4059
3971.00,0.4057
3970.00,0.4055
3969.00,0.4053
3968.00,0.4052
3967.00,0.4050
3966.00,0.4049
3965.00,0.4047
3964.00,0.4046
3963.00,0.4045
3962.00,0.4043
3961.00,0.4041
3960.00,0.4039
3959.00,0.4037
3958.00,0.4035
3957.00,0.4032
3956.00,0.4030
3955.00,0.4028
3954.00,0.4027
3953.00,0.4025
3952.00,0.4023
3951.00,0.4021
3950.00,0.4018
3949.00,0.4016
3948.00,0.4014
3947.00,0.4012
3946.00,0.4011
3945.00,0.4009
3944.00,0.4007
3943.00,0.4006
3942.00,0.4005
3941.00,0.4004
3940.00,0.4002
3939.00,0.4001
3938.00,0.4001
3937.00,0.4001
3936.00,0.4000
3935.00,0.4000
3934.00,0.3999
3933.00,0.3999
3932.00,0.4000
3931.00,0.4001
3930.00,0.4001
3929.00,0.4002
3928.00,0.4002
3927.00,0.4001
3926.00,0.4001
3925.00,0.4001
3924.00,0.4001
3923.00,0.4001
3922.00,0.4001
3921.00,0.4000
3920.00,0.4000
3919.00,0.4000
3918.00,0.4000
3917.00,0.3999
3916.00,0.3997
3915.00,0.3996
3914.00,0.3993
3913.00,0.3992
3912.00,0.3991
3911.00,0.3991
3910.00,0.3990
3909.00,0.3990
3908.00,0.3988
3907.00,0.3987
3906.00,0.3986
3905.00,0.3985
3904.00,0.3985
3903.00,0.3984
3902.00,0.3984
3901.00,0.3983
3900.00,0.3982
3899.00,0.3983
3898.00,0.3984
3897.00,0.3984
3896.00,0.3984
3895.00,0.3983
3894.00,0.3982
3893.00,0.3981
3892.00,0.3980
3891.00,0.3980
3890.00,0.3980
3889.00,0.3979
3888.00,0.3977
3887.00,0.3976
3886.00,0.3976
3885.00,0.3977
3884.00,0.3978
3883.00,0.3976
3882.00,0.3973
3881.00,0.3972
3880.00,0.3973
3879.00,0.3974
3878.00,0.3973
3877.00,0.3970
3876.00,0.3967
3875.00,0.3965
3874.00,0.3965
3873.00,0.3965
3872.00,0.3963
3871.00,0.3960
3870.00,0.3957
3869.00,0.3958
3868.00,0.3957
3867.00,0.3955
3866.00,0.3952
3865.00,0.3950
3864.00,0.3950
3863.00,0.3950
3862.00,0.3948
3861.00,0.3947
3860.00,0.3946
3859.00,0.3946
3858.00,0.3947
3857.00,0.3947
3856.00,0.3947
3855.00,0.3946
3854.00,0.3944
3853.00,0.3945
3852.00,0.3946
3851.00,0.3944
3850.00,0.3942
3849.00,0.3941
3848.00,0.3942
3847.00,0.3942
3846.00,0.3942
3845.00,0.3941
3844.00,0.3939
3843.00,0.3937
3842.00,0.3936
3841.00,0.3936
3840.00,0.3935
3839.00,0.3935
3838.00,0.3935
3837.00,0.3934
3836.00,0.3933
3835.00,0.3931
3834.00,0.3929
3833.00,0.3927
3832.00,0.3926
3831.00,0.3926
3830.00,0.3925
3829.00,0.3923
3828.00,0.3921
3827.00,0.3920
3826.00,0.3921
3825.00,0.3921
3824.00,0.3920
3823.00,0.3917
3822.00,0.3915
3821.00,0.3915
3820.00,0.3917
3819.00,0.3917
3818.00,0.3913
3817.00,0.3910
3816.00,0.3910
3815.00,0.3911
3814.00,0.3911
3813.00,0.3908
3812.00,0.3905
3811.00,0.3903
3810.00,0.3901
3809.00,0.3898
3808.00,0.3895
3807.00,0.3893
3806.00,0.3894
3805.00,0.3894
3804.00,0.3891
3803.00,0.3888
3802.00,0.3885
3801.00,0.3884
3800.00,0.3884
3799.00,0.3880
3798.00,0.3876
3797.00,0.3873
3796.00,0.3872
3795.00,0.3872
3794.00,0.3870
3793.00,0.3867
3792.00,0.3865
3791.00,0.3864
3790.00,0.3863
3789.00,0.3862
3788.00,0.3861
3787.00,0.3859
3786.00,0.3858
3785.00,0.3857
3784.00,0.3856
3783.00,0.3855
3782.00,0.3853
3781.00,0.3851
3780.00,0.3850
3779.00,0.3849
3778.00,0.3847
3777.00,0.3845
3776.00,0.3842
3775.00,0.3840
3774.00,0.3840
3773.00,0.3839
3772.00,0.3836
3771.00,0.3834
3770.00,0.3832
3769.00,0.3831
3768.00,0.3830
3767.00,0.3828
3766.00,0.3825
3765.00,0.3824
3764.00,0.3823
3763.00,0.3822
3762.00,0.3820
3761.00,0.3818
3760.00,0.3817
3759.00,0.3816
3758.00,0.3815
3757.00,0.3813
3756.00,0.3812
3755.00,0.3810
3754.00,0.3808
3753.00,0.3806
3752.00,0.3804
3751.00,0.3802
3750.00,0.3801
3749.00,0.3801
3748.00,0.3802
3747.00,0.3800
3746.00,0.3797
3745.00,0.3794
3744.00,0.3794
3743.00,0.3796
3742.00,0.3794
3741.00,0.3792
3740.00,0.3791
3739.00,0.3791
3738.00,0.3791
3737.00,0.3790
3736.00,0.3788
3735.00,0.3787
3734.00,0.3785
3733.00,0.3782
3732.00,0.3781
3731.00,0.3780
3730.00,0.3779
3729.00,0.3777
3728.00,0.3774
3727.00,0.3772
3726.00,0.3771
3725.00,0.3770
3724.00,0.3767
3723.00,0.3765
3722.00,0.3763
3721.00,0.3762
3720.00,0.3760
3719.00,0.3758
3718.00,0.3756
3717.00,0.3754
3716.00,0.3754
3715.00,0.3753
3714.00,0.3752
3713.00,0.3751
3712.00,0.3752
3711.00,0.3753
3710.00,0.3754
3709.00,0.3753
3708.00,0.3752
3707.00,0.3752
3706.00,0.3752
3705.00,0.3752
3704.00,0.3751
3703.00,0.3751
3702.00,0.3751
3701.00,0.3751
3700.00,0.3751
3699.00,0.3750
3698.00,0.3749
3697.00,0.3748
3696.00,0.3748
3695.00,0.3749
3694.00,0.3748
3693.00,0.3748
3692.00,0.3747
3691.00,0.3747
3690.00,0.3747
3689.00,0.3746
3688.00,0.3746
3687.00,0.3746
3686.00,0.3745
3685.00,0.3745
3684.00,0.3745
3683.00,0.3745
3682.00,0.3745
3681.00,0.3744
3680.00,0.3743
3679.00,0.3743
3678.00,0.3742
3677.00,0.3741
3676.00,0.3739
3675.00,0.3740
3674.00,0.3741
3673.00,0.3740
3672.00,0.3737
3671.00,0.3737
3670.00,0.3738
3669.00,0.3740
3668.00,0.3739
3667.00,0.3737
3666.00,0.3736
3665.00,0.3736
3664.00,0.3737
3663.00,0.3738
3662.00,0.3739
3661.00,0.3739
3660.00,0.3739
3659.00,0.3739
3658.00,0.3739
3657.00,0.3740
3656.00,0.3743
3655.00,0.3745
3654.00,0.3745
3653.00,0.3745
3652.00,0.3744
3651.00,0.3746
3650.00,0.3749
3649.00,0.3751
3648.00,0.3750
3647.00,0.3750
3646.00,0.3751
3645.00,0.3753
3644.00,0.3754
3643.00,0.3756
3642.00,0.3759
3641.00,0.3761
3640.00,0.3762
3639.00,0.3764
3638.00,0.3765
3637.00,0.3767
3636.00,0.3768
3635.00,0.3769
3634.00,0.3771
3633.00,0.3774
3632.00,0.3776
3631.00,0.3776
3630.00,0.3777
3629.00,0.3780
3628.00,0.3785
3627.00,0.3789
3626.00,0.3792
3625.00,0.3794
3624.00,0.3797
3623.00,0.3800
3622.00,0.3801
3621.00,0.3801
3620.00,0.3799
3619.00,0.3798
3618.00,0.3796
3617.00,0.3794
3616.00,0.3792
3615.00,0.3790
3614.00,0.3790
3613.00,0.3791
3612.00,0.3793
3611.00,0.3793
3610.00,0.3793
3609.00,0.3793
3608.00,0.3794
3607.00,0.3796
3606.00,0.3796
3605.00,0.3796
3604.00,0.3794
3603.00,0.3792
3602.00,0.3790
3601.00,0.3786
3600.00,0.3783
3599.00,0.3778
3598.00,0.3773
3597.00,0.3767
3596.00,0.3761
3595.00,0.3756
3594.00,0.3751
3593.00,0.3747
3592.00,0.3743
3591.00,0.3739
3590.00,0.3735
3589.00,0.3732
3588.00,0.3730
3587.00,0.3729
3586.00,0.3727
3585.00,0.3725
3584.00,0.3722
3583.00,0.3721
3582.00,0.3721
3581.00,0.3722
3580.00,0.3723
3579.00,0.3724
3578.00,0.3724
3577.00,0.3724
3576.00,0.3724
3575.00,0.3725
3574.00,0.3727
3573.00,0.3728
3572.00,0.3730
3571.00,0.3731
3570.00,0.3733
3569.00,0.3735
3568.00,0.3737
3567.00,0.3741
3566.00,0.3743
3565.00,0.3745
3564.00,0.3746
3563.00,0.3748
3562.00,0.3751
3561.00,0.3754
3560.00,0.3756
3559.00,0.3758
3558.00,0.3759
3557.00,0.3762
3556.00,0.3765
3555.00,0.3768
3554.00,0.3772
3553.00,0.3775
3552.00,0.3778
3551.00,0.3782
3550.00,0.3785
3549.00,0.3788
3548.00,0.3791
3547.00,0.3795
3546.00,0.3800
3545.00,0.3804
3544.00,0.3808
3543.00,0.3812
3542.00,0.3816
3541.00,0.3820
3540.00,0.3823
3539.00,0.3827
3538.00,0.3831
3537.00,0.3835
3536.00,0.3839
3535.00,0.3843
3534.00,0.3846
3533.00,0.3849
3532.00,0.3853
3531.00,0.3857
3530.00,0.3860
3529.00,0.3863
3528.00,0.3866
3527.00,0.3869
3526.00,0.3872
3525.00,0.3875
3524.00,0.3879
3523.00,0.3882
3522.00,0.3886
3521.00,0.3890
3520.00,0.3894
3519.00,0.3897
3518.00,0.3901
3517.00,0.3905
3516.00,0.3908
3515.00,0.3911
3514.00,0.3915
3513.00,0.3919
3512.00,0.3924
3511.00,0.3929
3510.00,0.3935
3509.00,0.3940
3508.00,0.3945
3507.00,0.3950
3506.00,0.3954
3505.00,0.3960
3504.00,0.3966
3503.00,0.3972
3502.00,0.3977
3501.00,0.3982
3500.00,0.3987
3499.00,0.3993
3498.00,0.4000
3497.00,0.4007
3496.00,0.4015
3495.00,0.4022
3494.00,0.4029
3493.00,0.4036
3492.00,0.4043
3491.00,0.4050
3490.00,0.4057
3489.00,0.4064
3488.00,0.4071
3487.00,0.4077
3486.00,0.4083
3485.00,0.4089
3484.00,0.4095
3483.00,0.4101
3482.00,0.4107
3481.00,0.4113
3480.00,0.4118
3479.00,0.4123
3478.00,0.4128
3477.00,0.4132
3476.00,0.4136
3475.00,0.4141
3474.00,0.4145
3473.00,0.4150
3472.00,0.4155
3471.00,0.4160
3470.00,0.4166
3469.00,0.4172
3468.00,0.4179
3467.00,0.4185
3466.00,0.4192
3465.00,0.4197
3464.00,0.4203
3463.00,0.4208
3462.00,0.4215
3461.00,0.4222
3460.00,0.4229
3459.00,0.4236
3458.00,0.4243
3457.00,0.4250
3456.00,0.4257
3455.00,0.4263
3454.00,0.4270
3453.00,0.4277
3452.00,0.4284
3451.00,0.4291
3450.00,0.4298
3449.00,0.4304
3448.00,0.4310
3447.00,0.4317
3446.00,0.4324
3445.00,0.4331
3444.00,0.4338
3443.00,0.4345
3442.00,0.4352
3441.00,0.4360
3440.00,0.4368
3439.00,0.4375
3438.00,0.4383
3437.00,0.4390
3436.00,0.4398
3435.00,0.4406
3434.00,0.4414
3433.00,0.4423
3432.00,0.4431
3431.00,0.4439
3430.00,0.4446
3429.00,0.4454
3428.00,0.4462
3427.00,0.4470
3426.00,0.4478
3425.00,0.4486
3424.00,0.4495
3423.00,0.4504
3422.00,0.4513
3421.00,0.4521
3420.00,0.4529
3419.00,0.4538
3418.00,0.4547
3417.00,0.4558
3416.00,0.4569
3415.00,0.4580
3414.00,0.4590
3413.00,0.4599
3412.00,0.4608
3411.00,0.4616
3410.00,0.4625
3409.00,0.4634
3408.00,0.4643
3407.00,0.4653
3406.00,0.4663
3405.00,0.4674
3404.00,0.4685
3403.00,0.4696
3402.00,0.4706
3401.00,0.4717
3400.00,0.4728
3399.00,0.4739
3398.00,0.4750
3397.00,0.4761
3396.00,0.4772
3395.00,0.4783
3394.00,0.4794
3393.00,0.4806
3392.00,0.4817
3391.00,0.4829
3390.00,0.4841
3389.00,0.4853
3388.00,0.4864
3387.00,0.4876
3386.00,0.4888
3385.00,0.4900
3384.00,0.4912
3383.00,0.4924
3382.00,0.4936
3381.00,0.4949
3380.00,0.4962
3379.00,0.4974
3378.00,0.4987
3377.00,0.4999
3376.00,0.5012
3375.00,0.5024
3374.00,0.5037
3373.00,0.5049
3372.00,0.5063
3371.00,0.5077
3370.00,0.5092
3369.00,0.5108
3368.00,0.5124
3367.00,0.5140
3366.00,0.5156
3365.00,0.5172
3364.00,0.5187
3363.00,0.5203
3362.00,0.5219
3361.00,0.5235
3360.00,0.5252
3359.00,0.5268
3358.00,0.5284
3357.00,0.5301
3356.00,0.5318
3355.00,0.5336
3354.00,0.5356
3353.00,0.5375
3352.00,0.5393
3351.00,0.5410
3350.00,0.5427
3349.00,0.5444
3348.00,0.5462
3347.00,0.5478
3346.00,0.5494
3345.00,0.5510
3344.00,0.5526
3343.00,0.5541
3342.00,0.5555
3341.00,0.5569
3340.00,0.5583
3339.00,0.5596
3338.00,0.5609
3337.00,0.5621
3336.00,0.5632
3335.00,0.5642
3334.00,0.5653
3333.00,0.5662
3332.00,0.5671
3331.00,0.5677
3330.00,0.5682
3329.00,0.5686
3328.00,0.5689
3327.00,0.5691
3326.00,0.5693
3325.00,0.5694
3324.00,0.5694
3323.00,0.5693
3322.00,0.5692
3321.00,0.5690
3320.00,0.5687
3319.00,0.5683
3318.00,0.5678
3317.00,0.5672
3316.00,0.5666
3315.00,0.5659
3314.00,0.5652
3313.00,0.5645
3312.00,0.5637
3311.00,0.5628
3310.00,0.5619
3309.00,0.5610
3308.00,0.5601
3307.00,0.5592
3306.00,0.5583
3305.00,0.5574
3304.00,0.5564
3303.00,0.5554
3302.00,0.5544
3301.00,0.5535
3300.00,0.5526
3299.00,0.5518
3298.00,0.5510
3297.00,0.5502
3296.00,0.5495
3295.00,0.5488
3294.00,0.5482
3293.00,0.5477
3292.00,0.5472
3291.00,0.5467
3290.00,0.5463
3289.00,0.5459
3288.00,0.5455
3287.00,0.5452
3286.00,0.5450
3285.00,0.5448
3284.00,0.5446
3283.00,0.5446
3282.00,0.5446
3281.00,0.5446
3280.00,0.5447
3279.00,0.5448
3278.00,0.5449
3277.00,0.5451
3276.00,0.5453
3275.00,0.5455
3274.00,0.5457
3273.00,0.5459
3272.00,0.5462
3271.00,0.5466
3270.00,0.5470
3269.00,0.5475
3268.00,0.5479
3267.00,0.5483
3266.00,0.5488
3265.00,0.5494
3264.00,0.5500
3263.00,0.5506
3262.00,0.5511
3261.00,0.5516
3260.00,0.5521
3259.00,0.5526
3258.00,0.5532
3257.00,0.5537
3256.00,0.5543
3255.00,0.5548
3254.00,0.5554
3253.00,0.5561
3252.00,0.5566
3251.00,0.5572
3250.00,0.5577
3249.00,0.5582
3248.00,0.5586
3247.00,0.5590
3246.00,0.5594
3245.00,0.5599
3244.00,0.5603
3243.00,0.5607
3242.00,0.5611
3241.00,0.5614
3240.00,0.5617
3239.00,0.5619
3238.00,0.5621
3237.00,0.5622
3236.00,0.5624
3235.00,0.5625
3234.00,0.5626
3233.00,0.5626
3232.00,0.5626
3231.00,0.5626
3230.00,0.5624
3229.00,0.5623
3228.00,0.5622
3227.00,0.5620
3226.00,0.5619
3225.00,0.5618
3224.00,0.5616
3223.00,0.5613
3222.00,0.5610
3221.00,0.5607
3220.00,0.5604
3219.00,0.5601
3218.00,0.5599
3217.00,0.5597
3216.00,0.5594
3215.00,0.5591
3214.00,0.5588
3213.00,0.5585
3212.00,0.5581
3211.00,0.5577
3210.00,0.5573
3209.00,0.5569
3208.00,0.5565
3207.00,0.5562
3206.00,0.5559
3205.00,0.5555
3204.00,0.5552
3203.00,0.5548
3202.00,0.5544
3201.00,0.5539
3200.00,0.5534
3199.00,0.5529
3198.00,0.5524
3197.00,0.5519
3196.00,0.5514
3195.00,0.5509
3194.00,0.5504
3193.00,0.5498
3192.00,0.5492
3191.00,0.5486
3190.00,0.5480
3189.00,0.5474
3188.00,0.5467
3187.00,0.5461
3186.00,0.5454
3185.00,0.5448
3184.00,0.5440
3183.00,0.5432
3182.00,0.5424
3181.00,0.5416
3180.00,0.5410
3179.00,0.5404
3178.00,0.5396
3177.00,0.5388
3176.00,0.5379
3175.00,0.5370
3174.00,0.5362
3173.00,0.5355
3172.00,0.5347
3171.00,0.5340
3170.00,0.5332
3169.00,0.5323
3168.00,0.5315
3167.00,0.5306
3166.00,0.5298
3165.00,0.5288
3164.00,0.5279
3163.00,0.5270
3162.00,0.5261
3161.00,0.5253
3160.00,0.5244
3159.00,0.5235
3158.00,0.5227
3157.00,0.5218
3156.00,0.5208
3155.00,0.5199
3154.00,0.5190
3153.00,0.5182
3152.00,0.5174
3151.00,0.5166
3150.00,0.5159
3149.00,0.5152
3148.00,0.5144
3147.00,0.5136
3146.00,0.5129
3145.00,0.5122
3144.00,0.5115
3143.00,0.5109
3142.00,0.5104
3141.00,0.5098
3140.00,0.5092
3139.00,0.5086
3138.00,0.5081
3137.00,0.5078
3136.00,0.5074
3135.00,0.5071
3134.00,0.5068
3133.00,0.5064
3132.00,0.5061
3131.00,0.5057
3130.00,0.5054
3129.00,0.5052
3128.00,0.5050
3127.00,0.5048
3126.00,0.5046
3125.00,0.5046
3124.00,0.5046
3123.00,0.5047
3122.00,0.5048
3121.00,0.5048
3120.00,0.5049
3119.00,0.5049
3118.00,0.5051
3117.00,0.5053
3116.00,0.5056
3115.00,0.5059
3114.00,0.5062
3113.00,0.5066
3112.00,0.5071
3111.00,0.5077
3110.00,0.5084
3109.00,0.5093
3108.00,0.5101
3107.00,0.5108
3106.00,0.5116
3105.00,0.5124
3104.00,0.5132
3103.00,0.5140
3102.00,0.5149
3101.00,0.5158
3100.00,0.5166
3099.00,0.5175
3098.00,0.5184
3097.00,0.5194
3096.00,0.5205
3095.00,0.5218
3094.00,0.5232
3093.00,0.5248
3092.00,0.5265
3091.00,0.5284
3090.00,0.5304
3089.00,0.5327
3088.00,0.5351
3087.00,0.5377
3086.00,0.5403
3085.00,0.5431
3084.00,0.5460
3083.00,0.5490
3082.00,0.5520
3081.00,0.5553
3080.00,0.5587
3079.00,0.5624
3078.00,0.5663
3077.00,0.5704
3076.00,0.5746
3075.00,0.5790
3074.00,0.5834
3073.00,0.5879
3072.00,0.5923
3071.00,0.5967
3070.00,0.6010
3069.00,0.6053
3068.00,0.6096
3067.00,0.6139
3066.00,0.6180
3065.00,0.6221
3064.00,0.6259
3063.00,0.6295
3062.00,0.6328
3061.00,0.6357
3060.00,0.6385
3059.00,0.6411
3058.00,0.6437
3057.00,0.6464
3056.00,0.6492
3055.00,0.6522
3054.00,0.6553
3053.00,0.6586
3052.00,0.6622
3051.00,0.6660
3050.00,0.6701
3049.00,0.6744
3048.00,0.6790
3047.00,0.6836
3046.00,0.6881
3045.00,0.6927
3044.00,0.6972
3043.00,0.7017
3042.00,0.7063
3041.00,0.7109
3040.00,0.7155
3039.00,0.7201
3038.00,0.7249
3037.00,0.7299
3036.00,0.7353
3035.00,0.7410
3034.00,0.7473
3033.00,0.7541
3032.00,0.7615
3031.00,0.7693
3030.00,0.7775
3029.00,0.7861
3028.00,0.7950
3027.00,0.8042
3026.00,0.8138
3025.00,0.8238
3024.00,0.8342
3023.00,0.8449
3022.00,0.8559
3021.00,0.8672
3020.00,0.8788
3019.00,0.8907
3018.00,0.9027
3017.00,0.9146
3016.00,0.9265
3015.00,0.9384
3014.00,0.9505
3013.00,0.9628
3012.00,0.9755
3011.00,0.9887
3010.00,1.0026
3009.00,1.0171
3008.00,1.0322
3007.00,1.0479
3006.00,1.0641
3005.00,1.0809
3004.00,1.0983
3003.00,1.1161
3002.00,1.1344
3001.00,1.1534
3000.00,1.1732
2999.00,1.1943
2998.00,1.2169
2997.00,1.2415
2996.00,1.2683
2995.00,1.2980
2994.00,1.3314
2993.00,1.3687
2992.00,1.4103
2991.00,1.4566
2990.00,1.5082
2989.00,1.5659
2988.00,1.6305
2987.00,1.7025
2986.00,1.7821
2985.00,1.8698
2984.00,1.9666
2983.00,2.0743
2982.00,2.1946
2981.00,2.3283
2980.00,2.4751
2979.00,2.6338
2978.00,2.8029
2977.00,2.9807
2976.00,3.1707
2975.00,3.3858
2974.00,3.6370
2973.00,3.8908
2972.00,4.0338
2971.00,4.0447
2970.00,4.0087
2969.00,3.9633
2968.00,3.9468
2967.00,3.9641
2966.00,4.0028
2965.00,4.0434
2964.00,4.1852
2963.00,4.5084
2962.00,4.5159
2961.00,4.2987
2960.00,4.1224
2959.00,4.0893
2958.00,4.1235
2957.00,4.2372
2956.00,4.4143
2955.00,4.5878
2954.00,4.6081
2953.00,4.3296
2952.00,4.0946
2951.00,3.9902
2950.00,4.0139
2949.00,4.0171
2948.00,3.9809
2947.00,4.0038
2946.00,4.1132
2945.00,4.2264
2944.00,4.1082
2943.00,3.8757
2942.00,3.7186
2941.00,3.6527
2940.00,3.6643
2939.00,3.7571
2938.00,3.9383
2937.00,4.1020
2936.00,4.2557
2935.00,4.4829
2934.00,4.3744
2933.00,4.1000
2932.00,3.9025
2931.00,3.8856
2930.00,3.9032
2929.00,3.8964
2928.00,3.9498
2927.00,4.0857
2926.00,4.3295
2925.00,4.3859
2924.00,4.1451
2923.00,4.0090
2922.00,4.0283
2921.00,4.1591
2920.00,4.2553
2919.00,4.2656
2918.00,4.2628
2917.00,4.2474
2916.00,4.2027
2915.00,4.1212
2914.00,4.0589
2913.00,4.0749
2912.00,4.2048
2911.00,4.3622
2910.00,4.2821
2909.00,4.1095
2908.00,4.0544
2907.00,4.2068
2906.00,4.5335
2905.00,4.6582
2904.00,4.7268
2903.00,4.8385
2902.00,4.5375
2901.00,4.0720
2900.00,3.8147
2899.00,3.7094
2898.00,3.6799
2897.00,3.7081
2896.00,3.7736
2895.00,3.8837
2894.00,4.0552
2893.00,4.2587
2892.00,4.5666
2891.00,4.6237
2890.00,4.2606
2889.00,4.0480
2888.00,4.0257
2887.00,4.1827
2886.00,4.4765
2885.00,4.7423
2884.00,4.4069
2883.00,4.0935
2882.00,4.0090
2881.00,4.1407
2880.00,4.2986
2879.00,4.2594
2878.00,4.1363
2877.00,4.0424
2876.00,3.9815
2875.00,3.9612
2874.00,4.0515
2873.00,4.1279
2872.00,4.0808
2871.00,4.0031
2870.00,4.0756
2869.00,4.3891
2868.00,4.4212
2867.00,4.2057
2866.00,4.0531
2865.00,4.0228
2864.00,3.9594
2863.00,3.8842
2862.00,3.9273
2861.00,4.1398
2860.00,4.3356
2859.00,4.0276
2858.00,3.7676
2857.00,3.7118
2856.00,3.8636
2855.00,4.0805
2854.00,4.0972
2853.00,4.0202
2852.00,3.9767
2851.00,4.0921
2850.00,4.3038
2849.00,4.3075
2848.00,4.1521
2847.00,4.0757
2846.00,4.2230
2845.00,4.2134
2844.00,3.9941
2843.00,3.8647
2842.00,3.8255
2841.00,3.7735
2840.00,3.6415
2839.00,3.4841
2838.00,3.3302
2837.00,3.1736
2836.00,3.0016
2835.00,2.8200
2834.00,2.6395
2833.00,2.4689
2832.00,2.3149
2831.00,2.1790
2830.00,2.0589
2829.00,1.9516
2828.00,1.8554
2827.00,1.7694
2826.00,1.6922
2825.00,1.6220
2824.00,1.5577
2823.00,1.4990
2822.00,1.4452
2821.00,1.3960
2820.00,1.3508
2819.00,1.3094
2818.00,1.2712
2817.00,1.2359
2816.00,1.2029
2815.00,1.1720
2814.00,1.1431
2813.00,1.1159
2812.00,1.0901
2811.00,1.0657
2810.00,1.0425
2809.00,1.0203
2808.00,0.9993
2807.00,0.9796
2806.00,0.9609
2805.00,0.9432
2804.00,0.9262
2803.00,0.9102
2802.00,0.8950
2801.00,0.8806
2800.00,0.8668
2799.00,0.8536
2798.00,0.8409
2797.00,0.8287
2796.00,0.8169
2795.00,0.8056
2794.00,0.7947
2793.00,0.7842
2792.00,0.7739
2791.00,0.7638
2790.00,0.7539
2789.00,0.7443
2788.00,0.7350
2787.00,0.7260
2786.00,0.7172
2785.00,0.7086
2784.00,0.7002
2783.00,0.6920
2782.00,0.6839
2781.00,0.6761
2780.00,0.6687
2779.00,0.6617
2778.00,0.6552
2777.00,0.6489
2776.00,0.6429
2775.00,0.6372
2774.00,0.6318
2773.00,0.6267
2772.00,0.6220
2771.00,0.6177
2770.00,0.6137
2769.00,0.6101
2768.00,0.6069
2767.00,0.6040
2766.00,0.6015
2765.00,0.5993
2764.00,0.5973
2763.00,0.5957
2762.00,0.5942
2761.00,0.5930
2760.00,0.5918
2759.00,0.5906
2758.00,0.5893
2757.00,0.5880
2756.00,0.5868
2755.00,0.5857
2754.00,0.5849
2753.00,0.5842
2752.00,0.5837
2751.00,0.5834
2750.00,0.5832
2749.00,0.5832
2748.00,0.5834
2747.00,0.5838
2746.00,0.5845
2745.00,0.5855
2744.00,0.5868
2743.00,0.5883
2742.00,0.5902
2741.00,0.5925
2740.00,0.5953
2739.00,0.5985
2738.00,0.6023
2737.00,0.6067
2736.00,0.6115
2735.00,0.6168
2734.00,0.6222
2733.00,0.6275
2732.00,0.6323
2731.00,0.6362
2730.00,0.6393
2729.00,0.6412
2728.00,0.6420
2727.00,0.6418
2726.00,0.6409
2725.00,0.6394
2724.00,0.6374
2723.00,0.6350
2722.00,0.6322
2721.00,0.6292
2720.00,0.6258
2719.00,0.6222
2718.00,0.6181
2717.00,0.6139
2716.00,0.6094
2715.00,0.6048
2714.00,0.6003
2713.00,0.5959
2712.00,0.5918
2711.00,0.5880
2710.00,0.5846
2709.00,0.5816
2708.00,0.5790
2707.00,0.5769
2706.00,0.5751
2705.00,0.5736
2704.00,0.5725
2703.00,0.5717
2702.00,0.5711
2701.00,0.5708
2700.00,0.5706
2699.00,0.5706
2698.00,0.5708
2697.00,0.5712
2696.00,0.5717
2695.00,0.5722
2694.00,0.5729
2693.00,0.5737
2692.00,0.5744
2691.00,0.5752
2690.00,0.5759
2689.00,0.5767
2688.00,0.5775
2687.00,0.5781
2686.00,0.5787
2685.00,0.5792
2684.00,0.5797
2683.00,0.5801
2682.00,0.5805
2681.00,0.5809
2680.00,0.5811
2679.00,0.5813
2678.00,0.5816
2677.00,0.5820
2676.00,0.5825
2675.00,0.5831
2674.00,0.5836
2673.00,0.5840
2672.00,0.5843
2671.00,0.5844
2670.00,0.5842
2669.00,0.5837
2668.00,0.5829
2667.00,0.5818
2666.00,0.5805
2665.00,0.5790
2664.00,0.5773
2663.00,0.5754
2662.00,0.5735
2661.00,0.5715
2660.00,0.5695
2659.00,0.5674
2658.00,0.5654
2657.00,0.5634
2656.00,0.5613
2655.00,0.5591
2654.00,0.5570
2653.00,0.5550
2652.00,0.5532
2651.00,0.5514
2650.00,0.5498
2649.00,0.5483
2648.00,0.5469
2647.00,0.5455
2646.00,0.5442
2645.00,0.5430
2644.00,0.5419
2643.00,0.5409
2642.00,0.5399
2641.00,0.5390
2640.00,0.5381
2639.00,0.5373
2638.00,0.5364
2637.00,0.5356
2636.00,0.5348
2635.00,0.5341
2634.00,0.5333
2633.00,0.5326
2632.00,0.5318
2631.00,0.5310
2630.00,0.5301
2629.00,0.5292
2628.00,0.5283
2627.00,0.5274
2626.00,0.5265
2625.00,0.5256
2624.00,0.5247
2623.00,0.5237
2622.00,0.5227
2621.00,0.5216
2620.00,0.5206
2619.00,0.5196
2618.00,0.5187
2617.00,0.5177
2616.00,0.5168
2615.00,0.5158
2614.00,0.5149
2613.00,0.5140
2612.00,0.5130
2611.00,0.5120
2610.00,0.5110
2609.00,0.5101
2608.00,0.5091
2607.00,0.5082
2606.00,0.5074
2605.00,0.5066
2604.00,0.5058
2603.00,0.5049
2602.00,0.5039
2601.00,0.5029
2600.00,0.5019
2599.00,0.5008
2598.00,0.4996
2597.00,0.4982
2596.00,0.4967
2595.00,0.4952
2594.00,0.4937
2593.00,0.4921
2592.00,0.4906
2591.00,0.4890
2590.00,0.4873
2589.00,0.4857
2588.00,0.4840
2587.00,0.4822
2586.00,0.4804
2585.00,0.4787
2584.00,0.4770
2583.00,0.4753
2582.00,0.4735
2581.00,0.4716
2580.00,0.4698
2579.00,0.4679
2578.00,0.4661
2577.00,0.4645
2576.00,0.4629
2575.00,0.4613
2574.00,0.4598
2573.00,0.4584
2572.00,0.4569
2571.00,0.4555
2570.00,0.4542
2569.00,0.4529
2568.00,0.4516
2567.00,0.4503
2566.00,0.4489
2565.00,0.4476
2564.00,0.4462
2563.00,0.4449
2562.00,0.4436
2561.00,0.4424
2560.00,0.4411
2559.00,0.4399
2558.00,0.4386
2557.00,0.4373
2556.00,0.4361
2555.00,0.4349
2554.00,0.4337
2553.00,0.4326
2552.00,0.4314
2551.00,0.4302
2550.00,0.4290
2549.00,0.4278
2548.00,0.4268
2547.00,0.4257
2546.00,0.4247
2545.00,0.4238
2544.00,0.4229
2543.00,0.4221
2542.00,0.4213
2541.00,0.4206
2540.00,0.4200
2539.00,0.4193
2538.00,0.4186
2537.00,0.4180
2536.00,0.4174
2535.00,0.4168
2534.00,0.4163
2533.00,0.4157
2532.00,0.4151
2531.00,0.4144
2530.00,0.4137
2529.00,0.4130
2528.00,0.4122
2527.00,0.4114
2526.00,0.4106
2525.00,0.4096
2524.00,0.4086
2523.00,0.4076
2522.00,0.4065
2521.00,0.4055
2520.00,0.4045
2519.00,0.4036
2518.00,0.4026
2517.00,0.4016
2516.00,0.4007
2515.00,0.3998
2514.00,0.3989
2513.00,0.3980
2512.00,0.3972
2511.00,0.3964
2510.00,0.3956
2509.00,0.3949
2508.00,0.3942
2507.00,0.3936
2506.00,0.3930
2505.00,0.3925
2504.00,0.3920
2503.00,0.3915
2502.00,0.3911
2501.00,0.3907
2500.00,0.3904
2499.00,0.3901
2498.00,0.3898
2497.00,0.3895
2496.00,0.3892
2495.00,0.3889
2494.00,0.3886
2493.00,0.3883
2492.00,0.3879
2491.00,0.3875
2490.00,0.3871
2489.00,0.3867
2488.00,0.3863
2487.00,0.3859
2486.00,0.3854
2485.00,0.3850
2484.00,0.3846
2483.00,0.3842
2482.00,0.3837
2481.00,0.3832
2480.00,0.3827
2479.00,0.3822
2478.00,0.3818
2477.00,0.3813
2476.00,0.3810
2475.00,0.3805
2474.00,0.3801
2473.00,0.3798
2472.00,0.3795
2471.00,0.3792
2470.00,0.3790
2469.00,0.3788
2468.00,0.3786
2467.00,0.3784
2466.00,0.3781
2465.00,0.3779
2464.00,0.3777
2463.00,0.3775
2462.00,0.3774
2461.00,0.3772
2460.00,0.3770
2459.00,0.3768
2458.00,0.3767
2457.00,0.3766
2456.00,0.3765
2455.00,0.3764
2454.00,0.3762
2453.00,0.3761
2452.00,0.3760
2451.00,0.3759
2450.00,0.3758
2449.00,0.3757
2448.00,0.3755
2447.00,0.3754
2446.00,0.3753
2445.00,0.3752
2444.00,0.3752
2443.00,0.3751
2442.00,0.3750
2441.00,0.3750
2440.00,0.3749
2439.00,0.3749
2438.00,0.3749
2437.00,0.3749
2436.00,0.3749
2435.00,0.3749
2434.00,0.3749
2433.00,0.3749
2432.00,0.3750
2431.00,0.3751
2430.00,0.3752
2429.00,0.3753
2428.00,0.3754
2427.00,0.3755
2426.00,0.3756
2425.00,0.3757
2424.00,0.3759
2423.00,0.3760
2422.00,0.3761
2421.00,0.3762
2420.00,0.3763
2419.00,0.3764
2418.00,0.3765
2417.00,0.3765
2416.00,0.3765
2415.00,0.3765
2414.00,0.3765
2413.00,0.3766
2412.00,0.3766
2411.00,0.3766
2410.00,0.3766
2409.00,0.3765
2408.00,0.3764
2407.00,0.3763
2406.00,0.3762
2405.00,0.3761
2404.00,0.3760
2403.00,0.3758
2402.00,0.3756
2401.00,0.3755
2400.00,0.3753
2399.00,0.3751
2398.00,0.3750
2397.00,0.3748
2396.00,0.3747
2395.00,0.3746
2394.00,0.3745
2393.00,0.3744
2392.00,0.3743
2391.00,0.3741
2390.00,0.3740
2389.00,0.3739
2388.00,0.3739
2387.00,0.3740
2386.00,0.3740
2385.00,0.3740
2384.00,0.3740
2383.00,0.3740
2382.00,0.3740
2381.00,0.3741
2380.00,0.3741
2379.00,0.3742
2378.00,0.3742
2377.00,0.3742
2376.00,0.3742
2375.00,0.3740
2374.00,0.3739
2373.00,0.3737
2372.00,0.3736
2371.00,0.3735
2370.00,0.3734
2369.00,0.3735
2368.00,0.3735
2367.00,0.3736
2366.00,0.3736
2365.00,0.3735
2364.00,0.3735
2363.00,0.3735
2362.00,0.3735
2361.00,0.3735
2360.00,0.3735
2359.00,0.3734
2358.00,0.3732
2357.00,0.3730
2356.00,0.3730
2355.00,0.3729
2354.00,0.3728
2353.00,0.3727
2352.00,0.3726
2351.00,0.3725
2350.00,0.3724
2349.00,0.3723
2348.00,0.3722
2347.00,0.3721
2346.00,0.3720
2345.00,0.3719
2344.00,0.3718
2343.00,0.3717
2342.00,0.3716
2341.00,0.3715
2340.00,0.3714
2339.00,0.3713
2338.00,0.3712
2337.00,0.3711
2336.00,0.3711
2335.00,0.3709
2334.00,0.3707
2333.00,0.3705
2332.00,0.3703
2331.00,0.3701
2330.00,0.3699
2329.00,0.3696
2328.00,0.3693
2327.00,0.3690
2326.00,0.3687
2325.00,0.3684
2324.00,0.3683
2323.00,0.3682
2322.00,0.3680
2321.00,0.3677
2320.00,0.3674
2319.00,0.3671
2318.00,0.3668
2317.00,0.3665
2316.00,0.3662
2315.00,0.3659
2314.00,0.3657
2313.00,0.3655
2312.00,0.3652
2311.00,0.3649
2310.00,0.3645
2309.00,0.3641
2308.00,0.3638
2307.00,0.3634
2306.00,0.3631
2305.00,0.3628
2304.00,0.3625
2303.00,0.3622
2302.00,0.3620
2301.00,0.3617
2300.00,0.3615
2299.00,0.3612
2298.00,0.3610
2297.00,0.3607
2296.00,0.3605
2295.00,0.3602
2294.00,0.3599
2293.00,0.3597
2292.00,0.3594
2291.00,0.3591
2290.00,0.3588
2289.00,0.3585
2288.00,0.3582
2287.00,0.3579
2286.00,0.3576
2285.00,0.3573
2284.00,0.3570
2283.00,0.3566
2282.00,0.3562
2281.00,0.3559
2280.00,0.3556
2279.00,0.3553
2278.00,0.3549
2277.00,0.3546
2276.00,0.3543
2275.00,0.3540
2274.00,0.3537
2273.00,0.3535
2272.00,0.3533
2271.00,0.3531
2270.00,0.3529
2269.00,0.3527
2268.00,0.3525
2267.00,0.3523
2266.00,0.3521
2265.00,0.3519
2264.00,0.3517
2263.00,0.3516
2262.00,0.3514
2261.00,0.3513
2260.00,0.3511
2259.00,0.3509
2258.00,0.3506
2257.00,0.3504
2256.00,0.3502
2255.00,0.3500
2254.00,0.3497
2253.00,0.3495
2252.00,0.3493
2251.00,0.3491
2250.00,0.3488
2249.00,0.3486
2248.00,0.3483
2247.00,0.3480
2246.00,0.3477
2245.00,0.3474
2244.00,0.3472
2243.00,0.3469
2242.00,0.3467
2241.00,0.3465
2240.00,0.3463
2239.00,0.3461
2238.00,0.3459
2237.00,0.3457
2236.00,0.3455
2235.00,0.3454
2234.00,0.3452
2233.00,0.3451
2232.00,0.3450
2231.00,0.3448
2230.00,0.3447
2229.00,0.3447
2228.00,0.3447
2227.00,0.3447
2226.00,0.3447
2225.00,0.3446
2224.00,0.3446
2223.00,0.3446
2222.00,0.3445
2221.00,0.3444
2220.00,0.3443
2219.00,0.3442
2218.00,0.3442
2217.00,0.3441
2216.00,0.3441
2215.00,0.3441
2214.00,0.3441
2213.00,0.3440
2212.00,0.3439
2211.00,0.3438
2210.00,0.3436
2209.00,0.3435
2208.00,0.3434
2207.00,0.3432
2206.00,0.3432
2205.00,0.3431
2204.00,0.3431
2203.00,0.3431
2202.00,0.3430
2201.00,0.3429
2200.00,0.3428
2199.00,0.3427
2198.00,0.3426
2197.00,0.3426
2196.00,0.3426
2195.00,0.3426
2194.00,0.3426
2193.00,0.3426
2192.00,0.3427
2191.00,0.3428
2190.00,0.3429
2189.00,0.3430
2188.00,0.3430
2187.00,0.3430
2186.00,0.3430
2185.00,0.3430
2184.00,0.3431
2183.00,0.3431
2182.00,0.3431
2181.00,0.3430
2180.00,0.3430
2179.00,0.3428
2178.00,0.3427
2177.00,0.3426
2176.00,0.3424
2175.00,0.3422
2174.00,0.3420
2173.00,0.3419
2172.00,0.3418
2171.00,0.3417
2170.00,0.3415
2169.00,0.3413
2168.00,0.3411
2167.00,0.3409
2166.00,0.3407
2165.00,0.3404
2164.00,0.3403
2163.00,0.3401
2162.00,0.3399
2161.00,0.3398
2160.00,0.3396
2159.00,0.3394
2158.00,0.3392
2157.00,0.3391
2156.00,0.3390
2155.00,0.3388
2154.00,0.3387
2153.00,0.3385
2152.00,0.3385
2151.00,0.3383
2150.00,0.3382
2149.00,0.3380
2148.00,0.3378
2147.00,0.3376
2146.00,0.3373
2145.00,0.3369
2144.00,0.3365
2143.00,0.3361
2142.00,0.3357
2141.00,0.3354
2140.00,0.3351
2139.00,0.3348
2138.00,0.3344
2137.00,0.3340
2136.00,0.3336
2135.00,0.3334
2134.00,0.3331
2133.00,0.3328
2132.00,0.3326
2131.00,0.3323
2130.00,0.3321
2129.00,0.3320
2128.00,0.3318
2127.00,0.3316
2126.00,0.3314
2125.00,0.3312
2124.00,0.3310
2123.00,0.3308
2122.00,0.3306
2121.00,0.3305
2120.00,0.3304
2119.00,0.3303
2118.00,0.3302
2117.00,0.3301
2116.00,0.3300
2115.00,0.3300
2114.00,0.3299
2113.00,0.3299
2112.00,0.3299
2111.00,0.3298
2110.00,0.3298
2109.00,0.3297
2108.00,0.3297
2107.00,0.3296
2106.00,0.3296
2105.00,0.3295
2104.00,0.3295
2103.00,0.3294
2102.00,0.3294
2101.00,0.3293
2100.00,0.3293
2099.00,0.3292
2098.00,0.3291
2097.00,0.3290
2096.00,0.3289
2095.00,0.3288
2094.00,0.3287
2093.00,0.3286
2092.00,0.3286
2091.00,0.3286
2090.00,0.3285
2089.00,0.3285
2088.00,0.3285
2087.00,0.3284
2086.00,0.3283
2085.00,0.3283
2084.00,0.3282
2083.00,0.3282
2082.00,0.3282
2081.00,0.3282
2080.00,0.3282
2079.00,0.3282
2078.00,0.3282
2077.00,0.3283
2076.00,0.3283
2075.00,0.3284
2074.00,0.3284
2073.00,0.3285
2072.00,0.3286
2071.00,0.3286
2070.00,0.3286
2069.00,0.3287
2068.00,0.3288
2067.00,0.3289
2066.00,0.3290
2065.00,0.3292
2064.00,0.3293
2063.00,0.3295
2062.00,0.3296
2061.00,0.3297
2060.00,0.3298
2059.00,0.3298
2058.00,0.3299
2057.00,0.3299
2056.00,0.3300
2055.00,0.3301
2054.00,0.3303
2053.00,0.3304
2052.00,0.3306
2051.00,0.3307
2050.00,0.3309
2049.00,0.3311
2048.00,0.3312
2047.00,0.3314
2046.00,0.3315
2045.00,0.3316
2044.00,0.3317
2043.00,0.3318
2042.00,0.3318
2041.00,0.3320
2040.00,0.3321
2039.00,0.3322
2038.00,0.3324
2037.00,0.3324
2036.00,0.3325
2035.00,0.3326
2034.00,0.3326
2033.00,0.3326
2032.00,0.3327
2031.00,0.3327
2030.00,0.3327
2029.00,0.3327
2028.00,0.3326
2027.00,0.3325
2026.00,0.3324
2025.00,0.3323
2024.00,0.3322
2023.00,0.3320
2022.00,0.3318
2021.00,0.3315
2020.00,0.3311
2019.00,0.3306
2018.00,0.3301
2017.00,0.3296
2016.00,0.3291
2015.00,0.3285
2014.00,0.3279
2013.00,0.3273
2012.00,0.3268
2011.00,0.3263
2010.00,0.3258
2009.00,0.3254
2008.00,0.3250
2007.00,0.3247
2006.00,0.3244
2005.00,0.3242
2004.00,0.3240
2003.00,0.3237
2002.00,0.3235
2001.00,0.3234
2000.00,0.3232
1999.00,0.3230
1998.00,0.3228
1997.00,0.3227
1996.00,0.3226
1995.00,0.3224
1994.00,0.3223
1993.00,0.3222
1992.00,0.3221
1991.00,0.3221
1990.00,0.3220
1989.00,0.3221
1988.00,0.3221
1987.00,0.3221
1986.00,0.3221
1985.00,0.3221
1984.00,0.3221
1983.00,0.3221
1982.00,0.3220
1981.00,0.3219
1980.00,0.3219
1979.00,0.3219
1978.00,0.3218
1977.00,0.3218
1976.00,0.3218
1975.00,0.3218
1974.00,0.3218
1973.00,0.3218
1972.00,0.3218
1971.00,0.3217
1970.00,0.3217
1969.00,0.3217
1968.00,0.3217
1967.00,0.3217
1966.00,0.3217
1965.00,0.3216
1964.00,0.3217
1963.00,0.3217
1962.00,0.3217
1961.00,0.3218
1960.00,0.3219
1959.00,0.3219
1958.00,0.3220
1957.00,0.3221
1956.00,0.3222
1955.00,0.3224
1954.00,0.3225
1953.00,0.3227
1952.00,0.3229
1951.00,0.3230
1950.00,0.3231
1949.00,0.3232
1948.00,0.3234
1947.00,0.3236
1946.00,0.3238
1945.00,0.3240
1944.00,0.3243
1943.00,0.3248
1942.00,0.3253
1941.00,0.3260
1940.00,0.3266
1939.00,0.3271
1938.00,0.3273
1937.00,0.3274
1936.00,0.3273
1935.00,0.3272
1934.00,0.3270
1933.00,0.3269
1932.00,0.3268
1931.00,0.3268
1930.00,0.3267
1929.00,0.3267
1928.00,0.3267
1927.00,0.3267
1926.00,0.3267
1925.00,0.3268
1924.00,0.3269
1923.00,0.3272
1922.00,0.3275
1921.00,0.3279
1920.00,0.3283
1919.00,0.3287
1918.00,0.3290
1917.00,0.3294
1916.00,0.3297
1915.00,0.3300
1914.00,0.3301
1913.00,0.3302
1912.00,0.3302
1911.00,0.3302
1910.00,0.3303
1909.00,0.3305
1908.00,0.3307
1907.00,0.3309
1906.00,0.3310
1905.00,0.3311
1904.00,0.3312
1903.00,0.3312
1902.00,0.3312
1901.00,0.3313
1900.00,0.3314
1899.00,0.3315
1898.00,0.3315
1897.00,0.3316
1896.00,0.3317
1895.00,0.3319
1894.00,0.3320
1893.00,0.3320
1892.00,0.3321
1891.00,0.3321
1890.00,0.3321
1889.00,0.3322
1888.00,0.3323
1887.00,0.3323
1886.00,0.3323
1885.00,0.3324
1884.00,0.3324
1883.00,0.3324
1882.00,0.3323
1881.00,0.3323
1880.00,0.3323
1879.00,0.3323
1878.00,0.3321
1877.00,0.3320
1876.00,0.3319
1875.00,0.3317
1874.00,0.3315
1873.00,0.3314
1872.00,0.3312
1871.00,0.3309
1870.00,0.3306
1869.00,0.3305
1868.00,0.3305
1867.00,0.3305
1866.00,0.3305
1865.00,0.3305
1864.00,0.3304
1863.00,0.3303
1862.00,0.3300
1861.00,0.3298
1860.00,0.3295
1859.00,0.3292
1858.00,0.3288
1857.00,0.3286
1856.00,0.3284
1855.00,0.3281
1854.00,0.3279
1853.00,0.3277
1852.00,0.3275
1851.00,0.3273
1850.00,0.3270
1849.00,0.3269
1848.00,0.3267
1847.00,0.3265
1846.00,0.3262
1845.00,0.3260
1844.00,0.3260
1843.00,0.3260
1842.00,0.3259
1841.00,0.3259
1840.00,0.3258
1839.00,0.3257
1838.00,0.3256
1837.00,0.3256
1836.00,0.3256
1835.00,0.3256
1834.00,0.3255
1833.00,0.3254
1832.00,0.3254
1831.00,0.3253
1830.00,0.3253
1829.00,0.3254
1828.00,0.3254
1827.00,0.3253
1826.00,0.3253
1825.00,0.3253
1824.00,0.3254
1823.00,0.3256
1822.00,0.3256
1821.00,0.3256
1820.00,0.3257
1819.00,0.3257
1818.00,0.3257
1817.00,0.3258
1816.00,0.3259
1815.00,0.3259
1814.00,0.3259
1813.00,0.3258
1812.00,0.3259
1811.00,0.3260
1810.00,0.3261
1809.00,0.3264
1808.00,0.3267
1807.00,0.3270
1806.00,0.3272
1805.00,0.3275
1804.00,0.3278
1803.00,0.3281
1802.00,0.3285
1801.00,0.3291
1800.00,0.3299
1799.00,0.3307
1798.00,0.3312
1797.00,0.3317
1796.00,0.3322
1795.00,0.3325
1794.00,0.3327
1793.00,0.3331
1792.00,0.3337
1791.00,0.3343
1790.00,0.3349
1789.00,0.3354
1788.00,0.3359
1787.00,0.3363
1786.00,0.3365
1785.00,0.3368
1784.00,0.3372
1783.00,0.3376
1782.00,0.3379
1781.00,0.3382
1780.00,0.3387
1779.00,0.3391
1778.00,0.3394
1777.00,0.3398
1776.00,0.3402
1775.00,0.3406
1774.00,0.3410
1773.00,0.3416
1772.00,0.3423
1771.00,0.3430
1770.00,0.3438
1769.00,0.3446
1768.00,0.3456
1767.00,0.3467
1766.00,0.3476
1765.00,0.3485
1764.00,0.3496
1763.00,0.3509
1762.00,0.3524
1761.00,0.3543
1760.00,0.3562
1759.00,0.3581
1758.00,0.3603
1757.00,0.3630
1756.00,0.3661
1755.00,0.3690
1754.00,0.3717
1753.00,0.3747
1752.00,0.3779
1751.00,0.3813
1750.00,0.3847
1749.00,0.3879
1748.00,0.3909
1747.00,0.3935
1746.00,0.3956
1745.00,0.3974
1744.00,0.3988
1743.00,0.3998
1742.00,0.4005
1741.00,0.4009
1740.00,0.4012
1739.00,0.4010
1738.00,0.4004
1737.00,0.3996
1736.00,0.3987
1735.00,0.3976
1734.00,0.3963
1733.00,0.3953
1732.00,0.3946
1731.00,0.3940
1730.00,0.3937
1729.00,0.3938
1728.00,0.3943
1727.00,0.3949
1726.00,0.3958
1725.00,0.3973
1724.00,0.3993
1723.00,0.4017
1722.00,0.4045
1721.00,0.4077
1720.00,0.4115
1719.00,0.4165
1718.00,0.4233
1717.00,0.4317
1716.00,0.4411
1715.00,0.4513
1714.00,0.4622
1713.00,0.4735
1712.00,0.4846
1711.00,0.4950
1710.00,0.5043
1709.00,0.5115
1708.00,0.5156
1707.00,0.5166
1706.00,0.5147
1705.00,0.5100
1704.00,0.5036
1703.00,0.4965
1702.00,0.4882
1701.00,0.4770
1700.00,0.4641
1699.00,0.4531
1698.00,0.4451
1697.00,0.4381
1696.00,0.4311
1695.00,0.4244
1694.00,0.4190
1693.00,0.4150
1692.00,0.4116
1691.00,0.4084
1690.00,0.4054
1689.00,0.4028
1688.00,0.4007
1687.00,0.3988
1686.00,0.3971
1685.00,0.3953
1684.00,0.3936
1683.00,0.3923
1682.00,0.3913
1681.00,0.3907
1680.00,0.3900
1679.00,0.3894
1678.00,0.3888
1677.00,0.3883
1676.00,0.3879
1675.00,0.3875
1674.00,0.3871
1673.00,0.3867
1672.00,0.3865
1671.00,0.3862
1670.00,0.3862
1669.00,0.3864
1668.00,0.3866
1667.00,0.3868
1666.00,0.3868
1665.00,0.3868
1664.00,0.3869
1663.00,0.3871
1662.00,0.3873
1661.00,0.3877
1660.00,0.3881
1659.00,0.3883
1658.00,0.3886
1657.00,0.3889
1656.00,0.3892
1655.00,0.3896
1654.00,0.3905
1653.00,0.3921
1652.00,0.3936
1651.00,0.3942
1650.00,0.3945
1649.00,0.3950
1648.00,0.3960
1647.00,0.3974
1646.00,0.3991
1645.00,0.4010
1644.00,0.4027
1643.00,0.4042
1642.00,0.4058
1641.00,0.4075
1640.00,0.4092
1639.00,0.4108
1638.00,0.4123
1637.00,0.4144
1636.00,0.4172
1635.00,0.4201
1634.00,0.4227
1633.00,0.4252
1632.00,0.4276
1631.00,0.4299
1630.00,0.4322
1629.00,0.4349
1628.00,0.4378
1627.00,0.4407
1626.00,0.4436
1625.00,0.4469
1624.00,0.4509
1623.00,0.4555
1622.00,0.4605
1621.00,0.4660
1620.00,0.4719
1619.00,0.4784
1618.00,0.4865
1617.00,0.4970
1616.00,0.5089
1615.00,0.5200
1614.00,0.5301
1613.00,0.5401
1612.00,0.5506
1611.00,0.5613
1610.00,0.5718
1609.00,0.5823
1608.00,0.5926
1607.00,0.6018
1606.00,0.6098
1605.00,0.6172
1604.00,0.6244
1603.00,0.6312
1602.00,0.6378
1601.00,0.6451
1600.00,0.6535
1599.00,0.6626
1598.00,0.6729
1597.00,0.6857
1596.00,0.7024
1595.00,0.7231
1594.00,0.7488
1593.00,0.7814
1592.00,0.8229
1591.00,0.8746
1590.00,0.9388
1589.00,1.0202
1588.00,1.1240
1587.00,1.2540
1586.00,1.4128
1585.00,1.6065
1584.00,1.8421
1583.00,2.1012
1582.00,2.2941
1581.00,2.3280
1580.00,2.2306
1579.00,2.0477
1578.00,1.8197
1577.00,1.5954
1576.00,1.4069
1575.00,1.2667
1574.00,1.1695
1573.00,1.1018
1572.00,1.0517
1571.00,1.0125
1570.00,0.9845
1569.00,0.9719
1568.00,0.9766
1567.00,0.9974
1566.00,1.0351
1565.00,1.0925
1564.00,1.1674
1563.00,1.2479
1562.00,1.3190
1561.00,1.3673
1560.00,1.3627
1559.00,1.2751
1558.00,1.1549
1557.00,1.0567
1556.00,0.9783
1555.00,0.9061
1554.00,0.8403
1553.00,0.7868
1552.00,0.7461
1551.00,0.7136
1550.00,0.6858
1549.00,0.6631
1548.00,0.6458
1547.00,0.6322
1546.00,0.6203
1545.00,0.6099
1544.00,0.6013
1543.00,0.5942
1542.00,0.5879
1541.00,0.5820
1540.00,0.5765
1539.00,0.5712
1538.00,0.5665
1537.00,0.5627
1536.00,0.5595
1535.00,0.5562
1534.00,0.5528
1533.00,0.5504
1532.00,0.5495
1531.00,0.5495
1530.00,0.5499
1529.00,0.5506
1528.00,0.5513
1527.00,0.5514
1526.00,0.5508
1525.00,0.5499
1524.00,0.5493
1523.00,0.5490
1522.00,0.5494
1521.00,0.5511
1520.00,0.5537
1519.00,0.5565
1518.00,0.5595
1517.00,0.5632
1516.00,0.5670
1515.00,0.5695
1514.00,0.5708
1513.00,0.5714
1512.00,0.5721
1511.00,0.5729
1510.00,0.5742
1509.00,0.5772
1508.00,0.5828
1507.00,0.5922
1506.00,0.6043
1505.00,0.6166
1504.00,0.6269
1503.00,0.6355
1502.00,0.6433
1501.00,0.6509
1500.00,0.6582
1499.00,0.6649
1498.00,0.6720
1497.00,0.6812
1496.00,0.6921
1495.00,0.7032
1494.00,0.7139
1493.00,0.7251
1492.00,0.7377
1491.00,0.7518
1490.00,0.7678
1489.00,0.7862
1488.00,0.8063
1487.00,0.8277
1486.00,0.8514
1485.00,0.8790
1484.00,0.9107
1483.00,0.9471
1482.00,0.9903
1481.00,1.0415
1480.00,1.0992
1479.00,1.1621
1478.00,1.2336
1477.00,1.3188
1476.00,1.4189
1475.00,1.5335
1474.00,1.6713
1473.00,1.8528
1472.00,2.0917
1471.00,2.3785
1470.00,2.7004
1469.00,3.0738
1468.00,3.4945
1467.00,3.7909
1466.00,4.0351
1465.00,4.0803
1464.00,3.8625
1463.00,4.0945
1462.00,4.3639
1461.00,3.8777
1460.00,3.6697
1459.00,3.7337
1458.00,3.8193
1457.00,3.6562
1456.00,3.8282
1455.00,4.1619
1454.00,3.7399
1453.00,3.6676
1452.00,3.6171
1451.00,3.4470
1450.00,3.3368
1449.00,3.3075
1448.00,3.2556
1447.00,3.1292
1446.00,3.0145
1445.00,2.9089
1444.00,2.7680
1443.00,2.6079
1442.00,2.4671
1441.00,2.3470
1440.00,2.2317
1439.00,2.1143
1438.00,1.9940
1437.00,1.8701
1436.00,1.7492
1435.00,1.6420
1434.00,1.5485
1433.00,1.4610
1432.00,1.3747
1431.00,1.2923
1430.00,1.2180
1429.00,1.1544
1428.00,1.1020
1427.00,1.0602
1426.00,1.0264
1425.00,0.9977
1424.00,0.9736
1423.00,0.9548
1422.00,0.9408
1421.00,0.9292
1420.00,0.9182
1419.00,0.9078
1418.00,0.8986
1417.00,0.8909
1416.00,0.8847
1415.00,0.8799
1414.00,0.8763
1413.00,0.8736
1412.00,0.8718
1411.00,0.8708
1410.00,0.8697
1409.00,0.8671
1408.00,0.8622
1407.00,0.8546
1406.00,0.8439
1405.00,0.8304
1404.00,0.8158
1403.00,0.8020
1402.00,0.7897
1401.00,0.7785
1400.00,0.7686
1399.00,0.7609
1398.00,0.7558
1397.00,0.7530
1396.00,0.7530
1395.00,0.7566
1394.00,0.7644
1393.00,0.7767
1392.00,0.7951
1391.00,0.8217
1390.00,0.8587
1389.00,0.9095
1388.00,0.9780
1387.00,1.0651
1386.00,1.1651
1385.00,1.2708
1384.00,1.3800
1383.00,1.4963
1382.00,1.6239
1381.00,1.7666
1380.00,1.9270
1379.00,2.0952
1378.00,2.2326
1377.00,2.2865
1376.00,2.2352
1375.00,2.1003
1374.00,1.9294
1373.00,1.7675
1372.00,1.6347
1371.00,1.5320
1370.00,1.4565
1369.00,1.4061
1368.00,1.3756
1367.00,1.3538
1366.00,1.3255
1365.00,1.2798
1364.00,1.2165
1363.00,1.1454
1362.00,1.0790
1361.00,1.0250
1360.00,0.9841
1359.00,0.9540
1358.00,0.9321
1357.00,0.9167
1356.00,0.9065
1355.00,0.9003
1354.00,0.8967
1353.00,0.8946
1352.00,0.8932
1351.00,0.8916
1350.00,0.8894
1349.00,0.8865
1348.00,0.8832
1347.00,0.8800
1346.00,0.8774
1345.00,0.8753
1344.00,0.8736
1343.00,0.8717
1342.00,0.8687
1341.00,0.8640
1340.00,0.8569
1339.00,0.8477
1338.00,0.8363
1337.00,0.8232
1336.00,0.8089
1335.00,0.7941
1334.00,0.7797
1333.00,0.7663
1332.00,0.7545
1331.00,0.7445
1330.00,0.7364
1329.00,0.7301
1328.00,0.7254
1327.00,0.7224
1326.00,0.7208
1325.00,0.7203
1324.00,0.7206
1323.00,0.7213
1322.00,0.7221
1321.00,0.7227
1320.00,0.7233
1319.00,0.7240
1318.00,0.7251
1317.00,0.7267
1316.00,0.7287
1315.00,0.7312
1314.00,0.7344
1313.00,0.7382
1312.00,0.7424
1311.00,0.7466
1310.00,0.7504
1309.00,0.7535
1308.00,0.7560
1307.00,0.7579
1306.00,0.7591
1305.00,0.7589
1304.00,0.7573
1303.00,0.7543
1302.00,0.7501
1301.00,0.7451
1300.00,0.7396
1299.00,0.7337
1298.00,0.7277
1297.00,0.7215
1296.00,0.7156
1295.00,0.7103
1294.00,0.7056
1293.00,0.7015
1292.00,0.6976
1291.00,0.6939
1290.00,0.6903
1289.00,0.6868
1288.00,0.6832
1287.00,0.6798
1286.00,0.6762
1285.00,0.6724
1284.00,0.6684
1283.00,0.6645
1282.00,0.6610
1281.00,0.6580
1280.00,0.6555
1279.00,0.6532
1278.00,0.6509
1277.00,0.6486
1276.00,0.6460
1275.00,0.6436
1274.00,0.6415
1273.00,0.6398
1272.00,0.6385
1271.00,0.6379
1270.00,0.6375
1269.00,0.6370
1268.00,0.6357
1267.00,0.6333
1266.00,0.6297
1265.00,0.6254
1264.00,0.6211
1263.00,0.6174
1262.00,0.6145
1261.00,0.6123
1260.00,0.6106
1259.00,0.6092
1258.00,0.6077
1257.00,0.6059
1256.00,0.6038
1255.00,0.6016
1254.00,0.5997
1253.00,0.5981
1252.00,0.5968
1251.00,0.5957
1250.00,0.5946
1249.00,0.5934
1248.00,0.5919
1247.00,0.5901
1246.00,0.5879
1245.00,0.5852
1244.00,0.5822
1243.00,0.5790
1242.00,0.5756
1241.00,0.5723
1240.00,0.5691
1239.00,0.5663
1238.00,0.5640
1237.00,0.5621
1236.00,0.5605
1235.00,0.5595
1234.00,0.5591
1233.00,0.5593
1232.00,0.5599
1231.00,0.5608
1230.00,0.5615
1229.00,0.5613
1228.00,0.5601
1227.00,0.5579
1226.00,0.5550
1225.00,0.5515
1224.00,0.5479
1223.00,0.5447
1222.00,0.5421
1221.00,0.5402
1220.00,0.5389
1219.00,0.5382
1218.00,0.5382
1217.00,0.5385
1216.00,0.5393
1215.00,0.5404
1214.00,0.5416
1213.00,0.5424
1212.00,0.5422
1211.00,0.5414
1210.00,0.5402
1209.00,0.5388
1208.00,0.5373
1207.00,0.5357
1206.00,0.5342
1205.00,0.5326
1204.00,0.5310
1203.00,0.5296
1202.00,0.5286
1201.00,0.5278
1200.00,0.5275
1199.00,0.5275
1198.00,0.5275
1197.00,0.5273
1196.00,0.5267
1195.00,0.5258
1194.00,0.5249
1193.00,0.5240
1192.00,0.5233
1191.00,0.5227
1190.00,0.5221
1189.00,0.5214
1188.00,0.5207
1187.00,0.5200
1186.00,0.5195
1185.00,0.5190
1184.00,0.5185
1183.00,0.5183
1182.00,0.5182
1181.00,0.5184
1180.00,0.5188
1179.00,0.5196
1178.00,0.5209
1177.00,0.5225
1176.00,0.5247
1175.00,0.5277
1174.00,0.5316
1173.00,0.5362
1172.00,0.5410
1171.00,0.5456
1170.00,0.5491
1169.00,0.5509
1168.00,0.5510
1167.00,0.5499
1166.00,0.5486
1165.00,0.5473
1164.00,0.5465
1163.00,0.5463
1162.00,0.5468
1161.00,0.5479
1160.00,0.5493
1159.00,0.5509
1158.00,0.5525
1157.00,0.5537
1156.00,0.5543
1155.00,0.5541
1154.00,0.5532
1153.00,0.5516
1152.00,0.5495
1151.00,0.5471
1150.00,0.5446
1149.00,0.5421
1148.00,0.5397
1147.00,0.5376
1146.00,0.5358
1145.00,0.5343
1144.00,0.5333
1143.00,0.5332
1142.00,0.5341
1141.00,0.5364
1140.00,0.5400
1139.00,0.5450
1138.00,0.5513
1137.00,0.5587
1136.00,0.5672
1135.00,0.5764
1134.00,0.5847
1133.00,0.5899
1132.00,0.5905
1131.00,0.5861
1130.00,0.5783
1129.00,0.5694
1128.00,0.5612
1127.00,0.5548
1126.00,0.5505
1125.00,0.5477
1124.00,0.5459
1123.00,0.5445
1122.00,0.5431
1121.00,0.5416
1120.00,0.5405
1119.00,0.5404
1118.00,0.5416
1117.00,0.5441
1116.00,0.5478
1115.00,0.5516
1114.00,0.5539
1113.00,0.5532
1112.00,0.5490
1111.00,0.5423
1110.00,0.5350
1109.00,0.5284
1108.00,0.5232
1107.00,0.5196
1106.00,0.5174
1105.00,0.5163
1104.00,0.5159
1103.00,0.5157
1102.00,0.5154
1101.00,0.5147
1100.00,0.5136
1099.00,0.5123
1098.00,0.5110
1097.00,0.5099
1096.00,0.5092
1095.00,0.5089
1094.00,0.5090
1093.00,0.5095
1092.00,0.5102
1091.00,0.5112
1090.00,0.5125
1089.00,0.5141
1088.00,0.5164
1087.00,0.5197
1086.00,0.5240
1085.00,0.5291
1084.00,0.5349
1083.00,0.5416
1082.00,0.5491
1081.00,0.5573
1080.00,0.5656
1079.00,0.5731
1078.00,0.5790
1077.00,0.5820
1076.00,0.5817
1075.00,0.5782
1074.00,0.5724
1073.00,0.5657
1072.00,0.5591
1071.00,0.5534
1070.00,0.5488
1069.00,0.5452
1068.00,0.5425
1067.00,0.5404
1066.00,0.5390
1065.00,0.5380
1064.00,0.5374
1063.00,0.5373
1062.00,0.5377
1061.00,0.5385
1060.00,0.5395
1059.00,0.5402
1058.00,0.5405
1057.00,0.5402
1056.00,0.5396
1055.00,0.5388
1054.00,0.5382
1053.00,0.5379
1052.00,0.5380
1051.00,0.5390
1050.00,0.5405
1049.00,0.5425
1048.00,0.5445
1047.00,0.5464
1046.00,0.5479
1045.00,0.5488
1044.00,0.5490
1043.00,0.5487
1042.00,0.5482
1041.00,0.5476
1040.00,0.5472
1039.00,0.5467
1038.00,0.5461
1037.00,0.5455
1036.00,0.5449
1035.00,0.5449
1034.00,0.5454
1033.00,0.5466
1032.00,0.5483
1031.00,0.5503
1030.00,0.5521
1029.00,0.5532
1028.00,0.5530
1027.00,0.5511
1026.00,0.5475
1025.00,0.5424
1024.00,0.5363
1023.00,0.5301
1022.00,0.5242
1021.00,0.5189
1020.00,0.5143
1019.00,0.5104
1018.00,0.5069
1017.00,0.5038
1016.00,0.5008
1015.00,0.4983
1014.00,0.4962
1013.00,0.4945
1012.00,0.4931
1011.00,0.4922
1010.00,0.4917
1009.00,0.4917
1008.00,0.4920
1007.00,0.4929
1006.00,0.4943
1005.00,0.4961
1004.00,0.4980
1003.00,0.5000
1002.00,0.5020
1001.00,0.5037
1000.00,0.5051
999.00,0.5059
998.00,0.5060
997.00,0.5053
996.00,0.5037
995.00,0.5016
994.00,0.4990
993.00,0.4960
992.00,0.4927
991.00,0.4893
990.00,0.4861
989.00,0.4834
988.00,0.4813
987.00,0.4799
986.00,0.4794
985.00,0.4798
984.00,0.4809
983.00,0.4825
982.00,0.4845
981.00,0.4866
980.00,0.4887
979.00,0.4910
978.00,0.4933
977.00,0.4955
976.00,0.4973
975.00,0.4986
974.00,0.4993
973.00,0.4995
972.00,0.4994
971.00,0.4992
970.00,0.4991
969.00,0.4988
968.00,0.4985
967.00,0.4980
966.00,0.4974
965.00,0.4966
964.00,0.4956
963.00,0.4945
962.00,0.4934
961.00,0.4921
960.00,0.4907
959.00,0.4895
958.00,0.4886
957.00,0.4881
956.00,0.4876
955.00,0.4870
954.00,0.4861
953.00,0.4849
952.00,0.4837
951.00,0.4826
950.00,0.4820
949.00,0.4817
948.00,0.4819
947.00,0.4825
946.00,0.4835
945.00,0.4848
944.00,0.4863
943.00,0.4881
942.00,0.4898
941.00,0.4912
940.00,0.4923
939.00,0.4931
938.00,0.4936
937.00,0.4936
936.00,0.4928
935.00,0.4913
934.00,0.4892
933.00,0.4868
932.00,0.4843
931.00,0.4820
930.00,0.4800
929.00,0.4787
928.00,0.4781
927.00,0.4787
926.00,0.4806
925.00,0.4839
924.00,0.4887
923.00,0.4943
922.00,0.4995
921.00,0.5026
920.00,0.5023
919.00,0.4982
918.00,0.4912
917.00,0.4825
916.00,0.4737
915.00,0.4657
914.00,0.4590
913.00,0.4537
912.00,0.4495
911.00,0.4463
910.00,0.4439
909.00,0.4420
908.00,0.4404
907.00,0.4392
906.00,0.4384
905.00,0.4379
904.00,0.4379
903.00,0.4387
902.00,0.4401
901.00,0.4420
900.00,0.4443
899.00,0.4470
898.00,0.4501
897.00,0.4536
896.00,0.4574
895.00,0.4613
894.00,0.4654
893.00,0.4696
892.00,0.4736
891.00,0.4773
890.00,0.4803
889.00,0.4821
888.00,0.4825
887.00,0.4814
886.00,0.4794
885.00,0.4772
884.00,0.4755
883.00,0.4747
882.00,0.4749
881.00,0.4760
880.00,0.4777
879.00,0.4794
878.00,0.4805
877.00,0.4807
876.00,0.4801
875.00,0.4795
874.00,0.4793
873.00,0.4794
872.00,0.4797
871.00,0.4803
870.00,0.4811
869.00,0.4824
868.00,0.4842
867.00,0.4870
866.00,0.4907
865.00,0.4949
864.00,0.4989
863.00,0.5021
862.00,0.5031
861.00,0.5010
860.00,0.4959
859.00,0.4888
858.00,0.4816
857.00,0.4753
856.00,0.4704
855.00,0.4670
854.00,0.4645
853.00,0.4627
852.00,0.4613
851.00,0.4603
850.00,0.4593
849.00,0.4578
848.00,0.4555
847.00,0.4528
846.00,0.4499
845.00,0.4471
844.00,0.4447
843.00,0.4430
842.00,0.4425
841.00,0.4435
840.00,0.4468
839.00,0.4522
838.00,0.4591
837.00,0.4658
836.00,0.4706
835.00,0.4719
834.00,0.4696
833.00,0.4650
832.00,0.4601
831.00,0.4567
830.00,0.4555
829.00,0.4564
828.00,0.4590
827.00,0.4630
826.00,0.4679
825.00,0.4734
824.00,0.4795
823.00,0.4862
822.00,0.4933
821.00,0.5005
820.00,0.5074
819.00,0.5139
818.00,0.5195
817.00,0.5236
816.00,0.5260
815.00,0.5264
814.00,0.5246
813.00,0.5208
812.00,0.5155
811.00,0.5098
810.00,0.5041
809.00,0.4986
808.00,0.4934
807.00,0.4883
806.00,0.4836
805.00,0.4789
804.00,0.4740
803.00,0.4687
802.00,0.4630
801.00,0.4574
800.00,0.4523
799.00,0.4483
798.00,0.4452
797.00,0.4429
796.00,0.4413
795.00,0.4404
794.00,0.4401
793.00,0.4404
792.00,0.4413
791.00,0.4429
790.00,0.4450
789.00,0.4473
788.00,0.4498
787.00,0.4526
786.00,0.4561
785.00,0.4601
784.00,0.4647
783.00,0.4693
782.00,0.4735
781.00,0.4765
780.00,0.4786
779.00,0.4801
778.00,0.4816
777.00,0.4833
776.00,0.4852
775.00,0.4872
774.00,0.4895
773.00,0.4919
772.00,0.4946
771.00,0.4976
770.00,0.5009
769.00,0.5043
768.00,0.5075
767.00,0.5105
766.00,0.5131
765.00,0.5151
764.00,0.5168
763.00,0.5186
762.00,0.5213
761.00,0.5248
760.00,0.5290
759.00,0.5333
758.00,0.5371
757.00,0.5400
756.00,0.5422
755.00,0.5444
754.00,0.5473
753.00,0.5508
752.00,0.5550
751.00,0.5597
750.00,0.5646
749.00,0.5692
748.00,0.5732
747.00,0.5769
746.00,0.5808
745.00,0.5849
744.00,0.5893
743.00,0.5942
742.00,0.5996
741.00,0.6051
740.00,0.6101
739.00,0.6145
738.00,0.6185
737.00,0.6224
736.00,0.6263
735.00,0.6310
734.00,0.6365
733.00,0.6429
732.00,0.6506
731.00,0.6603
730.00,0.6728
729.00,0.6884
728.00,0.7072
727.00,0.7296
726.00,0.7560
725.00,0.7858
724.00,0.8165
723.00,0.8428
722.00,0.8564
721.00,0.8490
720.00,0.8192
719.00,0.7748
718.00,0.7267
717.00,0.6825
716.00,0.6454
715.00,0.6155
714.00,0.5919
713.00,0.5730
712.00,0.5576
711.00,0.5452
710.00,0.5355
709.00,0.5278
708.00,0.5212
707.00,0.5155
706.00,0.5106
705.00,0.5061
704.00,0.5022
703.00,0.4991
702.00,0.4973
701.00,0.4961
700.00,0.4941
699.00,0.4888
698.00,0.4789
697.00,0.4650
696.00,0.4496
695.00,0.4355
694.00,0.4240
693.00,0.4152
692.00,0.4087
691.00,0.4038
690.00,0.4003
689.00,0.3975
688.00,0.3952
687.00,0.3934
686.00,0.3920
685.00,0.3909
684.00,0.3900
683.00,0.3892
682.00,0.3885
681.00,0.3879
680.00,0.3875
679.00,0.3872
678.00,0.3873
677.00,0.3876
676.00,0.3879
675.00,0.3882
674.00,0.3884
673.00,0.3884
672.00,0.3884
671.00,0.3884
670.00,0.3885
669.00,0.3887
668.00,0.3887
667.00,0.3887
666.00,0.3891
665.00,0.3899
664.00,0.3905
663.00,0.3911
662.00,0.3919
661.00,0.3930
660.00,0.3940
659.00,0.3951
658.00,0.3962
657.00,0.3975
656.00,0.3987
655.00,0.4001
654.00,0.4015
653.00,0.4027
652.00,0.4036
651.00,0.4043
650.00,0.4051
649.00,0.4061
648.00,0.4073
647.00,0.4086
646.00,0.4099
645.00,0.4112
644.00,0.4125
643.00,0.4138
642.00,0.4150
641.00,0.4162
640.00,0.4174
639.00,0.4186
638.00,0.4198
637.00,0.4210
636.00,0.4220
635.00,0.4227
634.00,0.4229
633.00,0.4230
632.00,0.4231
631.00,0.4237
630.00,0.4247
629.00,0.4261
628.00,0.4279
627.00,0.4299
626.00,0.4318
625.00,0.4336
624.00,0.4356
623.00,0.4379
622.00,0.4401
621.00,0.4419
620.00,0.4433
619.00,0.4446
618.00,0.4458
617.00,0.4467
616.00,0.4471
615.00,0.4471
614.00,0.4468
613.00,0.4461
612.00,0.4449
611.00,0.4433
610.00,0.4416
609.00,0.4398
608.00,0.4384
607.00,0.4374
606.00,0.4367
605.00,0.4361
604.00,0.4357
603.00,0.4356
602.00,0.4359
601.00,0.4363
600.00,0.4365
599.00,0.4365
598.00,0.4366
597.00,0.4370
596.00,0.4381
595.00,0.4398
594.00,0.4419
593.00,0.4442
592.00,0.4462
591.00,0.4481
590.00,0.4499
589.00,0.4517
588.00,0.4536
587.00,0.4554
586.00,0.4573
585.00,0.4595
584.00,0.4619
583.00,0.4647
582.00,0.4678
581.00,0.4709
580.00,0.4736
579.00,0.4757
578.00,0.4772
577.00,0.4787
576.00,0.4809
575.00,0.4836
574.00,0.4862
573.00,0.4881
572.00,0.4895
571.00,0.4909
570.00,0.4926
569.00,0.4945
568.00,0.4965
567.00,0.4986
566.00,0.5006
565.00,0.5023
564.00,0.5037
563.00,0.5050
562.00,0.5058
561.00,0.5063
560.00,0.5069
559.00,0.5081
558.00,0.5101
557.00,0.5123
556.00,0.5140
555.00,0.5152
554.00,0.5159
553.00,0.5164
552.00,0.5168
551.00,0.5175
550.00,0.5184
