Created as New Dataset,
cm-1,A
4000.00,0.3328
3999.00,0.3325
3998.00,0.3323
3997.00,0.3319
3996.00,0.3316
3995.00,0.3313
3994.00,0.3310
3993.00,0.3307
3992.00,0.3303
3991.00,0.3300
3990.00,0.3296
3989.00,0.3293
3988.00,0.3290
3987.00,0.3288
3986.00,0.3285
3985.00,0.3281
3984.00,0.3278
3983.00,0.3274
3982.00,0.3271
3981.00,0.3267
3980.00,0.3263
3979.00,0.3259
3978.00,0.3256
3977.00,0.3252
3976.00,0.3250
3975.00,0.3248
3974.00,0.3245
3973.00,0.3243
3972.00,0.3240
3971.00,0.3237
3970.00,0.3234
3969.00,0.3231
3968.00,0.3228
3967.00,0.3226
3966.00,0.3223
3965.00,0.3222
3964.00,0.3221
3963.00,0.3221
3962.00,0.3220
3961.00,0.3218
3960.00,0.3216
3959.00,0.3214
3958.00,0.3213
3957.00,0.3212
3956.00,0.3211
3955.00,0.3210
3954.00,0.3209
3953.00,0.3208
3952.00,0.3207
3951.00,0.3206
3950.00,0.3204
3949.00,0.3202
3948.00,0.3201
3947.00,0.3200
3946.00,0.3199
3945.00,0.3198
3944.00,0.3197
3943.00,0.3196
3942.00,0.3195
3941.00,0.3194
3940.00,0.3193
3939.00,0.3192
3938.00,0.3191
3937.00,0.3190
3936.00,0.3189
3935.00,0.3188
3934.00,0.3187
3933.00,0.3186
3932.00,0.3185
3931.00,0.3185
3930.00,0.3186
3929.00,0.3186
3928.00,0.3186
3927.00,0.3186
3926.00,0.3185
3925.00,0.3185
3924.00,0.3184
3923.00,0.3184
3922.00,0.3183
3921.00,0.3183
3920.00,0.3184
3919.00,0.3184
3918.00,0.3184
3917.00,0.3184
3916.00,0.3184
3915.00,0.3183
3914.00,0.3183
3913.00,0.3182
3912.00,0.3181
3911.00,0.3181
3910.00,0.3181
3909.00,0.3181
3908.00,0.3181
3907.00,0.3182
3906.00,0.3183
3905.00,0.3184
3904.00,0.3184
3903.00,0.3185
3902.00,0.3186
3901.00,0.3186
3900.00,0.3187
3899.00,0.3187
3898.00,0.3185
3897.00,0.3182
3896.00,0.3179
3895.00,0.3175
3894.00,0.3173
3893.00,0.3171
3892.00,0.3170
3891.00,0.3170
3890.00,0.3170
3889.00,0.3170
3888.00,0.3169
3887.00,0.3169
3886.00,0.3170
3885.00,0.3170
3884.00,0.3170
3883.00,0.3170
3882.00,0.3169
3881.00,0.3168
3880.00,0.3167
3879.00,0.3166
3878.00,0.3165
3877.00,0.3164
3876.00,0.3163
3875.00,0.3163
3874.00,0.3163
3873.00,0.3164
3872.00,0.3163
3871.00,0.3162
3870.00,0.3162
3869.00,0.3163
3868.00,0.3164
3867.00,0.3163
3866.00,0.3161
3865.00,0.3158
3864.00,0.3155
3863.00,0.3152
3862.00,0.3149
3861.00,0.3146
3860.00,0.3145
3859.00,0.3144
3858.00,0.3145
3857.00,0.3147
3856.00,0.3149
3855.00,0.3150
3854.00,0.3150
3853.00,0.3152
3852.00,0.3153
3851.00,0.3152
3850.00,0.3150
3849.00,0.3146
3848.00,0.3143
3847.00,0.3141
3846.00,0.3138
3845.00,0.3136
3844.00,0.3135
3843.00,0.3135
3842.00,0.3137
3841.00,0.3139
3840.00,0.3141
3839.00,0.3143
3838.00,0.3144
3837.00,0.3144
3836.00,0.3144
3835.00,0.3143
3834.00,0.3142
3833.00,0.3140
3832.00,0.3137
3831.00,0.3134
3830.00,0.3131
3829.00,0.3128
3828.00,0.3126
3827.00,0.3124
3826.00,0.3124
3825.00,0.3124
3824.00,0.3124
3823.00,0.3124
3822.00,0.3124
3821.00,0.3125
3820.00,0.3126
3819.00,0.3125
3818.00,0.3123
3817.00,0.3120
3816.00,0.3118
3815.00,0.3114
3814.00,0.3110
3813.00,0.3106
3812.00,0.3103
3811.00,0.3099
3810.00,0.3097
3809.00,0.3094
3808.00,0.3093
3807.00,0.3092
3806.00,0.3093
3805.00,0.3094
3804.00,0.3094
3803.00,0.3094
3802.00,0.3093
3801.00,0.3093
3800.00,0.3092
3799.00,0.3090
3798.00,0.3087
3797.00,0.3085
3796.00,0.3082
3795.00,0.3078
3794.00,0.3073
3793.00,0.3069
3792.00,0.3066
3791.00,0.3063
3790.00,0.3061
3789.00,0.3059
3788.00,0.3058
3787.00,0.3056
3786.00,0.3054
3785.00,0.3053
3784.00,0.3051
3783.00,0.3050
3782.00,0.3049
3781.00,0.3047
3780.00,0.3046
3779.00,0.3045
3778.00,0.3043
3777.00,0.3041
3776.00,0.3039
3775.00,0.3038
3774.00,0.3036
3773.00,0.3035
3772.00,0.3034
3771.00,0.3034
3770.00,0.3033
3769.00,0.3033
3768.00,0.3033
3767.00,0.3032
3766.00,0.3031
3765.00,0.3031
3764.00,0.3030
3763.00,0.3028
3762.00,0.3027
3761.00,0.3026
3760.00,0.3025
3759.00,0.3024
3758.00,0.3022
3757.00,0.3021
3756.00,0.3021
3755.00,0.3021
3754.00,0.3022
3753.00,0.3022
3752.00,0.3023
3751.00,0.3023
3750.00,0.3024
3749.00,0.3025
3748.00,0.3026
3747.00,0.3026
3746.00,0.3025
3745.00,0.3023
3744.00,0.3020
3743.00,0.3017
3742.00,0.3012
3741.00,0.3009
3740.00,0.3007
3739.00,0.3006
3738.00,0.3005
3737.00,0.3004
3736.00,0.3002
3735.00,0.3001
3734.00,0.3000
3733.00,0.3000
3732.00,0.2999
3731.00,0.2997
3730.00,0.2994
3729.00,0.2990
3728.00,0.2987
3727.00,0.2984
3726.00,0.2982
3725.00,0.2979
3724.00,0.2977
3723.00,0.2975
3722.00,0.2974
3721.00,0.2972
3720.00,0.2970
3719.00,0.2968
3718.00,0.2965
3717.00,0.2963
3716.00,0.2961
3715.00,0.2960
3714.00,0.2959
3713.00,0.2959
3712.00,0.2960
3711.00,0.2960
3710.00,0.2961
3709.00,0.2961
3708.00,0.2961
3707.00,0.2960
3706.00,0.2959
3705.00,0.2957
3704.00,0.2955
3703.00,0.2953
3702.00,0.2952
3701.00,0.2951
3700.00,0.2950
3699.00,0.2950
3698.00,0.2949
3697.00,0.2949
3696.00,0.2949
3695.00,0.2950
3694.00,0.2952
3693.00,0.2955
3692.00,0.2958
3691.00,0.2961
3690.00,0.2963
3689.00,0.2965
3688.00,0.2966
3687.00,0.2966
3686.00,0.2965
3685.00,0.2963
3684.00,0.2960
3683.00,0.2956
3682.00,0.2954
3681.00,0.2952
3680.00,0.2951
3679.00,0.2952
3678.00,0.2954
3677.00,0.2955
3676.00,0.2956
3675.00,0.2959
3674.00,0.2962
3673.00,0.2963
3672.00,0.2963
3671.00,0.2962
3670.00,0.2960
3669.00,0.2957
3668.00,0.2954
3667.00,0.2951
3666.00,0.2949
3665.00,0.2947
3664.00,0.2946
3663.00,0.2945
3662.00,0.2944
3661.00,0.2945
3660.00,0.2946
3659.00,0.2948
3658.00,0.2950
3657.00,0.2953
3656.00,0.2956
3655.00,0.2959
3654.00,0.2962
3653.00,0.2966
3652.00,0.2970
3651.00,0.2974
3650.00,0.2977
3649.00,0.2981
3648.00,0.2983
3647.00,0.2984
3646.00,0.2984
3645.00,0.2982
3644.00,0.2980
3643.00,0.2976
3642.00,0.2973
3641.00,0.2971
3640.00,0.2970
3639.00,0.2969
3638.00,0.2970
3637.00,0.2971
3636.00,0.2972
3635.00,0.2974
3634.00,0.2977
3633.00,0.2980
3632.00,0.2984
3631.00,0.2988
3630.00,0.2992
3629.00,0.2998
3628.00,0.3004
3627.00,0.3008
3626.00,0.3010
3625.00,0.3012
3624.00,0.3014
3623.00,0.3016
3622.00,0.3018
3621.00,0.3018
3620.00,0.3018
3619.00,0.3018
3618.00,0.3018
3617.00,0.3018
3616.00,0.3018
3615.00,0.3018
3614.00,0.3018
3613.00,0.3018
3612.00,0.3018
3611.00,0.3017
3610.00,0.3017
3609.00,0.3016
3608.00,0.3016
3607.00,0.3015
3606.00,0.3014
3605.00,0.3013
3604.00,0.3010
3603.00,0.3007
3602.00,0.3003
3601.00,0.2999
3600.00,0.2993
3599.00,0.2988
3598.00,0.2983
3597.00,0.2979
3596.00,0.2974
3595.00,0.2970
3594.00,0.2966
3593.00,0.2962
3592.00,0.2959
3591.00,0.2956
3590.00,0.2955
3589.00,0.2953
3588.00,0.2953
3587.00,0.2953
3586.00,0.2953
3585.00,0.2952
3584.00,0.2951
3583.00,0.2950
3582.00,0.2949
3581.00,0.2948
3580.00,0.2948
3579.00,0.2948
3578.00,0.2948
3577.00,0.2948
3576.00,0.2948
3575.00,0.2948
3574.00,0.2949
3573.00,0.2950
3572.00,0.2952
3571.00,0.2955
3570.00,0.2957
3569.00,0.2960
3568.00,0.2962
3567.00,0.2966
3566.00,0.2969
3565.00,0.2972
3564.00,0.2975
3563.00,0.2976
3562.00,0.2977
3561.00,0.2979
3560.00,0.2980
3559.00,0.2982
3558.00,0.2984
3557.00,0.2987
3556.00,0.2990
3555.00,0.2994
3554.00,0.2998
3553.00,0.3002
3552.00,0.3006
3551.00,0.3011
3550.00,0.3015
3549.00,0.3020
3548.00,0.3025
3547.00,0.3030
3546.00,0.3035
3545.00,0.3040
3544.00,0.3044
3543.00,0.3047
3542.00,0.3051
3541.00,0.3054
3540.00,0.3057
3539.00,0.3061
3538.00,0.3064
3537.00,0.3067
3536.00,0.3070
3535.00,0.3073
3534.00,0.3076
3533.00,0.3079
3532.00,0.3082
3531.00,0.3085
3530.00,0.3088
3529.00,0.3092
3528.00,0.3096
3527.00,0.3099
3526.00,0.3103
3525.00,0.3106
3524.00,0.3110
3523.00,0.3113
3522.00,0.3117
3521.00,0.3122
3520.00,0.3126
3519.00,0.3130
3518.00,0.3134
3517.00,0.3137
3516.00,0.3142
3515.00,0.3146
3514.00,0.3151
3513.00,0.3157
3512.00,0.3162
3511.00,0.3167
3510.00,0.3171
3509.00,0.3176
3508.00,0.3181
3507.00,0.3187
3506.00,0.3193
3505.00,0.3198
3504.00,0.3204
3503.00,0.3209
3502.00,0.3214
3501.00,0.3219
3500.00,0.3224
3499.00,0.3229
3498.00,0.3235
3497.00,0.3241
3496.00,0.3248
3495.00,0.3254
3494.00,0.3260
3493.00,0.3267
3492.00,0.3274
3491.00,0.3282
3490.00,0.3290
3489.00,0.3298
3488.00,0.3306
3487.00,0.3314
3486.00,0.3321
3485.00,0.3328
3484.00,0.3335
3483.00,0.3341
3482.00,0.3347
3481.00,0.3353
3480.00,0.3358
3479.00,0.3363
3478.00,0.3368
3477.00,0.3373
3476.00,0.3378
3475.00,0.3383
3474.00,0.3388
3473.00,0.3394
3472.00,0.3399
3471.00,0.3405
3470.00,0.3411
3469.00,0.3417
3468.00,0.3422
3467.00,0.3428
3466.00,0.3434
3465.00,0.3440
3464.00,0.3446
3463.00,0.3451
3462.00,0.3457
3461.00,0.3463
3460.00,0.3469
3459.00,0.3475
3458.00,0.3482
3457.00,0.3488
3456.00,0.3495
3455.00,0.3502
3454.00,0.3509
3453.00,0.3517
3452.00,0.3524
3451.00,0.3531
3450.00,0.3538
3449.00,0.3545
3448.00,0.3553
3447.00,0.3560
3446.00,0.3568
3445.00,0.3576
3444.00,0.3584
3443.00,0.3592
3442.00,0.3600
3441.00,0.3607
3440.00,0.3614
3439.00,0.3622
3438.00,0.3630
3437.00,0.3637
3436.00,0.3645
3435.00,0.3652
3434.00,0.3659
3433.00,0.3667
3432.00,0.3674
3431.00,0.3682
3430.00,0.3690
3429.00,0.3698
3428.00,0.3707
3427.00,0.3715
3426.00,0.3724
3425.00,0.3732
3424.00,0.3741
3423.00,0.3749
3422.00,0.3758
3421.00,0.3767
3420.00,0.3777
3419.00,0.3786
3418.00,0.3795
3417.00,0.3804
3416.00,0.3813
3415.00,0.3821
3414.00,0.3830
3413.00,0.3841
3412.00,0.3852
3411.00,0.3862
3410.00,0.3873
3409.00,0.3883
3408.00,0.3893
3407.00,0.3903
3406.00,0.3913
3405.00,0.3923
3404.00,0.3933
3403.00,0.3944
3402.00,0.3955
3401.00,0.3966
3400.00,0.3977
3399.00,0.3988
3398.00,0.3999
3397.00,0.4010
3396.00,0.4021
3395.00,0.4031
3394.00,0.4041
3393.00,0.4051
3392.00,0.4062
3391.00,0.4073
3390.00,0.4085
3389.00,0.4097
3388.00,0.4109
3387.00,0.4120
3386.00,0.4131
3385.00,0.4142
3384.00,0.4153
3383.00,0.4165
3382.00,0.4178
3381.00,0.4190
3380.00,0.4203
3379.00,0.4216
3378.00,0.4229
3377.00,0.4242
3376.00,0.4255
3375.00,0.4269
3374.00,0.4282
3373.00,0.4296
3372.00,0.4310
3371.00,0.4324
3370.00,0.4339
3369.00,0.4354
3368.00,0.4369
3367.00,0.4384
3366.00,0.4398
3365.00,0.4413
3364.00,0.4428
3363.00,0.4443
3362.00,0.4459
3361.00,0.4476
3360.00,0.4493
3359.00,0.4509
3358.00,0.4525
3357.00,0.4541
3356.00,0.4557
3355.00,0.4573
3354.00,0.4591
3353.00,0.4609
3352.00,0.4628
3351.00,0.4646
3350.00,0.4664
3349.00,0.4681
3348.00,0.4697
3347.00,0.4713
3346.00,0.4729
3345.00,0.4746
3344.00,0.4762
3343.00,0.4779
3342.00,0.4794
3341.00,0.4810
3340.00,0.4824
3339.00,0.4837
3338.00,0.4850
3337.00,0.4862
3336.00,0.4872
3335.00,0.4882
3334.00,0.4891
3333.00,0.4899
3332.00,0.4907
3331.00,0.4913
3330.00,0.4919
3329.00,0.4925
3328.00,0.4930
3327.00,0.4933
3326.00,0.4935
3325.00,0.4937
3324.00,0.4937
3323.00,0.4937
3322.00,0.4935
3321.00,0.4932
3320.00,0.4928
3319.00,0.4924
3318.00,0.4919
3317.00,0.4914
3316.00,0.4909
3315.00,0.4903
3314.00,0.4896
3313.00,0.4888
3312.00,0.4880
3311.00,0.4872
3310.00,0.4864
3309.00,0.4855
3308.00,0.4847
3307.00,0.4840
3306.00,0.4832
3305.00,0.4824
3304.00,0.4814
3303.00,0.4805
3302.00,0.4795
3301.00,0.4786
3300.00,0.4778
3299.00,0.4770
3298.00,0.4762
3297.00,0.4755
3296.00,0.4748
3295.00,0.4740
3294.00,0.4733
3293.00,0.4726
3292.00,0.4721
3291.00,0.4715
3290.00,0.4711
3289.00,0.4706
3288.00,0.4701
3287.00,0.4698
3286.00,0.4695
3285.00,0.4693
3284.00,0.4692
3283.00,0.4690
3282.00,0.4689
3281.00,0.4689
3280.00,0.4689
3279.00,0.4691
3278.00,0.4693
3277.00,0.4696
3276.00,0.4698
3275.00,0.4700
3274.00,0.4703
3273.00,0.4706
3272.00,0.4709
3271.00,0.4713
3270.00,0.4718
3269.00,0.4723
3268.00,0.4729
3267.00,0.4733
3266.00,0.4737
3265.00,0.4741
3264.00,0.4745
3263.00,0.4750
3262.00,0.4755
3261.00,0.4761
3260.00,0.4766
3259.00,0.4771
3258.00,0.4777
3257.00,0.4782
3256.00,0.4788
3255.00,0.4793
3254.00,0.4798
3253.00,0.4803
3252.00,0.4808
3251.00,0.4813
3250.00,0.4818
3249.00,0.4822
3248.00,0.4826
3247.00,0.4831
3246.00,0.4836
3245.00,0.4841
3244.00,0.4845
3243.00,0.4849
3242.00,0.4852
3241.00,0.4855
3240.00,0.4858
3239.00,0.4862
3238.00,0.4865
3237.00,0.4868
3236.00,0.4870
3235.00,0.4871
3234.00,0.4872
3233.00,0.4874
3232.00,0.4874
3231.00,0.4875
3230.00,0.4875
3229.00,0.4874
3228.00,0.4873
3227.00,0.4872
3226.00,0.4869
3225.00,0.4868
3224.00,0.4866
3223.00,0.4865
3222.00,0.4863
3221.00,0.4861
3220.00,0.4858
3219.00,0.4856
3218.00,0.4853
3217.00,0.4850
3216.00,0.4847
3215.00,0.4843
3214.00,0.4840
3213.00,0.4836
3212.00,0.4832
3211.00,0.4828
3210.00,0.4825
3209.00,0.4823
3208.00,0.4820
3207.00,0.4816
3206.00,0.4812
3205.00,0.4808
3204.00,0.4804
3203.00,0.4801
3202.00,0.4797
3201.00,0.4794
3200.00,0.4790
3199.00,0.4786
3198.00,0.4782
3197.00,0.4778
3196.00,0.4773
3195.00,0.4768
3194.00,0.4763
3193.00,0.4759
3192.00,0.4754
3191.00,0.4748
3190.00,0.4742
3189.00,0.4735
3188.00,0.4728
3187.00,0.4721
3186.00,0.4714
3185.00,0.4706
3184.00,0.4699
3183.00,0.4692
3182.00,0.4685
3181.00,0.4678
3180.00,0.4671
3179.00,0.4663
3178.00,0.4655
3177.00,0.4647
3176.00,0.4638
3175.00,0.4630
3174.00,0.4621
3173.00,0.4613
3172.00,0.4605
3171.00,0.4598
3170.00,0.4590
3169.00,0.4582
3168.00,0.4574
3167.00,0.4566
3166.00,0.4558
3165.00,0.4549
3164.00,0.4541
3163.00,0.4533
3162.00,0.4526
3161.00,0.4518
3160.00,0.4510
3159.00,0.4501
3158.00,0.4491
3157.00,0.4482
3156.00,0.4474
3155.00,0.4466
3154.00,0.4458
3153.00,0.4450
3152.00,0.4442
3151.00,0.4433
3150.00,0.4425
3149.00,0.4417
3148.00,0.4410
3147.00,0.4403
3146.00,0.4396
3145.00,0.4388
3144.00,0.4380
3143.00,0.4373
3142.00,0.4366
3141.00,0.4360
3140.00,0.4355
3139.00,0.4351
3138.00,0.4347
3137.00,0.4343
3136.00,0.4339
3135.00,0.4335
3134.00,0.4331
3133.00,0.4329
3132.00,0.4327
3131.00,0.4325
3130.00,0.4323
3129.00,0.4322
3128.00,0.4321
3127.00,0.4320
3126.00,0.4320
3125.00,0.4320
3124.00,0.4320
3123.00,0.4320
3122.00,0.4320
3121.00,0.4322
3120.00,0.4323
3119.00,0.4325
3118.00,0.4326
3117.00,0.4328
3116.00,0.4331
3115.00,0.4334
3114.00,0.4338
3113.00,0.4343
3112.00,0.4347
3111.00,0.4352
3110.00,0.4357
3109.00,0.4364
3108.00,0.4371
3107.00,0.4379
3106.00,0.4388
3105.00,0.4396
3104.00,0.4405
3103.00,0.4413
3102.00,0.4422
3101.00,0.4430
3100.00,0.4439
3099.00,0.4448
3098.00,0.4458
3097.00,0.4469
3096.00,0.4482
3095.00,0.4496
3094.00,0.4512
3093.00,0.4529
3092.00,0.4547
3091.00,0.4566
3090.00,0.4587
3089.00,0.4609
3088.00,0.4633
3087.00,0.4658
3086.00,0.4683
3085.00,0.4710
3084.00,0.4737
3083.00,0.4766
3082.00,0.4796
3081.00,0.4828
3080.00,0.4862
3079.00,0.4898
3078.00,0.4936
3077.00,0.4977
3076.00,0.5019
3075.00,0.5061
3074.00,0.5104
3073.00,0.5147
3072.00,0.5190
3071.00,0.5233
3070.00,0.5277
3069.00,0.5320
3068.00,0.5363
3067.00,0.5406
3066.00,0.5448
3065.00,0.5488
3064.00,0.5527
3063.00,0.5562
3062.00,0.5594
3061.00,0.5624
3060.00,0.5651
3059.00,0.5677
3058.00,0.5703
3057.00,0.5730
3056.00,0.5757
3055.00,0.5787
3054.00,0.5818
3053.00,0.5850
3052.00,0.5885
3051.00,0.5922
3050.00,0.5961
3049.00,0.6004
3048.00,0.6048
3047.00,0.6094
3046.00,0.6141
3045.00,0.6188
3044.00,0.6234
3043.00,0.6280
3042.00,0.6326
3041.00,0.6371
3040.00,0.6417
3039.00,0.6463
3038.00,0.6512
3037.00,0.6562
3036.00,0.6615
3035.00,0.6672
3034.00,0.6734
3033.00,0.6801
3032.00,0.6872
3031.00,0.6948
3030.00,0.7029
3029.00,0.7114
3028.00,0.7203
3027.00,0.7294
3026.00,0.7388
3025.00,0.7485
3024.00,0.7585
3023.00,0.7688
3022.00,0.7796
3021.00,0.7907
3020.00,0.8021
3019.00,0.8138
3018.00,0.8254
3017.00,0.8372
3016.00,0.8489
3015.00,0.8607
3014.00,0.8727
3013.00,0.8850
3012.00,0.8976
3011.00,0.9106
3010.00,0.9243
3009.00,0.9384
3008.00,0.9532
3007.00,0.9685
3006.00,0.9846
3005.00,1.0011
3004.00,1.0182
3003.00,1.0357
3002.00,1.0538
3001.00,1.0726
3000.00,1.0922
2999.00,1.1129
2998.00,1.1353
2997.00,1.1597
2996.00,1.1863
2995.00,1.2156
2994.00,1.2483
2993.00,1.2850
2992.00,1.3262
2991.00,1.3723
2990.00,1.4237
2989.00,1.4806
2988.00,1.5435
2987.00,1.6134
2986.00,1.6915
2985.00,1.7790
2984.00,1.8768
2983.00,1.9854
2982.00,2.1055
2981.00,2.2374
2980.00,2.3815
2979.00,2.5387
2978.00,2.7116
2977.00,2.9022
2976.00,3.1100
2975.00,3.3293
2974.00,3.5449
2973.00,3.7040
2972.00,3.7735
2971.00,3.8236
2970.00,4.0053
2969.00,4.2545
2968.00,4.0472
2967.00,3.8330
2966.00,3.7845
2965.00,3.9059
2964.00,3.9945
2963.00,4.0159
2962.00,4.0583
2961.00,4.0610
2960.00,4.0240
2959.00,4.0429
2958.00,4.1432
2957.00,4.3163
2956.00,4.3795
2955.00,4.3956
2954.00,4.5515
2953.00,4.2162
2952.00,3.9459
2951.00,3.7628
2950.00,3.7395
2949.00,3.8159
2948.00,3.9314
2947.00,4.1085
2946.00,4.2264
2945.00,4.3000
2944.00,4.4047
2943.00,4.5925
2942.00,4.9411
2941.00,4.7026
2940.00,4.1835
2939.00,3.9153
2938.00,3.8931
2937.00,4.0741
2936.00,4.1989
2935.00,4.0950
2934.00,3.9246
2933.00,3.8215
2932.00,3.7674
2931.00,3.7943
2930.00,4.0448
2929.00,4.3924
2928.00,4.1242
2927.00,4.0432
2926.00,4.2296
2925.00,4.3162
2924.00,4.0716
2923.00,3.9511
2922.00,4.1592
2921.00,4.2841
2920.00,4.0464
2919.00,3.8594
2918.00,3.7686
2917.00,3.7895
2916.00,3.8240
2915.00,3.8487
2914.00,3.8987
2913.00,4.0447
2912.00,4.2917
2911.00,4.3162
2910.00,4.2962
2909.00,4.3898
2908.00,4.4711
2907.00,4.2773
2906.00,4.0792
2905.00,4.0303
2904.00,4.0242
2903.00,4.0826
2902.00,4.1383
2901.00,4.0436
2900.00,3.9559
2899.00,4.0113
2898.00,4.2853
2897.00,4.5696
2896.00,4.3807
2895.00,4.1582
2894.00,3.9997
2893.00,3.8505
2892.00,3.7474
2891.00,3.7356
2890.00,3.7782
2889.00,3.8051
2888.00,3.8055
2887.00,3.8177
2886.00,3.8767
2885.00,4.0066
2884.00,4.2642
2883.00,4.6666
2882.00,4.7685
2881.00,4.4748
2880.00,4.2269
2879.00,4.1095
2878.00,4.1017
2877.00,4.2211
2876.00,4.4268
2875.00,4.6362
2874.00,4.6612
2873.00,4.6774
2872.00,4.8400
2871.00,4.4853
2870.00,4.1647
2869.00,4.0389
2868.00,4.0624
2867.00,4.0162
2866.00,3.9392
2865.00,3.9356
2864.00,3.9985
2863.00,4.0625
2862.00,4.2064
2861.00,4.4195
2860.00,4.2127
2859.00,3.9629
2858.00,3.9009
2857.00,4.1004
2856.00,4.2655
2855.00,4.0609
2854.00,3.8864
2853.00,3.8501
2852.00,3.8873
2851.00,3.9329
2850.00,4.1229
2849.00,4.5791
2848.00,5.3750
2847.00,6.2412
2846.00,4.7722
2845.00,4.2809
2844.00,4.0033
2843.00,3.9961
2842.00,4.1503
2841.00,4.1599
2840.00,4.0039
2839.00,3.7095
2838.00,3.4083
2837.00,3.1302
2836.00,2.9013
2835.00,2.7044
2834.00,2.5268
2833.00,2.3663
2832.00,2.2198
2831.00,2.0876
2830.00,1.9693
2829.00,1.8631
2828.00,1.7675
2827.00,1.6814
2826.00,1.6040
2825.00,1.5344
2824.00,1.4717
2823.00,1.4149
2822.00,1.3630
2821.00,1.3152
2820.00,1.2710
2819.00,1.2299
2818.00,1.1917
2817.00,1.1562
2816.00,1.1230
2815.00,1.0920
2814.00,1.0631
2813.00,1.0360
2812.00,1.0105
2811.00,0.9865
2810.00,0.9638
2809.00,0.9421
2808.00,0.9215
2807.00,0.9018
2806.00,0.8832
2805.00,0.8656
2804.00,0.8488
2803.00,0.8330
2802.00,0.8180
2801.00,0.8037
2800.00,0.7900
2799.00,0.7769
2798.00,0.7644
2797.00,0.7523
2796.00,0.7407
2795.00,0.7294
2794.00,0.7185
2793.00,0.7080
2792.00,0.6979
2791.00,0.6881
2790.00,0.6785
2789.00,0.6691
2788.00,0.6597
2787.00,0.6506
2786.00,0.6416
2785.00,0.6328
2784.00,0.6244
2783.00,0.6163
2782.00,0.6084
2781.00,0.6009
2780.00,0.5937
2779.00,0.5868
2778.00,0.5802
2777.00,0.5740
2776.00,0.5680
2775.00,0.5624
2774.00,0.5571
2773.00,0.5521
2772.00,0.5475
2771.00,0.5432
2770.00,0.5392
2769.00,0.5356
2768.00,0.5324
2767.00,0.5294
2766.00,0.5267
2765.00,0.5244
2764.00,0.5224
2763.00,0.5207
2762.00,0.5192
2761.00,0.5178
2760.00,0.5166
2759.00,0.5154
2758.00,0.5142
2757.00,0.5131
2756.00,0.5120
2755.00,0.5110
2754.00,0.5102
2753.00,0.5095
2752.00,0.5090
2751.00,0.5087
2750.00,0.5086
2749.00,0.5088
2748.00,0.5091
2747.00,0.5097
2746.00,0.5103
2745.00,0.5113
2744.00,0.5125
2743.00,0.5140
2742.00,0.5159
2741.00,0.5182
2740.00,0.5210
2739.00,0.5241
2738.00,0.5277
2737.00,0.5318
2736.00,0.5363
2735.00,0.5412
2734.00,0.5464
2733.00,0.5515
2732.00,0.5564
2731.00,0.5604
2730.00,0.5635
2729.00,0.5654
2728.00,0.5661
2727.00,0.5660
2726.00,0.5651
2725.00,0.5636
2724.00,0.5617
2723.00,0.5595
2722.00,0.5568
2721.00,0.5539
2720.00,0.5507
2719.00,0.5472
2718.00,0.5434
2717.00,0.5394
2716.00,0.5350
2715.00,0.5306
2714.00,0.5261
2713.00,0.5217
2712.00,0.5176
2711.00,0.5137
2710.00,0.5102
2709.00,0.5072
2708.00,0.5046
2707.00,0.5024
2706.00,0.5006
2705.00,0.4991
2704.00,0.4980
2703.00,0.4970
2702.00,0.4964
2701.00,0.4960
2700.00,0.4958
2699.00,0.4958
2698.00,0.4960
2697.00,0.4964
2696.00,0.4970
2695.00,0.4978
2694.00,0.4986
2693.00,0.4996
2692.00,0.5005
2691.00,0.5015
2690.00,0.5024
2689.00,0.5033
2688.00,0.5041
2687.00,0.5049
2686.00,0.5055
2685.00,0.5061
2684.00,0.5066
2683.00,0.5070
2682.00,0.5073
2681.00,0.5076
2680.00,0.5078
2679.00,0.5082
2678.00,0.5086
2677.00,0.5090
2676.00,0.5095
2675.00,0.5098
2674.00,0.5101
2673.00,0.5104
2672.00,0.5105
2671.00,0.5105
2670.00,0.5102
2669.00,0.5096
2668.00,0.5088
2667.00,0.5077
2666.00,0.5065
2665.00,0.5051
2664.00,0.5035
2663.00,0.5017
2662.00,0.4999
2661.00,0.4979
2660.00,0.4959
2659.00,0.4939
2658.00,0.4919
2657.00,0.4899
2656.00,0.4880
2655.00,0.4860
2654.00,0.4841
2653.00,0.4824
2652.00,0.4807
2651.00,0.4791
2650.00,0.4776
2649.00,0.4761
2648.00,0.4747
2647.00,0.4733
2646.00,0.4720
2645.00,0.4707
2644.00,0.4696
2643.00,0.4685
2642.00,0.4673
2641.00,0.4661
2640.00,0.4650
2639.00,0.4639
2638.00,0.4629
2637.00,0.4620
2636.00,0.4611
2635.00,0.4602
2634.00,0.4594
2633.00,0.4586
2632.00,0.4578
2631.00,0.4569
2630.00,0.4561
2629.00,0.4553
2628.00,0.4545
2627.00,0.4537
2626.00,0.4529
2625.00,0.4521
2624.00,0.4512
2623.00,0.4504
2622.00,0.4495
2621.00,0.4487
2620.00,0.4479
2619.00,0.4471
2618.00,0.4464
2617.00,0.4455
2616.00,0.4447
2615.00,0.4437
2614.00,0.4427
2613.00,0.4417
2612.00,0.4407
2611.00,0.4397
2610.00,0.4388
2609.00,0.4378
2608.00,0.4368
2607.00,0.4357
2606.00,0.4347
2605.00,0.4336
2604.00,0.4325
2603.00,0.4314
2602.00,0.4302
2601.00,0.4290
2600.00,0.4278
2599.00,0.4266
2598.00,0.4254
2597.00,0.4241
2596.00,0.4227
2595.00,0.4213
2594.00,0.4198
2593.00,0.4184
2592.00,0.4169
2591.00,0.4154
2590.00,0.4138
2589.00,0.4123
2588.00,0.4107
2587.00,0.4092
2586.00,0.4077
2585.00,0.4061
2584.00,0.4046
2583.00,0.4030
2582.00,0.4013
2581.00,0.3996
2580.00,0.3979
2579.00,0.3961
2578.00,0.3943
2577.00,0.3926
2576.00,0.3909
2575.00,0.3892
2574.00,0.3876
2573.00,0.3860
2572.00,0.3845
2571.00,0.3830
2570.00,0.3815
2569.00,0.3800
2568.00,0.3785
2567.00,0.3770
2566.00,0.3755
2565.00,0.3740
2564.00,0.3726
2563.00,0.3712
2562.00,0.3698
2561.00,0.3686
2560.00,0.3674
2559.00,0.3662
2558.00,0.3651
2557.00,0.3640
2556.00,0.3629
2555.00,0.3618
2554.00,0.3607
2553.00,0.3597
2552.00,0.3586
2551.00,0.3576
2550.00,0.3566
2549.00,0.3557
2548.00,0.3549
2547.00,0.3540
2546.00,0.3532
2545.00,0.3524
2544.00,0.3515
2543.00,0.3507
2542.00,0.3498
2541.00,0.3490
2540.00,0.3482
2539.00,0.3475
2538.00,0.3467
2537.00,0.3460
2536.00,0.3453
2535.00,0.3446
2534.00,0.3439
2533.00,0.3431
2532.00,0.3422
2531.00,0.3413
2530.00,0.3405
2529.00,0.3396
2528.00,0.3388
2527.00,0.3378
2526.00,0.3368
2525.00,0.3359
2524.00,0.3350
2523.00,0.3342
2522.00,0.3333
2521.00,0.3323
2520.00,0.3314
2519.00,0.3305
2518.00,0.3296
2517.00,0.3288
2516.00,0.3281
2515.00,0.3273
2514.00,0.3266
2513.00,0.3260
2512.00,0.3253
2511.00,0.3247
2510.00,0.3240
2509.00,0.3233
2508.00,0.3227
2507.00,0.3220
2506.00,0.3214
2505.00,0.3208
2504.00,0.3203
2503.00,0.3197
2502.00,0.3191
2501.00,0.3186
2500.00,0.3180
2499.00,0.3175
2498.00,0.3170
2497.00,0.3166
2496.00,0.3161
2495.00,0.3157
2494.00,0.3152
2493.00,0.3148
2492.00,0.3143
2491.00,0.3138
2490.00,0.3134
2489.00,0.3130
2488.00,0.3127
2487.00,0.3124
2486.00,0.3120
2485.00,0.3117
2484.00,0.3113
2483.00,0.3109
2482.00,0.3106
2481.00,0.3102
2480.00,0.3099
2479.00,0.3096
2478.00,0.3093
2477.00,0.3090
2476.00,0.3088
2475.00,0.3085
2474.00,0.3082
2473.00,0.3079
2472.00,0.3076
2471.00,0.3074
2470.00,0.3071
2469.00,0.3068
2468.00,0.3066
2467.00,0.3063
2466.00,0.3059
2465.00,0.3056
2464.00,0.3053
2463.00,0.3049
2462.00,0.3046
2461.00,0.3043
2460.00,0.3041
2459.00,0.3038
2458.00,0.3036
2457.00,0.3034
2456.00,0.3032
2455.00,0.3030
2454.00,0.3028
2453.00,0.3026
2452.00,0.3024
2451.00,0.3023
2450.00,0.3022
2449.00,0.3022
2448.00,0.3021
2447.00,0.3021
2446.00,0.3020
2445.00,0.3020
2444.00,0.3021
2443.00,0.3021
2442.00,0.3021
2441.00,0.3021
2440.00,0.3022
2439.00,0.3022
2438.00,0.3022
2437.00,0.3023
2436.00,0.3024
2435.00,0.3025
2434.00,0.3026
2433.00,0.3026
2432.00,0.3026
2431.00,0.3026
2430.00,0.3026
2429.00,0.3027
2428.00,0.3027
2427.00,0.3028
2426.00,0.3028
2425.00,0.3028
2424.00,0.3029
2423.00,0.3029
2422.00,0.3029
2421.00,0.3030
2420.00,0.3030
2419.00,0.3031
2418.00,0.3031
2417.00,0.3031
2416.00,0.3031
2415.00,0.3032
2414.00,0.3032
2413.00,0.3032
2412.00,0.3032
2411.00,0.3032
2410.00,0.3032
2409.00,0.3031
2408.00,0.3031
2407.00,0.3030
2406.00,0.3030
2405.00,0.3029
2404.00,0.3029
2403.00,0.3028
2402.00,0.3028
2401.00,0.3027
2400.00,0.3025
2399.00,0.3023
2398.00,0.3021
2397.00,0.3020
2396.00,0.3019
2395.00,0.3017
2394.00,0.3016
2393.00,0.3015
2392.00,0.3013
2391.00,0.3012
2390.00,0.3012
2389.00,0.3011
2388.00,0.3010
2387.00,0.3009
2386.00,0.3008
2385.00,0.3008
2384.00,0.3008
2383.00,0.3009
2382.00,0.3009
2381.00,0.3010
2380.00,0.3010
2379.00,0.3010
2378.00,0.3009
2377.00,0.3008
2376.00,0.3008
2375.00,0.3007
2374.00,0.3007
2373.00,0.3006
2372.00,0.3006
2371.00,0.3004
2370.00,0.3002
2369.00,0.3001
2368.00,0.3000
2367.00,0.2999
2366.00,0.2998
2365.00,0.2997
2364.00,0.2996
2363.00,0.2995
2362.00,0.2995
2361.00,0.2997
2360.00,0.2998
2359.00,0.2998
2358.00,0.2997
2357.00,0.2997
2356.00,0.2998
2355.00,0.2997
2354.00,0.2997
2353.00,0.2995
2352.00,0.2993
2351.00,0.2991
2350.00,0.2990
2349.00,0.2989
2348.00,0.2988
2347.00,0.2987
2346.00,0.2984
2345.00,0.2981
2344.00,0.2980
2343.00,0.2980
2342.00,0.2981
2341.00,0.2981
2340.00,0.2981
2339.00,0.2981
2338.00,0.2979
2337.00,0.2978
2336.00,0.2977
2335.00,0.2975
2334.00,0.2974
2333.00,0.2971
2332.00,0.2969
2331.00,0.2967
2330.00,0.2964
2329.00,0.2962
2328.00,0.2960
2327.00,0.2959
2326.00,0.2957
2325.00,0.2956
2324.00,0.2954
2323.00,0.2951
2322.00,0.2949
2321.00,0.2946
2320.00,0.2944
2319.00,0.2942
2318.00,0.2941
2317.00,0.2940
2316.00,0.2938
2315.00,0.2936
2314.00,0.2934
2313.00,0.2931
2312.00,0.2929
2311.00,0.2926
2310.00,0.2923
2309.00,0.2919
2308.00,0.2916
2307.00,0.2912
2306.00,0.2909
2305.00,0.2907
2304.00,0.2904
2303.00,0.2901
2302.00,0.2898
2301.00,0.2895
2300.00,0.2891
2299.00,0.2888
2298.00,0.2884
2297.00,0.2880
2296.00,0.2877
2295.00,0.2873
2294.00,0.2869
2293.00,0.2866
2292.00,0.2862
2291.00,0.2858
2290.00,0.2855
2289.00,0.2852
2288.00,0.2849
2287.00,0.2846
2286.00,0.2843
2285.00,0.2841
2284.00,0.2839
2283.00,0.2837
2282.00,0.2834
2281.00,0.2832
2280.00,0.2829
2279.00,0.2826
2278.00,0.2824
2277.00,0.2821
2276.00,0.2819
2275.00,0.2817
2274.00,0.2815
2273.00,0.2813
2272.00,0.2811
2271.00,0.2809
2270.00,0.2808
2269.00,0.2807
2268.00,0.2806
2267.00,0.2804
2266.00,0.2801
2265.00,0.2799
2264.00,0.2796
2263.00,0.2794
2262.00,0.2791
2261.00,0.2788
2260.00,0.2785
2259.00,0.2782
2258.00,0.2778
2257.00,0.2775
2256.00,0.2772
2255.00,0.2769
2254.00,0.2766
2253.00,0.2763
2252.00,0.2760
2251.00,0.2758
2250.00,0.2755
2249.00,0.2753
2248.00,0.2751
2247.00,0.2749
2246.00,0.2747
2245.00,0.2746
2244.00,0.2745
2243.00,0.2743
2242.00,0.2742
2241.00,0.2740
2240.00,0.2739
2239.00,0.2739
2238.00,0.2738
2237.00,0.2738
2236.00,0.2738
2235.00,0.2738
2234.00,0.2737
2233.00,0.2736
2232.00,0.2736
2231.00,0.2735
2230.00,0.2734
2229.00,0.2733
2228.00,0.2731
2227.00,0.2729
2226.00,0.2727
2225.00,0.2726
2224.00,0.2725
2223.00,0.2723
2222.00,0.2721
2221.00,0.2719
2220.00,0.2718
2219.00,0.2716
2218.00,0.2715
2217.00,0.2713
2216.00,0.2712
2215.00,0.2711
2214.00,0.2709
2213.00,0.2708
2212.00,0.2708
2211.00,0.2707
2210.00,0.2707
2209.00,0.2707
2208.00,0.2707
2207.00,0.2707
2206.00,0.2707
2205.00,0.2708
2204.00,0.2709
2203.00,0.2709
2202.00,0.2709
2201.00,0.2709
2200.00,0.2710
2199.00,0.2711
2198.00,0.2712
2197.00,0.2713
2196.00,0.2714
2195.00,0.2714
2194.00,0.2714
2193.00,0.2714
2192.00,0.2715
2191.00,0.2715
2190.00,0.2714
2189.00,0.2714
2188.00,0.2713
2187.00,0.2712
2186.00,0.2711
2185.00,0.2711
2184.00,0.2710
2183.00,0.2709
2182.00,0.2707
2181.00,0.2706
2180.00,0.2704
2179.00,0.2702
2178.00,0.2701
2177.00,0.2700
2176.00,0.2699
2175.00,0.2697
2174.00,0.2695
2173.00,0.2694
2172.00,0.2693
2171.00,0.2692
2170.00,0.2691
2169.00,0.2690
2168.00,0.2689
2167.00,0.2688
2166.00,0.2688
2165.00,0.2687
2164.00,0.2687
2163.00,0.2687
2162.00,0.2686
2161.00,0.2685
2160.00,0.2684
2159.00,0.2683
2158.00,0.2682
2157.00,0.2681
2156.00,0.2679
2155.00,0.2678
2154.00,0.2676
2153.00,0.2675
2152.00,0.2673
2151.00,0.2671
2150.00,0.2668
2149.00,0.2665
2148.00,0.2661
2147.00,0.2657
2146.00,0.2653
2145.00,0.2650
2144.00,0.2646
2143.00,0.2641
2142.00,0.2636
2141.00,0.2631
2140.00,0.2627
2139.00,0.2623
2138.00,0.2619
2137.00,0.2616
2136.00,0.2614
2135.00,0.2612
2134.00,0.2610
2133.00,0.2609
2132.00,0.2607
2131.00,0.2605
2130.00,0.2603
2129.00,0.2603
2128.00,0.2602
2127.00,0.2602
2126.00,0.2601
2125.00,0.2600
2124.00,0.2599
2123.00,0.2598
2122.00,0.2597
2121.00,0.2597
2120.00,0.2597
2119.00,0.2596
2118.00,0.2595
2117.00,0.2594
2116.00,0.2593
2115.00,0.2592
2114.00,0.2591
2113.00,0.2590
2112.00,0.2588
2111.00,0.2586
2110.00,0.2585
2109.00,0.2583
2108.00,0.2582
2107.00,0.2581
2106.00,0.2580
2105.00,0.2579
2104.00,0.2578
2103.00,0.2577
2102.00,0.2576
2101.00,0.2575
2100.00,0.2574
2099.00,0.2573
2098.00,0.2573
2097.00,0.2573
2096.00,0.2572
2095.00,0.2572
2094.00,0.2572
2093.00,0.2572
2092.00,0.2573
2091.00,0.2573
2090.00,0.2572
2089.00,0.2572
2088.00,0.2572
2087.00,0.2572
2086.00,0.2573
2085.00,0.2574
2084.00,0.2574
2083.00,0.2574
2082.00,0.2574
2081.00,0.2574
2080.00,0.2575
2079.00,0.2575
2078.00,0.2575
2077.00,0.2575
2076.00,0.2576
2075.00,0.2576
2074.00,0.2576
2073.00,0.2576
2072.00,0.2577
2071.00,0.2577
2070.00,0.2576
2069.00,0.2577
2068.00,0.2577
2067.00,0.2578
2066.00,0.2579
2065.00,0.2581
2064.00,0.2581
2063.00,0.2582
2062.00,0.2582
2061.00,0.2583
2060.00,0.2584
2059.00,0.2585
2058.00,0.2586
2057.00,0.2586
2056.00,0.2588
2055.00,0.2589
2054.00,0.2590
2053.00,0.2592
2052.00,0.2594
2051.00,0.2595
2050.00,0.2597
2049.00,0.2598
2048.00,0.2600
2047.00,0.2602
2046.00,0.2604
2045.00,0.2607
2044.00,0.2609
2043.00,0.2611
2042.00,0.2612
2041.00,0.2613
2040.00,0.2614
2039.00,0.2615
2038.00,0.2616
2037.00,0.2617
2036.00,0.2618
2035.00,0.2619
2034.00,0.2619
2033.00,0.2619
2032.00,0.2619
2031.00,0.2619
2030.00,0.2619
2029.00,0.2619
2028.00,0.2619
2027.00,0.2618
2026.00,0.2617
2025.00,0.2617
2024.00,0.2616
2023.00,0.2614
2022.00,0.2610
2021.00,0.2607
2020.00,0.2603
2019.00,0.2598
2018.00,0.2593
2017.00,0.2588
2016.00,0.2582
2015.00,0.2576
2014.00,0.2570
2013.00,0.2564
2012.00,0.2560
2011.00,0.2555
2010.00,0.2551
2009.00,0.2547
2008.00,0.2544
2007.00,0.2541
2006.00,0.2538
2005.00,0.2535
2004.00,0.2533
2003.00,0.2531
2002.00,0.2529
2001.00,0.2528
2000.00,0.2527
1999.00,0.2526
1998.00,0.2525
1997.00,0.2524
1996.00,0.2523
1995.00,0.2522
1994.00,0.2522
1993.00,0.2521
1992.00,0.2521
1991.00,0.2520
1990.00,0.2519
1989.00,0.2519
1988.00,0.2519
1987.00,0.2517
1986.00,0.2516
1985.00,0.2515
1984.00,0.2514
1983.00,0.2514
1982.00,0.2513
1981.00,0.2513
1980.00,0.2513
1979.00,0.2512
1978.00,0.2511
1977.00,0.2511
1976.00,0.2510
1975.00,0.2510
1974.00,0.2509
1973.00,0.2509
1972.00,0.2509
1971.00,0.2509
1970.00,0.2510
1969.00,0.2512
1968.00,0.2513
1967.00,0.2514
1966.00,0.2514
1965.00,0.2514
1964.00,0.2515
1963.00,0.2515
1962.00,0.2515
1961.00,0.2517
1960.00,0.2518
1959.00,0.2520
1958.00,0.2521
1957.00,0.2523
1956.00,0.2526
1955.00,0.2528
1954.00,0.2529
1953.00,0.2530
1952.00,0.2531
1951.00,0.2531
1950.00,0.2531
1949.00,0.2531
1948.00,0.2533
1947.00,0.2535
1946.00,0.2537
1945.00,0.2540
1944.00,0.2545
1943.00,0.2549
1942.00,0.2553
1941.00,0.2557
1940.00,0.2560
1939.00,0.2564
1938.00,0.2565
1937.00,0.2565
1936.00,0.2564
1935.00,0.2562
1934.00,0.2561
1933.00,0.2560
1932.00,0.2561
1931.00,0.2561
1930.00,0.2562
1929.00,0.2563
1928.00,0.2564
1927.00,0.2564
1926.00,0.2566
1925.00,0.2568
1924.00,0.2573
1923.00,0.2577
1922.00,0.2580
1921.00,0.2583
1920.00,0.2585
1919.00,0.2589
1918.00,0.2593
1917.00,0.2596
1916.00,0.2600
1915.00,0.2602
1914.00,0.2603
1913.00,0.2604
1912.00,0.2605
1911.00,0.2607
1910.00,0.2609
1909.00,0.2610
1908.00,0.2610
1907.00,0.2609
1906.00,0.2608
1905.00,0.2607
1904.00,0.2607
1903.00,0.2607
1902.00,0.2607
1901.00,0.2608
1900.00,0.2608
1899.00,0.2609
1898.00,0.2610
1897.00,0.2612
1896.00,0.2615
1895.00,0.2616
1894.00,0.2617
1893.00,0.2617
1892.00,0.2619
1891.00,0.2621
1890.00,0.2623
1889.00,0.2624
1888.00,0.2625
1887.00,0.2626
1886.00,0.2627
1885.00,0.2627
1884.00,0.2628
1883.00,0.2628
1882.00,0.2627
1881.00,0.2628
1880.00,0.2628
1879.00,0.2627
1878.00,0.2625
1877.00,0.2624
1876.00,0.2623
1875.00,0.2621
1874.00,0.2619
1873.00,0.2617
1872.00,0.2615
1871.00,0.2613
1870.00,0.2612
1869.00,0.2612
1868.00,0.2613
1867.00,0.2611
1866.00,0.2608
1865.00,0.2605
1864.00,0.2602
1863.00,0.2599
1862.00,0.2596
1861.00,0.2593
1860.00,0.2591
1859.00,0.2588
1858.00,0.2585
1857.00,0.2583
1856.00,0.2581
1855.00,0.2579
1854.00,0.2578
1853.00,0.2576
1852.00,0.2575
1851.00,0.2574
1850.00,0.2574
1849.00,0.2573
1848.00,0.2573
1847.00,0.2571
1846.00,0.2569
1845.00,0.2567
1844.00,0.2566
1843.00,0.2565
1842.00,0.2566
1841.00,0.2567
1840.00,0.2568
1839.00,0.2568
1838.00,0.2567
1837.00,0.2567
1836.00,0.2566
1835.00,0.2565
1834.00,0.2563
1833.00,0.2561
1832.00,0.2560
1831.00,0.2560
1830.00,0.2561
1829.00,0.2560
1828.00,0.2559
1827.00,0.2557
1826.00,0.2556
1825.00,0.2556
1824.00,0.2556
1823.00,0.2557
1822.00,0.2557
1821.00,0.2556
1820.00,0.2556
1819.00,0.2556
1818.00,0.2556
1817.00,0.2556
1816.00,0.2558
1815.00,0.2558
1814.00,0.2559
1813.00,0.2562
1812.00,0.2566
1811.00,0.2569
1810.00,0.2570
1809.00,0.2572
1808.00,0.2574
1807.00,0.2576
1806.00,0.2579
1805.00,0.2582
1804.00,0.2586
1803.00,0.2590
1802.00,0.2595
1801.00,0.2602
1800.00,0.2610
1799.00,0.2616
1798.00,0.2622
1797.00,0.2628
1796.00,0.2633
1795.00,0.2635
1794.00,0.2637
1793.00,0.2640
1792.00,0.2645
1791.00,0.2649
1790.00,0.2653
1789.00,0.2658
1788.00,0.2662
1787.00,0.2665
1786.00,0.2666
1785.00,0.2669
1784.00,0.2673
1783.00,0.2678
1782.00,0.2684
1781.00,0.2690
1780.00,0.2695
1779.00,0.2699
1778.00,0.2702
1777.00,0.2706
1776.00,0.2711
1775.00,0.2717
1774.00,0.2723
1773.00,0.2732
1772.00,0.2740
1771.00,0.2745
1770.00,0.2749
1769.00,0.2756
1768.00,0.2766
1767.00,0.2776
1766.00,0.2787
1765.00,0.2798
1764.00,0.2809
1763.00,0.2823
1762.00,0.2838
1761.00,0.2857
1760.00,0.2878
1759.00,0.2899
1758.00,0.2921
1757.00,0.2947
1756.00,0.2975
1755.00,0.3004
1754.00,0.3033
1753.00,0.3065
1752.00,0.3102
1751.00,0.3143
1750.00,0.3183
1749.00,0.3221
1748.00,0.3252
1747.00,0.3277
1746.00,0.3295
1745.00,0.3311
1744.00,0.3323
1743.00,0.3330
1742.00,0.3332
1741.00,0.3332
1740.00,0.3331
1739.00,0.3328
1738.00,0.3322
1737.00,0.3317
1736.00,0.3312
1735.00,0.3305
1734.00,0.3298
1733.00,0.3293
1732.00,0.3290
1731.00,0.3286
1730.00,0.3283
1729.00,0.3282
1728.00,0.3285
1727.00,0.3292
1726.00,0.3304
1725.00,0.3323
1724.00,0.3349
1723.00,0.3379
1722.00,0.3410
1721.00,0.3446
1720.00,0.3492
1719.00,0.3560
1718.00,0.3656
1717.00,0.3771
1716.00,0.3890
1715.00,0.4013
1714.00,0.4145
1713.00,0.4285
1712.00,0.4422
1711.00,0.4553
1710.00,0.4671
1709.00,0.4764
1708.00,0.4819
1707.00,0.4838
1706.00,0.4818
1705.00,0.4758
1704.00,0.4674
1703.00,0.4583
1702.00,0.4474
1701.00,0.4325
1700.00,0.4156
1699.00,0.4028
1698.00,0.3946
1697.00,0.3870
1696.00,0.3773
1695.00,0.3671
1694.00,0.3594
1693.00,0.3543
1692.00,0.3502
1691.00,0.3465
1690.00,0.3429
1689.00,0.3398
1688.00,0.3375
1687.00,0.3357
1686.00,0.3341
1685.00,0.3323
1684.00,0.3296
1683.00,0.3267
1682.00,0.3250
1681.00,0.3243
1680.00,0.3235
1679.00,0.3222
1678.00,0.3207
1677.00,0.3193
1676.00,0.3181
1675.00,0.3173
1674.00,0.3171
1673.00,0.3172
1672.00,0.3172
1671.00,0.3171
1670.00,0.3169
1669.00,0.3167
1668.00,0.3166
1667.00,0.3166
1666.00,0.3165
1665.00,0.3165
1664.00,0.3164
1663.00,0.3165
1662.00,0.3167
1661.00,0.3171
1660.00,0.3175
1659.00,0.3177
1658.00,0.3179
1657.00,0.3181
1656.00,0.3184
1655.00,0.3191
1654.00,0.3204
1653.00,0.3221
1652.00,0.3232
1651.00,0.3238
1650.00,0.3240
1649.00,0.3246
1648.00,0.3259
1647.00,0.3272
1646.00,0.3281
1645.00,0.3292
1644.00,0.3304
1643.00,0.3316
1642.00,0.3329
1641.00,0.3345
1640.00,0.3361
1639.00,0.3377
1638.00,0.3394
1637.00,0.3416
1636.00,0.3441
1635.00,0.3461
1634.00,0.3481
1633.00,0.3505
1632.00,0.3529
1631.00,0.3552
1630.00,0.3574
1629.00,0.3600
1628.00,0.3630
1627.00,0.3659
1626.00,0.3688
1625.00,0.3723
1624.00,0.3766
1623.00,0.3816
1622.00,0.3868
1621.00,0.3922
1620.00,0.3980
1619.00,0.4046
1618.00,0.4130
1617.00,0.4239
1616.00,0.4359
1615.00,0.4465
1614.00,0.4558
1613.00,0.4652
1612.00,0.4754
1611.00,0.4858
1610.00,0.4961
1609.00,0.5066
1608.00,0.5168
1607.00,0.5260
1606.00,0.5339
1605.00,0.5413
1604.00,0.5486
1603.00,0.5556
1602.00,0.5623
1601.00,0.5695
1600.00,0.5778
1599.00,0.5868
1598.00,0.5970
1597.00,0.6098
1596.00,0.6266
1595.00,0.6478
1594.00,0.6739
1593.00,0.7069
1592.00,0.7490
1591.00,0.8017
1590.00,0.8673
1589.00,0.9506
1588.00,1.0573
1587.00,1.1908
1586.00,1.3527
1585.00,1.5474
1584.00,1.7815
1583.00,2.0307
1582.00,2.1853
1581.00,2.1623
1580.00,2.0347
1579.00,1.8541
1578.00,1.6410
1577.00,1.4293
1576.00,1.2510
1575.00,1.1220
1574.00,1.0364
1573.00,0.9788
1572.00,0.9367
1571.00,0.9031
1570.00,0.8781
1569.00,0.8668
1568.00,0.8716
1567.00,0.8912
1566.00,0.9263
1565.00,0.9804
1564.00,1.0516
1563.00,1.1278
1562.00,1.1951
1561.00,1.2450
1560.00,1.2524
1559.00,1.1734
1558.00,1.0552
1557.00,0.9638
1556.00,0.8933
1555.00,0.8249
1554.00,0.7599
1553.00,0.7067
1552.00,0.6671
1551.00,0.6353
1550.00,0.6075
1549.00,0.5845
1548.00,0.5674
1547.00,0.5544
1546.00,0.5433
1545.00,0.5336
1544.00,0.5258
1543.00,0.5196
1542.00,0.5143
1541.00,0.5097
1540.00,0.5047
1539.00,0.4987
1538.00,0.4933
1537.00,0.4894
1536.00,0.4864
1535.00,0.4833
1534.00,0.4800
1533.00,0.4774
1532.00,0.4763
1531.00,0.4763
1530.00,0.4768
1529.00,0.4777
1528.00,0.4788
1527.00,0.4793
1526.00,0.4789
1525.00,0.4782
1524.00,0.4780
1523.00,0.4782
1522.00,0.4788
1521.00,0.4801
1520.00,0.4822
1519.00,0.4849
1518.00,0.4880
1517.00,0.4918
1516.00,0.4951
1515.00,0.4969
1514.00,0.4976
1513.00,0.4980
1512.00,0.4988
1511.00,0.4999
1510.00,0.5018
1509.00,0.5057
1508.00,0.5130
1507.00,0.5232
1506.00,0.5342
1505.00,0.5449
1504.00,0.5544
1503.00,0.5624
1502.00,0.5696
1501.00,0.5768
1500.00,0.5840
1499.00,0.5909
1498.00,0.5984
1497.00,0.6078
1496.00,0.6187
1495.00,0.6293
1494.00,0.6391
1493.00,0.6496
1492.00,0.6617
1491.00,0.6761
1490.00,0.6929
1489.00,0.7119
1488.00,0.7321
1487.00,0.7528
1486.00,0.7757
1485.00,0.8023
1484.00,0.8330
1483.00,0.8683
1482.00,0.9106
1481.00,0.9611
1480.00,1.0175
1479.00,1.0778
1478.00,1.1458
1477.00,1.2280
1476.00,1.3258
1475.00,1.4381
1474.00,1.5748
1473.00,1.7594
1472.00,2.0031
1471.00,2.2814
1470.00,2.5671
1469.00,2.8849
1468.00,3.2618
1467.00,3.6598
1466.00,4.1621
1465.00,3.9000
1464.00,3.7700
1463.00,4.1651
1462.00,4.1161
1461.00,3.8162
1460.00,3.6887
1459.00,3.6671
1458.00,3.6376
1457.00,3.7412
1456.00,3.6943
1455.00,3.4458
1454.00,3.4301
1453.00,3.6289
1452.00,3.7116
1451.00,3.4936
1450.00,3.3896
1449.00,3.4500
1448.00,3.3851
1447.00,3.1342
1446.00,2.9413
1445.00,2.8032
1444.00,2.6532
1443.00,2.4943
1442.00,2.3582
1441.00,2.2438
1440.00,2.1337
1439.00,2.0203
1438.00,1.9014
1437.00,1.7741
1436.00,1.6487
1435.00,1.5414
1434.00,1.4518
1433.00,1.3689
1432.00,1.2859
1431.00,1.2047
1430.00,1.1304
1429.00,1.0665
1428.00,1.0145
1427.00,0.9737
1426.00,0.9409
1425.00,0.9128
1424.00,0.8890
1423.00,0.8706
1422.00,0.8571
1421.00,0.8460
1420.00,0.8353
1419.00,0.8250
1418.00,0.8162
1417.00,0.8091
1416.00,0.8036
1415.00,0.7995
1414.00,0.7964
1413.00,0.7940
1412.00,0.7925
1411.00,0.7918
1410.00,0.7910
1409.00,0.7886
1408.00,0.7837
1407.00,0.7763
1406.00,0.7658
1405.00,0.7525
1404.00,0.7382
1403.00,0.7250
1402.00,0.7136
1401.00,0.7031
1400.00,0.6935
1399.00,0.6860
1398.00,0.6810
1397.00,0.6783
1396.00,0.6782
1395.00,0.6818
1394.00,0.6896
1393.00,0.7020
1392.00,0.7201
1391.00,0.7459
1390.00,0.7815
1389.00,0.8307
1388.00,0.8983
1387.00,0.9856
1386.00,1.0854
1385.00,1.1890
1384.00,1.2948
1383.00,1.4081
1382.00,1.5331
1381.00,1.6726
1380.00,1.8291
1379.00,1.9923
1378.00,2.1224
1377.00,2.1685
1376.00,2.1169
1375.00,1.9882
1374.00,1.8231
1373.00,1.6664
1372.00,1.5392
1371.00,1.4416
1370.00,1.3695
1369.00,1.3206
1368.00,1.2908
1367.00,1.2696
1366.00,1.2422
1365.00,1.1978
1364.00,1.1355
1363.00,1.0647
1362.00,0.9985
1361.00,0.9451
1360.00,0.9054
1359.00,0.8764
1358.00,0.8552
1357.00,0.8399
1356.00,0.8295
1355.00,0.8231
1354.00,0.8196
1353.00,0.8178
1352.00,0.8165
1351.00,0.8151
1350.00,0.8131
1349.00,0.8105
1348.00,0.8074
1347.00,0.8044
1346.00,0.8017
1345.00,0.7994
1344.00,0.7976
1343.00,0.7958
1342.00,0.7933
1341.00,0.7892
1340.00,0.7826
1339.00,0.7735
1338.00,0.7621
1337.00,0.7491
1336.00,0.7351
1335.00,0.7205
1334.00,0.7063
1333.00,0.6929
1332.00,0.6810
1331.00,0.6711
1330.00,0.6631
1329.00,0.6568
1328.00,0.6523
1327.00,0.6493
1326.00,0.6477
1325.00,0.6471
1324.00,0.6472
1323.00,0.6477
1322.00,0.6484
1321.00,0.6491
1320.00,0.6497
1319.00,0.6505
1318.00,0.6517
1317.00,0.6534
1316.00,0.6558
1315.00,0.6589
1314.00,0.6625
1313.00,0.6665
1312.00,0.6706
1311.00,0.6746
1310.00,0.6783
1309.00,0.6816
1308.00,0.6842
1307.00,0.6863
1306.00,0.6874
1305.00,0.6874
1304.00,0.6859
1303.00,0.6830
1302.00,0.6790
1301.00,0.6742
1300.00,0.6689
1299.00,0.6634
1298.00,0.6578
1297.00,0.6522
1296.00,0.6467
1295.00,0.6418
1294.00,0.6373
1293.00,0.6331
1292.00,0.6292
1291.00,0.6256
1290.00,0.6221
1289.00,0.6186
1288.00,0.6151
1287.00,0.6116
1286.00,0.6080
1285.00,0.6040
1284.00,0.5997
1283.00,0.5956
1282.00,0.5920
1281.00,0.5889
1280.00,0.5863
1279.00,0.5840
1278.00,0.5817
1277.00,0.5792
1276.00,0.5767
1275.00,0.5743
1274.00,0.5723
1273.00,0.5705
1272.00,0.5691
1271.00,0.5682
1270.00,0.5678
1269.00,0.5673
1268.00,0.5662
1267.00,0.5638
1266.00,0.5603
1265.00,0.5560
1264.00,0.5517
1263.00,0.5481
1262.00,0.5454
1261.00,0.5432
1260.00,0.5416
1259.00,0.5402
1258.00,0.5387
1257.00,0.5369
1256.00,0.5348
1255.00,0.5328
1254.00,0.5311
1253.00,0.5297
1252.00,0.5287
1251.00,0.5279
1250.00,0.5269
1249.00,0.5256
1248.00,0.5238
1247.00,0.5217
1246.00,0.5193
1245.00,0.5166
1244.00,0.5135
1243.00,0.5102
1242.00,0.5068
1241.00,0.5033
1240.00,0.5000
1239.00,0.4971
1238.00,0.4947
1237.00,0.4928
1236.00,0.4913
1235.00,0.4904
1234.00,0.4901
1233.00,0.4902
1232.00,0.4907
1231.00,0.4916
1230.00,0.4925
1229.00,0.4926
1228.00,0.4917
1227.00,0.4897
1226.00,0.4869
1225.00,0.4835
1224.00,0.4800
1223.00,0.4770
1222.00,0.4747
1221.00,0.4729
1220.00,0.4715
1219.00,0.4706
1218.00,0.4703
1217.00,0.4704
1216.00,0.4710
1215.00,0.4719
1214.00,0.4729
1213.00,0.4736
1212.00,0.4735
1211.00,0.4727
1210.00,0.4715
1209.00,0.4699
1208.00,0.4682
1207.00,0.4665
1206.00,0.4648
1205.00,0.4631
1204.00,0.4613
1203.00,0.4598
1202.00,0.4584
1201.00,0.4574
1200.00,0.4567
1199.00,0.4564
1198.00,0.4563
1197.00,0.4559
1196.00,0.4552
1195.00,0.4543
1194.00,0.4535
1193.00,0.4527
1192.00,0.4520
1191.00,0.4514
1190.00,0.4509
1189.00,0.4504
1188.00,0.4497
1187.00,0.4493
1186.00,0.4489
1185.00,0.4486
1184.00,0.4483
1183.00,0.4479
1182.00,0.4476
1181.00,0.4476
1180.00,0.4479
1179.00,0.4487
1178.00,0.4500
1177.00,0.4515
1176.00,0.4536
1175.00,0.4564
1174.00,0.4602
1173.00,0.4646
1172.00,0.4692
1171.00,0.4733
1170.00,0.4764
1169.00,0.4780
1168.00,0.4779
1167.00,0.4768
1166.00,0.4753
1165.00,0.4739
1164.00,0.4730
1163.00,0.4727
1162.00,0.4730
1161.00,0.4737
1160.00,0.4748
1159.00,0.4762
1158.00,0.4777
1157.00,0.4788
1156.00,0.4796
1155.00,0.4797
1154.00,0.4792
1153.00,0.4779
1152.00,0.4758
1151.00,0.4734
1150.00,0.4709
1149.00,0.4683
1148.00,0.4658
1147.00,0.4636
1146.00,0.4618
1145.00,0.4604
1144.00,0.4594
1143.00,0.4592
1142.00,0.4601
1141.00,0.4620
1140.00,0.4653
1139.00,0.4700
1138.00,0.4762
1137.00,0.4836
1136.00,0.4919
1135.00,0.5006
1134.00,0.5085
1133.00,0.5135
1132.00,0.5141
1131.00,0.5100
1130.00,0.5025
1129.00,0.4937
1128.00,0.4855
1127.00,0.4791
1126.00,0.4747
1125.00,0.4719
1124.00,0.4700
1123.00,0.4684
1122.00,0.4668
1121.00,0.4651
1120.00,0.4638
1119.00,0.4635
1118.00,0.4647
1117.00,0.4674
1116.00,0.4711
1115.00,0.4750
1114.00,0.4775
1113.00,0.4770
1112.00,0.4733
1111.00,0.4672
1110.00,0.4605
1109.00,0.4544
1108.00,0.4495
1107.00,0.4462
1106.00,0.4441
1105.00,0.4428
1104.00,0.4419
1103.00,0.4414
1102.00,0.4409
1101.00,0.4403
1100.00,0.4393
1099.00,0.4382
1098.00,0.4371
1097.00,0.4359
1096.00,0.4349
1095.00,0.4342
1094.00,0.4339
1093.00,0.4340
1092.00,0.4343
1091.00,0.4350
1090.00,0.4361
1089.00,0.4377
1088.00,0.4401
1087.00,0.4434
1086.00,0.4474
1085.00,0.4521
1084.00,0.4575
1083.00,0.4637
1082.00,0.4709
1081.00,0.4786
1080.00,0.4865
1079.00,0.4939
1078.00,0.4998
1077.00,0.5031
1076.00,0.5033
1075.00,0.5005
1074.00,0.4953
1073.00,0.4887
1072.00,0.4820
1071.00,0.4761
1070.00,0.4715
1069.00,0.4680
1068.00,0.4654
1067.00,0.4636
1066.00,0.4623
1065.00,0.4615
1064.00,0.4610
1063.00,0.4611
1062.00,0.4616
1061.00,0.4625
1060.00,0.4634
1059.00,0.4640
1058.00,0.4643
1057.00,0.4638
1056.00,0.4628
1055.00,0.4617
1054.00,0.4609
1053.00,0.4604
1052.00,0.4607
1051.00,0.4619
1050.00,0.4639
1049.00,0.4661
1048.00,0.4682
1047.00,0.4702
1046.00,0.4718
1045.00,0.4726
1044.00,0.4726
1043.00,0.4720
1042.00,0.4713
1041.00,0.4707
1040.00,0.4702
1039.00,0.4699
1038.00,0.4694
1037.00,0.4687
1036.00,0.4680
1035.00,0.4679
1034.00,0.4686
1033.00,0.4700
1032.00,0.4719
1031.00,0.4737
1030.00,0.4753
1029.00,0.4759
1028.00,0.4754
1027.00,0.4734
1026.00,0.4699
1025.00,0.4649
1024.00,0.4590
1023.00,0.4528
1022.00,0.4470
1021.00,0.4417
1020.00,0.4371
1019.00,0.4331
1018.00,0.4296
1017.00,0.4266
1016.00,0.4238
1015.00,0.4213
1014.00,0.4192
1013.00,0.4175
1012.00,0.4162
1011.00,0.4153
1010.00,0.4149
1009.00,0.4148
1008.00,0.4152
1007.00,0.4159
1006.00,0.4172
1005.00,0.4188
1004.00,0.4207
1003.00,0.4229
1002.00,0.4252
1001.00,0.4273
1000.00,0.4291
999.00,0.4304
998.00,0.4309
997.00,0.4305
996.00,0.4292
995.00,0.4272
994.00,0.4248
993.00,0.4221
992.00,0.4191
991.00,0.4160
990.00,0.4132
989.00,0.4107
988.00,0.4087
987.00,0.4075
986.00,0.4070
985.00,0.4072
984.00,0.4081
983.00,0.4097
982.00,0.4119
981.00,0.4144
980.00,0.4168
979.00,0.4191
978.00,0.4212
977.00,0.4230
976.00,0.4245
975.00,0.4257
974.00,0.4265
973.00,0.4269
972.00,0.4269
971.00,0.4269
970.00,0.4268
969.00,0.4267
968.00,0.4265
967.00,0.4262
966.00,0.4258
965.00,0.4251
964.00,0.4242
963.00,0.4229
962.00,0.4215
961.00,0.4201
960.00,0.4187
959.00,0.4178
958.00,0.4174
957.00,0.4172
956.00,0.4170
955.00,0.4167
954.00,0.4162
953.00,0.4155
952.00,0.4146
951.00,0.4136
950.00,0.4128
949.00,0.4124
948.00,0.4125
947.00,0.4132
946.00,0.4143
945.00,0.4157
944.00,0.4173
943.00,0.4191
942.00,0.4210
941.00,0.4227
940.00,0.4240
939.00,0.4250
938.00,0.4255
937.00,0.4252
936.00,0.4244
935.00,0.4230
934.00,0.4213
933.00,0.4193
932.00,0.4170
931.00,0.4148
930.00,0.4130
929.00,0.4115
928.00,0.4107
927.00,0.4109
926.00,0.4124
925.00,0.4153
924.00,0.4196
923.00,0.4249
922.00,0.4300
921.00,0.4331
920.00,0.4327
919.00,0.4287
918.00,0.4219
917.00,0.4134
916.00,0.4047
915.00,0.3968
914.00,0.3902
913.00,0.3850
912.00,0.3811
911.00,0.3783
910.00,0.3761
909.00,0.3741
908.00,0.3724
907.00,0.3713
906.00,0.3706
905.00,0.3703
904.00,0.3703
903.00,0.3709
902.00,0.3723
901.00,0.3743
900.00,0.3767
899.00,0.3796
898.00,0.3829
897.00,0.3865
896.00,0.3903
895.00,0.3943
894.00,0.3984
893.00,0.4025
892.00,0.4064
891.00,0.4099
890.00,0.4127
889.00,0.4142
888.00,0.4144
887.00,0.4133
886.00,0.4114
885.00,0.4092
884.00,0.4074
883.00,0.4064
882.00,0.4065
881.00,0.4075
880.00,0.4090
879.00,0.4105
878.00,0.4115
877.00,0.4117
876.00,0.4112
875.00,0.4107
874.00,0.4104
873.00,0.4103
872.00,0.4105
871.00,0.4110
870.00,0.4121
869.00,0.4138
868.00,0.4159
867.00,0.4187
866.00,0.4222
865.00,0.4262
864.00,0.4303
863.00,0.4335
862.00,0.4345
861.00,0.4323
860.00,0.4270
859.00,0.4199
858.00,0.4129
857.00,0.4071
856.00,0.4027
855.00,0.3996
854.00,0.3973
853.00,0.3954
852.00,0.3937
851.00,0.3924
850.00,0.3912
849.00,0.3896
848.00,0.3874
847.00,0.3847
846.00,0.3818
845.00,0.3790
844.00,0.3765
843.00,0.3746
842.00,0.3738
841.00,0.3746
840.00,0.3776
839.00,0.3829
838.00,0.3898
837.00,0.3967
836.00,0.4014
835.00,0.4025
834.00,0.4000
833.00,0.3951
832.00,0.3902
831.00,0.3872
830.00,0.3866
829.00,0.3879
828.00,0.3907
827.00,0.3947
826.00,0.3998
825.00,0.4055
824.00,0.4118
823.00,0.4186
822.00,0.4256
821.00,0.4325
820.00,0.4391
819.00,0.4452
818.00,0.4507
817.00,0.4550
816.00,0.4576
815.00,0.4581
814.00,0.4566
813.00,0.4532
812.00,0.4484
811.00,0.4427
810.00,0.4365
809.00,0.4302
808.00,0.4243
807.00,0.4192
806.00,0.4147
805.00,0.4103
804.00,0.4056
803.00,0.4004
802.00,0.3949
801.00,0.3892
800.00,0.3837
799.00,0.3792
798.00,0.3760
797.00,0.3738
796.00,0.3724
795.00,0.3715
794.00,0.3712
793.00,0.3714
792.00,0.3723
791.00,0.3740
790.00,0.3764
789.00,0.3793
788.00,0.3824
787.00,0.3857
786.00,0.3892
785.00,0.3932
784.00,0.3976
783.00,0.4020
782.00,0.4060
781.00,0.4092
780.00,0.4115
779.00,0.4131
778.00,0.4145
777.00,0.4161
776.00,0.4180
775.00,0.4201
774.00,0.4223
773.00,0.4243
772.00,0.4263
771.00,0.4288
770.00,0.4319
769.00,0.4353
768.00,0.4387
767.00,0.4418
766.00,0.4445
765.00,0.4467
764.00,0.4485
763.00,0.4504
762.00,0.4529
761.00,0.4562
760.00,0.4601
759.00,0.4645
758.00,0.4686
757.00,0.4718
756.00,0.4741
755.00,0.4761
754.00,0.4788
753.00,0.4825
752.00,0.4870
751.00,0.4919
750.00,0.4967
749.00,0.5013
748.00,0.5056
747.00,0.5097
746.00,0.5136
745.00,0.5174
744.00,0.5216
743.00,0.5266
742.00,0.5322
741.00,0.5377
740.00,0.5423
739.00,0.5461
738.00,0.5495
737.00,0.5530
736.00,0.5568
735.00,0.5614
734.00,0.5668
733.00,0.5730
732.00,0.5804
731.00,0.5897
730.00,0.6018
729.00,0.6168
728.00,0.6351
727.00,0.6572
726.00,0.6834
725.00,0.7128
724.00,0.7430
723.00,0.7690
722.00,0.7828
721.00,0.7759
720.00,0.7467
719.00,0.7027
718.00,0.6551
717.00,0.6115
716.00,0.5751
715.00,0.5460
714.00,0.5230
713.00,0.5044
712.00,0.4891
711.00,0.4766
710.00,0.4665
709.00,0.4583
708.00,0.4514
707.00,0.4456
706.00,0.4408
705.00,0.4365
704.00,0.4326
703.00,0.4296
702.00,0.4279
701.00,0.4270
700.00,0.4253
699.00,0.4203
698.00,0.4106
697.00,0.3967
696.00,0.3810
695.00,0.3662
694.00,0.3539
693.00,0.3444
692.00,0.3375
691.00,0.3325
690.00,0.3290
689.00,0.3263
688.00,0.3241
687.00,0.3224
686.00,0.3211
685.00,0.3199
684.00,0.3187
683.00,0.3176
682.00,0.3169
681.00,0.3166
680.00,0.3165
679.00,0.3165
678.00,0.3166
677.00,0.3167
676.00,0.3167
675.00,0.3169
674.00,0.3171
673.00,0.3173
672.00,0.3175
671.00,0.3177
670.00,0.3182
669.00,0.3186
668.00,0.3187
667.00,0.3189
666.00,0.3195
665.00,0.3203
664.00,0.3207
663.00,0.3212
662.00,0.3218
661.00,0.3226
660.00,0.3234
659.00,0.3243
658.00,0.3252
657.00,0.3261
656.00,0.3271
655.00,0.3282
654.00,0.3293
653.00,0.3305
652.00,0.3317
651.00,0.3329
650.00,0.3341
649.00,0.3351
648.00,0.3360
647.00,0.3371
646.00,0.3384
645.00,0.3397
644.00,0.3410
643.00,0.3424
642.00,0.3439
641.00,0.3451
640.00,0.3460
639.00,0.3466
638.00,0.3473
637.00,0.3479
636.00,0.3484
635.00,0.3487
634.00,0.3491
633.00,0.3494
632.00,0.3498
631.00,0.3505
630.00,0.3516
629.00,0.3530
628.00,0.3547
627.00,0.3568
626.00,0.3593
625.00,0.3619
624.00,0.3642
623.00,0.3661
622.00,0.3675
621.00,0.3688
620.00,0.3699
619.00,0.3710
618.00,0.3721
617.00,0.3728
616.00,0.3729
615.00,0.3723
614.00,0.3714
613.00,0.3703
612.00,0.3694
611.00,0.3686
610.00,0.3675
609.00,0.3659
608.00,0.3640
607.00,0.3620
606.00,0.3604
605.00,0.3591
604.00,0.3581
603.00,0.3575
602.00,0.3573
601.00,0.3573
600.00,0.3576
599.00,0.3582
598.00,0.3593
597.00,0.3604
596.00,0.3613
595.00,0.3621
594.00,0.3631
593.00,0.3645
592.00,0.3662
591.00,0.3679
590.00,0.3697
589.00,0.3717
588.00,0.3741
587.00,0.3771
586.00,0.3803
585.00,0.3830
584.00,0.3853
583.00,0.3874
582.00,0.3896
581.00,0.3919
580.00,0.3943
579.00,0.3967
578.00,0.3993
577.00,0.4019
576.00,0.4045
575.00,0.4068
574.00,0.4088
573.00,0.4106
572.00,0.4125
571.00,0.4145
570.00,0.4165
569.00,0.4185
568.00,0.4205
567.00,0.4224
566.00,0.4239
565.00,0.4249
564.00,0.4258
563.00,0.4269
562.00,0.4279
561.00,0.4284
560.00,0.4286
559.00,0.4290
558.00,0.4303
557.00,0.4324
556.00,0.4348
555.00,0.4370
554.00,0.4385
553.00,0.4394
552.00,0.4402
551.00,0.4410
550.00,0.4421
