Created as New Dataset,
cm-1,A
4000.00,0.3507
3999.00,0.3503
3998.00,0.3500
3997.00,0.3496
3996.00,0.3493
3995.00,0.3489
3994.00,0.3486
3993.00,0.3482
3992.00,0.3477
3991.00,0.3473
3990.00,0.3469
3989.00,0.3465
3988.00,0.3461
3987.00,0.3457
3986.00,0.3454
3985.00,0.3450
3984.00,0.3446
3983.00,0.3442
3982.00,0.3438
3981.00,0.3434
3980.00,0.3430
3979.00,0.3427
3978.00,0.3424
3977.00,0.3421
3976.00,0.3418
3975.00,0.3415
3974.00,0.3412
3973.00,0.3410
3972.00,0.3408
3971.00,0.3406
3970.00,0.3403
3969.00,0.3400
3968.00,0.3397
3967.00,0.3394
3966.00,0.3391
3965.00,0.3389
3964.00,0.3388
3963.00,0.3387
3962.00,0.3385
3961.00,0.3383
3960.00,0.3381
3959.00,0.3379
3958.00,0.3377
3957.00,0.3375
3956.00,0.3374
3955.00,0.3373
3954.00,0.3372
3953.00,0.3371
3952.00,0.3369
3951.00,0.3367
3950.00,0.3365
3949.00,0.3364
3948.00,0.3362
3947.00,0.3361
3946.00,0.3360
3945.00,0.3359
3944.00,0.3358
3943.00,0.3356
3942.00,0.3354
3941.00,0.3353
3940.00,0.3352
3939.00,0.3352
3938.00,0.3352
3937.00,0.3351
3936.00,0.3350
3935.00,0.3349
3934.00,0.3349
3933.00,0.3350
3932.00,0.3350
3931.00,0.3351
3930.00,0.3350
3929.00,0.3350
3928.00,0.3350
3927.00,0.3350
3926.00,0.3350
3925.00,0.3349
3924.00,0.3348
3923.00,0.3347
3922.00,0.3347
3921.00,0.3347
3920.00,0.3347
3919.00,0.3346
3918.00,0.3345
3917.00,0.3345
3916.00,0.3344
3915.00,0.3344
3914.00,0.3343
3913.00,0.3341
3912.00,0.3339
3911.00,0.3337
3910.00,0.3335
3909.00,0.3335
3908.00,0.3336
3907.00,0.3339
3906.00,0.3342
3905.00,0.3345
3904.00,0.3348
3903.00,0.3350
3902.00,0.3352
3901.00,0.3354
3900.00,0.3354
3899.00,0.3352
3898.00,0.3348
3897.00,0.3345
3896.00,0.3342
3895.00,0.3340
3894.00,0.3337
3893.00,0.3336
3892.00,0.3333
3891.00,0.3331
3890.00,0.3330
3889.00,0.3330
3888.00,0.3332
3887.00,0.3333
3886.00,0.3332
3885.00,0.3330
3884.00,0.3329
3883.00,0.3331
3882.00,0.3333
3881.00,0.3333
3880.00,0.3331
3879.00,0.3327
3878.00,0.3325
3877.00,0.3324
3876.00,0.3323
3875.00,0.3323
3874.00,0.3322
3873.00,0.3321
3872.00,0.3322
3871.00,0.3323
3870.00,0.3323
3869.00,0.3322
3868.00,0.3322
3867.00,0.3322
3866.00,0.3322
3865.00,0.3320
3864.00,0.3317
3863.00,0.3313
3862.00,0.3310
3861.00,0.3307
3860.00,0.3304
3859.00,0.3303
3858.00,0.3303
3857.00,0.3304
3856.00,0.3307
3855.00,0.3309
3854.00,0.3311
3853.00,0.3312
3852.00,0.3313
3851.00,0.3314
3850.00,0.3313
3849.00,0.3309
3848.00,0.3305
3847.00,0.3300
3846.00,0.3296
3845.00,0.3294
3844.00,0.3292
3843.00,0.3292
3842.00,0.3292
3841.00,0.3294
3840.00,0.3296
3839.00,0.3297
3838.00,0.3298
3837.00,0.3299
3836.00,0.3299
3835.00,0.3299
3834.00,0.3299
3833.00,0.3296
3832.00,0.3292
3831.00,0.3288
3830.00,0.3284
3829.00,0.3281
3828.00,0.3279
3827.00,0.3277
3826.00,0.3275
3825.00,0.3275
3824.00,0.3276
3823.00,0.3279
3822.00,0.3282
3821.00,0.3282
3820.00,0.3281
3819.00,0.3281
3818.00,0.3282
3817.00,0.3281
3816.00,0.3276
3815.00,0.3269
3814.00,0.3263
3813.00,0.3258
3812.00,0.3255
3811.00,0.3251
3810.00,0.3247
3809.00,0.3244
3808.00,0.3243
3807.00,0.3241
3806.00,0.3240
3805.00,0.3240
3804.00,0.3242
3803.00,0.3244
3802.00,0.3244
3801.00,0.3242
3800.00,0.3240
3799.00,0.3239
3798.00,0.3238
3797.00,0.3235
3796.00,0.3230
3795.00,0.3224
3794.00,0.3219
3793.00,0.3215
3792.00,0.3211
3791.00,0.3208
3790.00,0.3204
3789.00,0.3201
3788.00,0.3199
3787.00,0.3198
3786.00,0.3198
3785.00,0.3197
3784.00,0.3196
3783.00,0.3195
3782.00,0.3194
3781.00,0.3193
3780.00,0.3192
3779.00,0.3190
3778.00,0.3188
3777.00,0.3187
3776.00,0.3185
3775.00,0.3183
3774.00,0.3181
3773.00,0.3179
3772.00,0.3177
3771.00,0.3176
3770.00,0.3175
3769.00,0.3174
3768.00,0.3174
3767.00,0.3175
3766.00,0.3174
3765.00,0.3172
3764.00,0.3169
3763.00,0.3166
3762.00,0.3165
3761.00,0.3164
3760.00,0.3163
3759.00,0.3161
3758.00,0.3160
3757.00,0.3159
3756.00,0.3159
3755.00,0.3159
3754.00,0.3159
3753.00,0.3160
3752.00,0.3161
3751.00,0.3162
3750.00,0.3164
3749.00,0.3166
3748.00,0.3169
3747.00,0.3172
3746.00,0.3174
3745.00,0.3172
3744.00,0.3165
3743.00,0.3158
3742.00,0.3154
3741.00,0.3152
3740.00,0.3149
3739.00,0.3146
3738.00,0.3144
3737.00,0.3142
3736.00,0.3142
3735.00,0.3143
3734.00,0.3145
3733.00,0.3144
3732.00,0.3141
3731.00,0.3136
3730.00,0.3131
3729.00,0.3127
3728.00,0.3123
3727.00,0.3120
3726.00,0.3116
3725.00,0.3113
3724.00,0.3111
3723.00,0.3110
3722.00,0.3108
3721.00,0.3106
3720.00,0.3103
3719.00,0.3100
3718.00,0.3097
3717.00,0.3094
3716.00,0.3092
3715.00,0.3092
3714.00,0.3093
3713.00,0.3095
3712.00,0.3098
3711.00,0.3100
3710.00,0.3101
3709.00,0.3102
3708.00,0.3101
3707.00,0.3098
3706.00,0.3096
3705.00,0.3093
3704.00,0.3092
3703.00,0.3090
3702.00,0.3089
3701.00,0.3087
3700.00,0.3085
3699.00,0.3084
3698.00,0.3082
3697.00,0.3081
3696.00,0.3081
3695.00,0.3081
3694.00,0.3082
3693.00,0.3085
3692.00,0.3088
3691.00,0.3091
3690.00,0.3094
3689.00,0.3097
3688.00,0.3098
3687.00,0.3099
3686.00,0.3097
3685.00,0.3095
3684.00,0.3092
3683.00,0.3088
3682.00,0.3084
3681.00,0.3081
3680.00,0.3081
3679.00,0.3081
3678.00,0.3084
3677.00,0.3087
3676.00,0.3091
3675.00,0.3095
3674.00,0.3098
3673.00,0.3101
3672.00,0.3103
3671.00,0.3103
3670.00,0.3099
3669.00,0.3095
3668.00,0.3091
3667.00,0.3087
3666.00,0.3084
3665.00,0.3080
3664.00,0.3076
3663.00,0.3073
3662.00,0.3072
3661.00,0.3072
3660.00,0.3073
3659.00,0.3075
3658.00,0.3078
3657.00,0.3080
3656.00,0.3083
3655.00,0.3086
3654.00,0.3090
3653.00,0.3096
3652.00,0.3102
3651.00,0.3106
3650.00,0.3110
3649.00,0.3114
3648.00,0.3120
3647.00,0.3123
3646.00,0.3124
3645.00,0.3122
3644.00,0.3119
3643.00,0.3114
3642.00,0.3110
3641.00,0.3108
3640.00,0.3107
3639.00,0.3107
3638.00,0.3109
3637.00,0.3112
3636.00,0.3117
3635.00,0.3122
3634.00,0.3128
3633.00,0.3134
3632.00,0.3141
3631.00,0.3150
3630.00,0.3161
3629.00,0.3172
3628.00,0.3182
3627.00,0.3190
3626.00,0.3197
3625.00,0.3202
3624.00,0.3204
3623.00,0.3204
3622.00,0.3203
3621.00,0.3201
3620.00,0.3196
3619.00,0.3189
3618.00,0.3182
3617.00,0.3176
3616.00,0.3171
3615.00,0.3168
3614.00,0.3165
3613.00,0.3162
3612.00,0.3161
3611.00,0.3161
3610.00,0.3161
3609.00,0.3161
3608.00,0.3161
3607.00,0.3159
3606.00,0.3157
3605.00,0.3155
3604.00,0.3152
3603.00,0.3149
3602.00,0.3144
3601.00,0.3140
3600.00,0.3135
3599.00,0.3130
3598.00,0.3125
3597.00,0.3121
3596.00,0.3116
3595.00,0.3111
3594.00,0.3105
3593.00,0.3099
3592.00,0.3094
3591.00,0.3091
3590.00,0.3089
3589.00,0.3087
3588.00,0.3086
3587.00,0.3084
3586.00,0.3082
3585.00,0.3080
3584.00,0.3078
3583.00,0.3076
3582.00,0.3073
3581.00,0.3071
3580.00,0.3068
3579.00,0.3066
3578.00,0.3065
3577.00,0.3064
3576.00,0.3064
3575.00,0.3064
3574.00,0.3065
3573.00,0.3066
3572.00,0.3067
3571.00,0.3070
3570.00,0.3073
3569.00,0.3077
3568.00,0.3081
3567.00,0.3085
3566.00,0.3088
3565.00,0.3090
3564.00,0.3092
3563.00,0.3093
3562.00,0.3093
3561.00,0.3093
3560.00,0.3092
3559.00,0.3093
3558.00,0.3095
3557.00,0.3097
3556.00,0.3101
3555.00,0.3105
3554.00,0.3109
3553.00,0.3113
3552.00,0.3117
3551.00,0.3121
3550.00,0.3125
3549.00,0.3130
3548.00,0.3135
3547.00,0.3140
3546.00,0.3146
3545.00,0.3151
3544.00,0.3156
3543.00,0.3161
3542.00,0.3165
3541.00,0.3169
3540.00,0.3172
3539.00,0.3176
3538.00,0.3180
3537.00,0.3184
3536.00,0.3188
3535.00,0.3192
3534.00,0.3195
3533.00,0.3199
3532.00,0.3203
3531.00,0.3206
3530.00,0.3209
3529.00,0.3212
3528.00,0.3216
3527.00,0.3220
3526.00,0.3224
3525.00,0.3228
3524.00,0.3232
3523.00,0.3236
3522.00,0.3240
3521.00,0.3244
3520.00,0.3248
3519.00,0.3253
3518.00,0.3257
3517.00,0.3261
3516.00,0.3265
3515.00,0.3270
3514.00,0.3276
3513.00,0.3281
3512.00,0.3287
3511.00,0.3293
3510.00,0.3299
3509.00,0.3306
3508.00,0.3312
3507.00,0.3317
3506.00,0.3323
3505.00,0.3330
3504.00,0.3337
3503.00,0.3344
3502.00,0.3351
3501.00,0.3358
3500.00,0.3364
3499.00,0.3370
3498.00,0.3375
3497.00,0.3382
3496.00,0.3388
3495.00,0.3395
3494.00,0.3403
3493.00,0.3410
3492.00,0.3419
3491.00,0.3427
3490.00,0.3436
3489.00,0.3444
3488.00,0.3453
3487.00,0.3461
3486.00,0.3468
3485.00,0.3476
3484.00,0.3483
3483.00,0.3492
3482.00,0.3499
3481.00,0.3507
3480.00,0.3514
3479.00,0.3520
3478.00,0.3526
3477.00,0.3531
3476.00,0.3537
3475.00,0.3543
3474.00,0.3550
3473.00,0.3556
3472.00,0.3563
3471.00,0.3571
3470.00,0.3578
3469.00,0.3585
3468.00,0.3592
3467.00,0.3598
3466.00,0.3606
3465.00,0.3613
3464.00,0.3621
3463.00,0.3629
3462.00,0.3637
3461.00,0.3644
3460.00,0.3652
3459.00,0.3660
3458.00,0.3668
3457.00,0.3677
3456.00,0.3686
3455.00,0.3694
3454.00,0.3702
3453.00,0.3710
3452.00,0.3718
3451.00,0.3727
3450.00,0.3736
3449.00,0.3745
3448.00,0.3755
3447.00,0.3765
3446.00,0.3775
3445.00,0.3785
3444.00,0.3795
3443.00,0.3804
3442.00,0.3813
3441.00,0.3823
3440.00,0.3832
3439.00,0.3842
3438.00,0.3851
3437.00,0.3861
3436.00,0.3871
3435.00,0.3881
3434.00,0.3891
3433.00,0.3902
3432.00,0.3912
3431.00,0.3922
3430.00,0.3933
3429.00,0.3943
3428.00,0.3953
3427.00,0.3962
3426.00,0.3972
3425.00,0.3982
3424.00,0.3992
3423.00,0.4003
3422.00,0.4014
3421.00,0.4026
3420.00,0.4039
3419.00,0.4051
3418.00,0.4063
3417.00,0.4074
3416.00,0.4085
3415.00,0.4096
3414.00,0.4107
3413.00,0.4118
3412.00,0.4129
3411.00,0.4141
3410.00,0.4153
3409.00,0.4166
3408.00,0.4179
3407.00,0.4192
3406.00,0.4204
3405.00,0.4217
3404.00,0.4229
3403.00,0.4240
3402.00,0.4252
3401.00,0.4264
3400.00,0.4277
3399.00,0.4289
3398.00,0.4302
3397.00,0.4314
3396.00,0.4326
3395.00,0.4338
3394.00,0.4351
3393.00,0.4364
3392.00,0.4376
3391.00,0.4389
3390.00,0.4401
3389.00,0.4413
3388.00,0.4425
3387.00,0.4436
3386.00,0.4448
3385.00,0.4460
3384.00,0.4472
3383.00,0.4484
3382.00,0.4496
3381.00,0.4509
3380.00,0.4522
3379.00,0.4535
3378.00,0.4549
3377.00,0.4562
3376.00,0.4575
3375.00,0.4588
3374.00,0.4600
3373.00,0.4614
3372.00,0.4628
3371.00,0.4643
3370.00,0.4658
3369.00,0.4674
3368.00,0.4690
3367.00,0.4705
3366.00,0.4719
3365.00,0.4734
3364.00,0.4749
3363.00,0.4765
3362.00,0.4780
3361.00,0.4796
3360.00,0.4813
3359.00,0.4830
3358.00,0.4846
3357.00,0.4863
3356.00,0.4879
3355.00,0.4895
3354.00,0.4912
3353.00,0.4929
3352.00,0.4947
3351.00,0.4965
3350.00,0.4981
3349.00,0.4997
3348.00,0.5012
3347.00,0.5027
3346.00,0.5042
3345.00,0.5057
3344.00,0.5072
3343.00,0.5087
3342.00,0.5102
3341.00,0.5116
3340.00,0.5129
3339.00,0.5141
3338.00,0.5152
3337.00,0.5161
3336.00,0.5170
3335.00,0.5178
3334.00,0.5186
3333.00,0.5192
3332.00,0.5199
3331.00,0.5205
3330.00,0.5211
3329.00,0.5216
3328.00,0.5219
3327.00,0.5221
3326.00,0.5222
3325.00,0.5221
3324.00,0.5220
3323.00,0.5217
3322.00,0.5214
3321.00,0.5210
3320.00,0.5206
3319.00,0.5203
3318.00,0.5198
3317.00,0.5193
3316.00,0.5187
3315.00,0.5180
3314.00,0.5172
3313.00,0.5165
3312.00,0.5157
3311.00,0.5150
3310.00,0.5142
3309.00,0.5134
3308.00,0.5126
3307.00,0.5117
3306.00,0.5109
3305.00,0.5100
3304.00,0.5093
3303.00,0.5084
3302.00,0.5076
3301.00,0.5068
3300.00,0.5060
3299.00,0.5053
3298.00,0.5046
3297.00,0.5040
3296.00,0.5034
3295.00,0.5029
3294.00,0.5024
3293.00,0.5019
3292.00,0.5015
3291.00,0.5011
3290.00,0.5007
3289.00,0.5004
3288.00,0.5001
3287.00,0.5000
3286.00,0.4999
3285.00,0.4998
3284.00,0.4998
3283.00,0.4999
3282.00,0.5000
3281.00,0.5001
3280.00,0.5002
3279.00,0.5003
3278.00,0.5004
3277.00,0.5007
3276.00,0.5010
3275.00,0.5014
3274.00,0.5019
3273.00,0.5023
3272.00,0.5026
3271.00,0.5029
3270.00,0.5032
3269.00,0.5037
3268.00,0.5042
3267.00,0.5048
3266.00,0.5052
3265.00,0.5056
3264.00,0.5060
3263.00,0.5065
3262.00,0.5070
3261.00,0.5076
3260.00,0.5082
3259.00,0.5088
3258.00,0.5093
3257.00,0.5098
3256.00,0.5103
3255.00,0.5108
3254.00,0.5113
3253.00,0.5118
3252.00,0.5122
3251.00,0.5126
3250.00,0.5129
3249.00,0.5132
3248.00,0.5135
3247.00,0.5138
3246.00,0.5142
3245.00,0.5145
3244.00,0.5148
3243.00,0.5150
3242.00,0.5153
3241.00,0.5155
3240.00,0.5157
3239.00,0.5158
3238.00,0.5159
3237.00,0.5160
3236.00,0.5160
3235.00,0.5160
3234.00,0.5159
3233.00,0.5158
3232.00,0.5156
3231.00,0.5153
3230.00,0.5150
3229.00,0.5148
3228.00,0.5146
3227.00,0.5144
3226.00,0.5142
3225.00,0.5141
3224.00,0.5140
3223.00,0.5137
3222.00,0.5134
3221.00,0.5130
3220.00,0.5126
3219.00,0.5122
3218.00,0.5119
3217.00,0.5116
3216.00,0.5113
3215.00,0.5110
3214.00,0.5106
3213.00,0.5103
3212.00,0.5098
3211.00,0.5094
3210.00,0.5089
3209.00,0.5085
3208.00,0.5081
3207.00,0.5078
3206.00,0.5074
3205.00,0.5070
3204.00,0.5066
3203.00,0.5061
3202.00,0.5056
3201.00,0.5052
3200.00,0.5047
3199.00,0.5041
3198.00,0.5036
3197.00,0.5031
3196.00,0.5026
3195.00,0.5021
3194.00,0.5016
3193.00,0.5011
3192.00,0.5006
3191.00,0.5000
3190.00,0.4993
3189.00,0.4986
3188.00,0.4978
3187.00,0.4971
3186.00,0.4965
3185.00,0.4958
3184.00,0.4952
3183.00,0.4944
3182.00,0.4936
3181.00,0.4928
3180.00,0.4919
3179.00,0.4911
3178.00,0.4902
3177.00,0.4894
3176.00,0.4886
3175.00,0.4878
3174.00,0.4869
3173.00,0.4861
3172.00,0.4852
3171.00,0.4842
3170.00,0.4833
3169.00,0.4824
3168.00,0.4815
3167.00,0.4805
3166.00,0.4795
3165.00,0.4786
3164.00,0.4776
3163.00,0.4767
3162.00,0.4757
3161.00,0.4748
3160.00,0.4739
3159.00,0.4730
3158.00,0.4721
3157.00,0.4712
3156.00,0.4704
3155.00,0.4695
3154.00,0.4687
3153.00,0.4679
3152.00,0.4670
3151.00,0.4661
3150.00,0.4652
3149.00,0.4643
3148.00,0.4635
3147.00,0.4628
3146.00,0.4620
3145.00,0.4612
3144.00,0.4605
3143.00,0.4598
3142.00,0.4592
3141.00,0.4585
3140.00,0.4579
3139.00,0.4573
3138.00,0.4567
3137.00,0.4561
3136.00,0.4556
3135.00,0.4552
3134.00,0.4548
3133.00,0.4546
3132.00,0.4544
3131.00,0.4542
3130.00,0.4539
3129.00,0.4537
3128.00,0.4535
3127.00,0.4534
3126.00,0.4534
3125.00,0.4534
3124.00,0.4535
3123.00,0.4536
3122.00,0.4537
3121.00,0.4539
3120.00,0.4542
3119.00,0.4545
3118.00,0.4547
3117.00,0.4550
3116.00,0.4553
3115.00,0.4556
3114.00,0.4561
3113.00,0.4566
3112.00,0.4571
3111.00,0.4577
3110.00,0.4583
3109.00,0.4591
3108.00,0.4599
3107.00,0.4608
3106.00,0.4617
3105.00,0.4626
3104.00,0.4635
3103.00,0.4645
3102.00,0.4655
3101.00,0.4665
3100.00,0.4674
3099.00,0.4684
3098.00,0.4695
3097.00,0.4708
3096.00,0.4722
3095.00,0.4738
3094.00,0.4755
3093.00,0.4773
3092.00,0.4793
3091.00,0.4814
3090.00,0.4838
3089.00,0.4864
3088.00,0.4891
3087.00,0.4920
3086.00,0.4950
3085.00,0.4980
3084.00,0.5010
3083.00,0.5042
3082.00,0.5076
3081.00,0.5112
3080.00,0.5150
3079.00,0.5191
3078.00,0.5234
3077.00,0.5279
3076.00,0.5326
3075.00,0.5374
3074.00,0.5422
3073.00,0.5471
3072.00,0.5519
3071.00,0.5568
3070.00,0.5617
3069.00,0.5667
3068.00,0.5716
3067.00,0.5764
3066.00,0.5811
3065.00,0.5856
3064.00,0.5899
3063.00,0.5941
3062.00,0.5979
3061.00,0.6015
3060.00,0.6047
3059.00,0.6077
3058.00,0.6106
3057.00,0.6136
3056.00,0.6168
3055.00,0.6201
3054.00,0.6237
3053.00,0.6274
3052.00,0.6314
3051.00,0.6357
3050.00,0.6402
3049.00,0.6450
3048.00,0.6499
3047.00,0.6548
3046.00,0.6598
3045.00,0.6649
3044.00,0.6701
3043.00,0.6754
3042.00,0.6807
3041.00,0.6859
3040.00,0.6910
3039.00,0.6962
3038.00,0.7015
3037.00,0.7072
3036.00,0.7132
3035.00,0.7196
3034.00,0.7264
3033.00,0.7338
3032.00,0.7417
3031.00,0.7501
3030.00,0.7590
3029.00,0.7683
3028.00,0.7781
3027.00,0.7882
3026.00,0.7987
3025.00,0.8095
3024.00,0.8207
3023.00,0.8323
3022.00,0.8443
3021.00,0.8567
3020.00,0.8694
3019.00,0.8821
3018.00,0.8950
3017.00,0.9081
3016.00,0.9212
3015.00,0.9346
3014.00,0.9480
3013.00,0.9617
3012.00,0.9757
3011.00,0.9901
3010.00,1.0051
3009.00,1.0208
3008.00,1.0374
3007.00,1.0548
3006.00,1.0731
3005.00,1.0919
3004.00,1.1112
3003.00,1.1309
3002.00,1.1512
3001.00,1.1724
3000.00,1.1946
2999.00,1.2182
2998.00,1.2435
2997.00,1.2711
2996.00,1.3017
2995.00,1.3355
2994.00,1.3730
2993.00,1.4146
2992.00,1.4609
2991.00,1.5126
2990.00,1.5706
2989.00,1.6354
2988.00,1.7076
2987.00,1.7880
2986.00,1.8775
2985.00,1.9772
2984.00,2.0881
2983.00,2.2113
2982.00,2.3469
2981.00,2.4939
2980.00,2.6525
2979.00,2.8272
2978.00,3.0236
2977.00,3.2302
2976.00,3.4079
2975.00,3.5450
2974.00,3.6834
2973.00,3.7860
2972.00,3.7916
2971.00,3.7658
2970.00,3.7642
2969.00,3.7410
2968.00,3.6720
2967.00,3.6381
2966.00,3.6608
2965.00,3.6940
2964.00,3.6974
2963.00,3.6904
2962.00,3.7071
2961.00,3.7594
2960.00,3.8386
2959.00,3.9897
2958.00,4.3346
2957.00,4.6983
2956.00,4.8582
2955.00,4.7216
2954.00,4.4982
2953.00,4.3141
2952.00,4.0675
2951.00,3.9453
2950.00,3.8458
2949.00,3.7999
2948.00,3.8429
2947.00,3.9873
2946.00,4.1712
2945.00,4.1609
2944.00,4.0339
2943.00,3.9655
2942.00,3.9882
2941.00,4.0688
2940.00,4.2388
2939.00,4.3429
2938.00,4.4427
2937.00,4.6583
2936.00,4.5043
2935.00,4.1902
2934.00,3.9778
2933.00,4.0182
2932.00,4.1972
2931.00,4.2861
2930.00,4.2285
2929.00,4.1057
2928.00,4.0478
2927.00,4.0110
2926.00,4.0367
2925.00,4.1608
2924.00,4.3059
2923.00,4.3460
2922.00,4.4775
2921.00,4.6881
2920.00,4.3976
2919.00,4.1707
2918.00,4.0737
2917.00,4.1732
2916.00,4.2526
2915.00,4.1215
2914.00,4.0400
2913.00,4.1160
2912.00,4.4441
2911.00,4.8141
2910.00,4.5244
2909.00,4.2308
2908.00,4.0615
2907.00,3.9804
2906.00,3.9988
2905.00,4.1420
2904.00,4.3340
2903.00,4.5489
2902.00,4.6549
2901.00,4.1644
2900.00,3.8697
2899.00,3.7322
2898.00,3.7836
2897.00,3.9676
2896.00,4.1240
2895.00,4.1634
2894.00,4.1843
2893.00,4.4039
2892.00,4.7826
2891.00,4.5441
2890.00,4.2724
2889.00,4.2070
2888.00,4.2154
2887.00,4.1442
2886.00,4.0345
2885.00,3.9777
2884.00,3.9469
2883.00,3.9099
2882.00,3.9429
2881.00,4.1495
2880.00,4.3780
2879.00,4.2545
2878.00,4.0223
2877.00,3.9099
2876.00,3.8948
2875.00,3.9922
2874.00,4.3219
2873.00,4.5626
2872.00,4.2860
2871.00,4.0479
2870.00,3.9376
2869.00,3.9034
2868.00,3.9246
2867.00,4.0490
2866.00,4.1739
2865.00,4.3472
2864.00,4.7286
2863.00,4.5178
2862.00,4.1324
2861.00,3.8822
2860.00,3.8248
2859.00,3.8808
2858.00,3.9708
2857.00,4.0449
2856.00,4.1128
2855.00,4.2952
2854.00,4.4359
2853.00,4.2410
2852.00,4.0134
2851.00,3.9415
2850.00,3.9957
2849.00,4.0241
2848.00,3.9745
2847.00,3.9549
2846.00,4.0275
2845.00,4.0766
2844.00,4.1118
2843.00,4.3442
2842.00,4.6552
2841.00,4.4854
2840.00,4.1954
2839.00,4.0332
2838.00,3.8193
2837.00,3.5294
2836.00,3.2550
2835.00,3.0082
2834.00,2.7942
2833.00,2.6092
2832.00,2.4471
2831.00,2.3039
2830.00,2.1749
2829.00,2.0576
2828.00,1.9513
2827.00,1.8561
2826.00,1.7710
2825.00,1.6943
2824.00,1.6246
2823.00,1.5608
2822.00,1.5021
2821.00,1.4478
2820.00,1.3977
2819.00,1.3513
2818.00,1.3085
2817.00,1.2687
2816.00,1.2317
2815.00,1.1973
2814.00,1.1653
2813.00,1.1351
2812.00,1.1067
2811.00,1.0798
2810.00,1.0544
2809.00,1.0302
2808.00,1.0071
2807.00,0.9850
2806.00,0.9641
2805.00,0.9443
2804.00,0.9256
2803.00,0.9078
2802.00,0.8909
2801.00,0.8748
2800.00,0.8594
2799.00,0.8449
2798.00,0.8310
2797.00,0.8175
2796.00,0.8043
2795.00,0.7916
2794.00,0.7793
2793.00,0.7676
2792.00,0.7563
2791.00,0.7453
2790.00,0.7344
2789.00,0.7237
2788.00,0.7132
2787.00,0.7028
2786.00,0.6928
2785.00,0.6832
2784.00,0.6739
2783.00,0.6648
2782.00,0.6562
2781.00,0.6478
2780.00,0.6397
2779.00,0.6319
2778.00,0.6245
2777.00,0.6173
2776.00,0.6105
2775.00,0.6042
2774.00,0.5985
2773.00,0.5931
2772.00,0.5881
2771.00,0.5833
2770.00,0.5789
2769.00,0.5748
2768.00,0.5712
2767.00,0.5679
2766.00,0.5649
2765.00,0.5623
2764.00,0.5599
2763.00,0.5579
2762.00,0.5562
2761.00,0.5547
2760.00,0.5532
2759.00,0.5519
2758.00,0.5506
2757.00,0.5494
2756.00,0.5483
2755.00,0.5472
2754.00,0.5463
2753.00,0.5456
2752.00,0.5452
2751.00,0.5450
2750.00,0.5450
2749.00,0.5451
2748.00,0.5455
2747.00,0.5460
2746.00,0.5468
2745.00,0.5478
2744.00,0.5492
2743.00,0.5509
2742.00,0.5531
2741.00,0.5557
2740.00,0.5588
2739.00,0.5623
2738.00,0.5664
2737.00,0.5709
2736.00,0.5760
2735.00,0.5815
2734.00,0.5871
2733.00,0.5927
2732.00,0.5978
2731.00,0.6022
2730.00,0.6055
2729.00,0.6076
2728.00,0.6085
2727.00,0.6082
2726.00,0.6071
2725.00,0.6054
2724.00,0.6033
2723.00,0.6008
2722.00,0.5978
2721.00,0.5945
2720.00,0.5908
2719.00,0.5867
2718.00,0.5823
2717.00,0.5777
2716.00,0.5728
2715.00,0.5678
2714.00,0.5627
2713.00,0.5578
2712.00,0.5531
2711.00,0.5489
2710.00,0.5451
2709.00,0.5418
2708.00,0.5390
2707.00,0.5366
2706.00,0.5346
2705.00,0.5329
2704.00,0.5317
2703.00,0.5307
2702.00,0.5300
2701.00,0.5295
2700.00,0.5294
2699.00,0.5294
2698.00,0.5297
2697.00,0.5301
2696.00,0.5308
2695.00,0.5315
2694.00,0.5325
2693.00,0.5335
2692.00,0.5346
2691.00,0.5356
2690.00,0.5365
2689.00,0.5374
2688.00,0.5381
2687.00,0.5389
2686.00,0.5396
2685.00,0.5402
2684.00,0.5407
2683.00,0.5411
2682.00,0.5414
2681.00,0.5417
2680.00,0.5419
2679.00,0.5423
2678.00,0.5426
2677.00,0.5430
2676.00,0.5435
2675.00,0.5439
2674.00,0.5444
2673.00,0.5447
2672.00,0.5450
2671.00,0.5450
2670.00,0.5447
2669.00,0.5440
2668.00,0.5430
2667.00,0.5418
2666.00,0.5403
2665.00,0.5386
2664.00,0.5368
2663.00,0.5348
2662.00,0.5328
2661.00,0.5307
2660.00,0.5285
2659.00,0.5262
2658.00,0.5239
2657.00,0.5215
2656.00,0.5193
2655.00,0.5172
2654.00,0.5152
2653.00,0.5132
2652.00,0.5114
2651.00,0.5097
2650.00,0.5080
2649.00,0.5063
2648.00,0.5047
2647.00,0.5032
2646.00,0.5018
2645.00,0.5005
2644.00,0.4993
2643.00,0.4980
2642.00,0.4968
2641.00,0.4957
2640.00,0.4946
2639.00,0.4935
2638.00,0.4924
2637.00,0.4914
2636.00,0.4905
2635.00,0.4896
2634.00,0.4888
2633.00,0.4879
2632.00,0.4870
2631.00,0.4860
2630.00,0.4850
2629.00,0.4841
2628.00,0.4831
2627.00,0.4822
2626.00,0.4812
2625.00,0.4802
2624.00,0.4793
2623.00,0.4782
2622.00,0.4772
2621.00,0.4762
2620.00,0.4751
2619.00,0.4741
2618.00,0.4731
2617.00,0.4722
2616.00,0.4712
2615.00,0.4702
2614.00,0.4692
2613.00,0.4681
2612.00,0.4671
2611.00,0.4660
2610.00,0.4649
2609.00,0.4638
2608.00,0.4628
2607.00,0.4617
2606.00,0.4607
2605.00,0.4596
2604.00,0.4585
2603.00,0.4574
2602.00,0.4562
2601.00,0.4550
2600.00,0.4538
2599.00,0.4525
2598.00,0.4511
2597.00,0.4497
2596.00,0.4481
2595.00,0.4464
2594.00,0.4448
2593.00,0.4431
2592.00,0.4413
2591.00,0.4396
2590.00,0.4378
2589.00,0.4361
2588.00,0.4344
2587.00,0.4327
2586.00,0.4310
2585.00,0.4292
2584.00,0.4273
2583.00,0.4253
2582.00,0.4234
2581.00,0.4215
2580.00,0.4196
2579.00,0.4176
2578.00,0.4157
2577.00,0.4138
2576.00,0.4119
2575.00,0.4101
2574.00,0.4083
2573.00,0.4066
2572.00,0.4049
2571.00,0.4032
2570.00,0.4016
2569.00,0.4000
2568.00,0.3984
2567.00,0.3969
2566.00,0.3953
2565.00,0.3938
2564.00,0.3923
2563.00,0.3908
2562.00,0.3893
2561.00,0.3879
2560.00,0.3865
2559.00,0.3851
2558.00,0.3838
2557.00,0.3826
2556.00,0.3813
2555.00,0.3799
2554.00,0.3786
2553.00,0.3774
2552.00,0.3761
2551.00,0.3750
2550.00,0.3738
2549.00,0.3728
2548.00,0.3717
2547.00,0.3706
2546.00,0.3696
2545.00,0.3687
2544.00,0.3678
2543.00,0.3669
2542.00,0.3660
2541.00,0.3652
2540.00,0.3644
2539.00,0.3635
2538.00,0.3627
2537.00,0.3619
2536.00,0.3612
2535.00,0.3604
2534.00,0.3597
2533.00,0.3589
2532.00,0.3581
2531.00,0.3572
2530.00,0.3563
2529.00,0.3554
2528.00,0.3544
2527.00,0.3534
2526.00,0.3524
2525.00,0.3514
2524.00,0.3503
2523.00,0.3493
2522.00,0.3482
2521.00,0.3471
2520.00,0.3461
2519.00,0.3451
2518.00,0.3441
2517.00,0.3432
2516.00,0.3422
2515.00,0.3413
2514.00,0.3405
2513.00,0.3397
2512.00,0.3389
2511.00,0.3381
2510.00,0.3373
2509.00,0.3365
2508.00,0.3357
2507.00,0.3350
2506.00,0.3343
2505.00,0.3336
2504.00,0.3330
2503.00,0.3324
2502.00,0.3318
2501.00,0.3313
2500.00,0.3308
2499.00,0.3304
2498.00,0.3299
2497.00,0.3294
2496.00,0.3289
2495.00,0.3284
2494.00,0.3279
2493.00,0.3275
2492.00,0.3271
2491.00,0.3266
2490.00,0.3262
2489.00,0.3258
2488.00,0.3253
2487.00,0.3249
2486.00,0.3244
2485.00,0.3239
2484.00,0.3234
2483.00,0.3230
2482.00,0.3226
2481.00,0.3222
2480.00,0.3219
2479.00,0.3215
2478.00,0.3211
2477.00,0.3207
2476.00,0.3203
2475.00,0.3199
2474.00,0.3195
2473.00,0.3191
2472.00,0.3187
2471.00,0.3183
2470.00,0.3180
2469.00,0.3177
2468.00,0.3174
2467.00,0.3171
2466.00,0.3167
2465.00,0.3164
2464.00,0.3161
2463.00,0.3157
2462.00,0.3154
2461.00,0.3152
2460.00,0.3150
2459.00,0.3148
2458.00,0.3145
2457.00,0.3143
2456.00,0.3141
2455.00,0.3140
2454.00,0.3138
2453.00,0.3137
2452.00,0.3135
2451.00,0.3133
2450.00,0.3132
2449.00,0.3131
2448.00,0.3130
2447.00,0.3129
2446.00,0.3128
2445.00,0.3128
2444.00,0.3127
2443.00,0.3127
2442.00,0.3127
2441.00,0.3127
2440.00,0.3127
2439.00,0.3127
2438.00,0.3127
2437.00,0.3128
2436.00,0.3129
2435.00,0.3130
2434.00,0.3130
2433.00,0.3131
2432.00,0.3131
2431.00,0.3131
2430.00,0.3132
2429.00,0.3132
2428.00,0.3133
2427.00,0.3134
2426.00,0.3135
2425.00,0.3135
2424.00,0.3136
2423.00,0.3136
2422.00,0.3137
2421.00,0.3137
2420.00,0.3138
2419.00,0.3138
2418.00,0.3138
2417.00,0.3139
2416.00,0.3139
2415.00,0.3139
2414.00,0.3139
2413.00,0.3139
2412.00,0.3139
2411.00,0.3139
2410.00,0.3139
2409.00,0.3138
2408.00,0.3137
2407.00,0.3136
2406.00,0.3136
2405.00,0.3135
2404.00,0.3135
2403.00,0.3134
2402.00,0.3133
2401.00,0.3132
2400.00,0.3131
2399.00,0.3130
2398.00,0.3128
2397.00,0.3127
2396.00,0.3125
2395.00,0.3124
2394.00,0.3122
2393.00,0.3121
2392.00,0.3120
2391.00,0.3118
2390.00,0.3116
2389.00,0.3115
2388.00,0.3115
2387.00,0.3114
2386.00,0.3114
2385.00,0.3113
2384.00,0.3112
2383.00,0.3112
2382.00,0.3112
2381.00,0.3112
2380.00,0.3114
2379.00,0.3115
2378.00,0.3115
2377.00,0.3115
2376.00,0.3115
2375.00,0.3114
2374.00,0.3113
2373.00,0.3112
2372.00,0.3111
2371.00,0.3109
2370.00,0.3107
2369.00,0.3105
2368.00,0.3104
2367.00,0.3103
2366.00,0.3102
2365.00,0.3101
2364.00,0.3102
2363.00,0.3102
2362.00,0.3102
2361.00,0.3103
2360.00,0.3103
2359.00,0.3103
2358.00,0.3102
2357.00,0.3102
2356.00,0.3101
2355.00,0.3100
2354.00,0.3098
2353.00,0.3096
2352.00,0.3096
2351.00,0.3096
2350.00,0.3095
2349.00,0.3093
2348.00,0.3092
2347.00,0.3091
2346.00,0.3090
2345.00,0.3090
2344.00,0.3089
2343.00,0.3088
2342.00,0.3086
2341.00,0.3085
2340.00,0.3083
2339.00,0.3081
2338.00,0.3079
2337.00,0.3078
2336.00,0.3076
2335.00,0.3074
2334.00,0.3072
2333.00,0.3071
2332.00,0.3070
2331.00,0.3068
2330.00,0.3067
2329.00,0.3065
2328.00,0.3062
2327.00,0.3059
2326.00,0.3057
2325.00,0.3055
2324.00,0.3054
2323.00,0.3052
2322.00,0.3049
2321.00,0.3047
2320.00,0.3046
2319.00,0.3043
2318.00,0.3040
2317.00,0.3036
2316.00,0.3033
2315.00,0.3030
2314.00,0.3027
2313.00,0.3024
2312.00,0.3020
2311.00,0.3017
2310.00,0.3013
2309.00,0.3009
2308.00,0.3005
2307.00,0.3001
2306.00,0.2997
2305.00,0.2993
2304.00,0.2990
2303.00,0.2986
2302.00,0.2982
2301.00,0.2979
2300.00,0.2976
2299.00,0.2973
2298.00,0.2970
2297.00,0.2967
2296.00,0.2964
2295.00,0.2961
2294.00,0.2957
2293.00,0.2954
2292.00,0.2951
2291.00,0.2947
2290.00,0.2944
2289.00,0.2940
2288.00,0.2937
2287.00,0.2934
2286.00,0.2931
2285.00,0.2928
2284.00,0.2925
2283.00,0.2923
2282.00,0.2919
2281.00,0.2916
2280.00,0.2913
2279.00,0.2909
2278.00,0.2906
2277.00,0.2903
2276.00,0.2899
2275.00,0.2896
2274.00,0.2892
2273.00,0.2889
2272.00,0.2886
2271.00,0.2884
2270.00,0.2881
2269.00,0.2880
2268.00,0.2878
2267.00,0.2876
2266.00,0.2874
2265.00,0.2872
2264.00,0.2869
2263.00,0.2867
2262.00,0.2864
2261.00,0.2862
2260.00,0.2859
2259.00,0.2857
2258.00,0.2854
2257.00,0.2852
2256.00,0.2849
2255.00,0.2846
2254.00,0.2843
2253.00,0.2841
2252.00,0.2838
2251.00,0.2835
2250.00,0.2833
2249.00,0.2830
2248.00,0.2828
2247.00,0.2826
2246.00,0.2824
2245.00,0.2822
2244.00,0.2820
2243.00,0.2817
2242.00,0.2815
2241.00,0.2812
2240.00,0.2810
2239.00,0.2808
2238.00,0.2807
2237.00,0.2807
2236.00,0.2806
2235.00,0.2804
2234.00,0.2802
2233.00,0.2801
2232.00,0.2800
2231.00,0.2799
2230.00,0.2798
2229.00,0.2797
2228.00,0.2795
2227.00,0.2793
2226.00,0.2792
2225.00,0.2791
2224.00,0.2790
2223.00,0.2789
2222.00,0.2787
2221.00,0.2786
2220.00,0.2785
2219.00,0.2784
2218.00,0.2783
2217.00,0.2782
2216.00,0.2781
2215.00,0.2780
2214.00,0.2780
2213.00,0.2780
2212.00,0.2779
2211.00,0.2779
2210.00,0.2778
2209.00,0.2777
2208.00,0.2777
2207.00,0.2777
2206.00,0.2777
2205.00,0.2777
2204.00,0.2777
2203.00,0.2776
2202.00,0.2775
2201.00,0.2775
2200.00,0.2775
2199.00,0.2775
2198.00,0.2775
2197.00,0.2775
2196.00,0.2775
2195.00,0.2775
2194.00,0.2774
2193.00,0.2774
2192.00,0.2775
2191.00,0.2775
2190.00,0.2775
2189.00,0.2775
2188.00,0.2775
2187.00,0.2775
2186.00,0.2774
2185.00,0.2774
2184.00,0.2773
2183.00,0.2773
2182.00,0.2772
2181.00,0.2771
2180.00,0.2770
2179.00,0.2768
2178.00,0.2767
2177.00,0.2765
2176.00,0.2765
2175.00,0.2764
2174.00,0.2762
2173.00,0.2761
2172.00,0.2760
2171.00,0.2759
2170.00,0.2757
2169.00,0.2756
2168.00,0.2755
2167.00,0.2754
2166.00,0.2752
2165.00,0.2751
2164.00,0.2750
2163.00,0.2748
2162.00,0.2747
2161.00,0.2746
2160.00,0.2745
2159.00,0.2743
2158.00,0.2741
2157.00,0.2739
2156.00,0.2737
2155.00,0.2736
2154.00,0.2734
2153.00,0.2732
2152.00,0.2730
2151.00,0.2728
2150.00,0.2725
2149.00,0.2723
2148.00,0.2720
2147.00,0.2716
2146.00,0.2711
2145.00,0.2707
2144.00,0.2703
2143.00,0.2699
2142.00,0.2694
2141.00,0.2689
2140.00,0.2685
2139.00,0.2681
2138.00,0.2677
2137.00,0.2674
2136.00,0.2672
2135.00,0.2670
2134.00,0.2667
2133.00,0.2665
2132.00,0.2663
2131.00,0.2660
2130.00,0.2658
2129.00,0.2656
2128.00,0.2655
2127.00,0.2654
2126.00,0.2652
2125.00,0.2651
2124.00,0.2649
2123.00,0.2647
2122.00,0.2646
2121.00,0.2645
2120.00,0.2644
2119.00,0.2643
2118.00,0.2642
2117.00,0.2641
2116.00,0.2640
2115.00,0.2638
2114.00,0.2637
2113.00,0.2636
2112.00,0.2635
2111.00,0.2634
2110.00,0.2633
2109.00,0.2632
2108.00,0.2632
2107.00,0.2631
2106.00,0.2630
2105.00,0.2629
2104.00,0.2629
2103.00,0.2628
2102.00,0.2628
2101.00,0.2627
2100.00,0.2627
2099.00,0.2626
2098.00,0.2625
2097.00,0.2625
2096.00,0.2624
2095.00,0.2624
2094.00,0.2623
2093.00,0.2623
2092.00,0.2623
2091.00,0.2623
2090.00,0.2623
2089.00,0.2623
2088.00,0.2623
2087.00,0.2622
2086.00,0.2622
2085.00,0.2621
2084.00,0.2621
2083.00,0.2621
2082.00,0.2621
2081.00,0.2621
2080.00,0.2621
2079.00,0.2621
2078.00,0.2621
2077.00,0.2621
2076.00,0.2621
2075.00,0.2622
2074.00,0.2622
2073.00,0.2623
2072.00,0.2624
2071.00,0.2624
2070.00,0.2624
2069.00,0.2625
2068.00,0.2626
2067.00,0.2628
2066.00,0.2630
2065.00,0.2633
2064.00,0.2635
2063.00,0.2636
2062.00,0.2636
2061.00,0.2636
2060.00,0.2637
2059.00,0.2637
2058.00,0.2637
2057.00,0.2638
2056.00,0.2639
2055.00,0.2641
2054.00,0.2642
2053.00,0.2644
2052.00,0.2646
2051.00,0.2647
2050.00,0.2648
2049.00,0.2650
2048.00,0.2651
2047.00,0.2653
2046.00,0.2655
2045.00,0.2657
2044.00,0.2660
2043.00,0.2662
2042.00,0.2664
2041.00,0.2666
2040.00,0.2667
2039.00,0.2668
2038.00,0.2668
2037.00,0.2669
2036.00,0.2670
2035.00,0.2671
2034.00,0.2671
2033.00,0.2672
2032.00,0.2672
2031.00,0.2673
2030.00,0.2673
2029.00,0.2673
2028.00,0.2672
2027.00,0.2671
2026.00,0.2670
2025.00,0.2668
2024.00,0.2667
2023.00,0.2664
2022.00,0.2661
2021.00,0.2657
2020.00,0.2653
2019.00,0.2649
2018.00,0.2643
2017.00,0.2638
2016.00,0.2631
2015.00,0.2623
2014.00,0.2616
2013.00,0.2609
2012.00,0.2603
2011.00,0.2597
2010.00,0.2592
2009.00,0.2588
2008.00,0.2585
2007.00,0.2582
2006.00,0.2578
2005.00,0.2576
2004.00,0.2573
2003.00,0.2571
2002.00,0.2570
2001.00,0.2569
2000.00,0.2569
1999.00,0.2568
1998.00,0.2567
1997.00,0.2566
1996.00,0.2565
1995.00,0.2564
1994.00,0.2564
1993.00,0.2564
1992.00,0.2564
1991.00,0.2563
1990.00,0.2561
1989.00,0.2559
1988.00,0.2558
1987.00,0.2556
1986.00,0.2554
1985.00,0.2553
1984.00,0.2552
1983.00,0.2550
1982.00,0.2549
1981.00,0.2548
1980.00,0.2547
1979.00,0.2546
1978.00,0.2546
1977.00,0.2547
1976.00,0.2547
1975.00,0.2548
1974.00,0.2547
1973.00,0.2547
1972.00,0.2546
1971.00,0.2547
1970.00,0.2548
1969.00,0.2550
1968.00,0.2554
1967.00,0.2556
1966.00,0.2556
1965.00,0.2556
1964.00,0.2555
1963.00,0.2555
1962.00,0.2555
1961.00,0.2556
1960.00,0.2557
1959.00,0.2558
1958.00,0.2559
1957.00,0.2560
1956.00,0.2561
1955.00,0.2563
1954.00,0.2564
1953.00,0.2565
1952.00,0.2565
1951.00,0.2565
1950.00,0.2565
1949.00,0.2566
1948.00,0.2568
1947.00,0.2571
1946.00,0.2574
1945.00,0.2578
1944.00,0.2584
1943.00,0.2589
1942.00,0.2595
1941.00,0.2599
1940.00,0.2603
1939.00,0.2606
1938.00,0.2608
1937.00,0.2609
1936.00,0.2609
1935.00,0.2609
1934.00,0.2608
1933.00,0.2608
1932.00,0.2608
1931.00,0.2608
1930.00,0.2608
1929.00,0.2609
1928.00,0.2610
1927.00,0.2610
1926.00,0.2612
1925.00,0.2615
1924.00,0.2621
1923.00,0.2626
1922.00,0.2630
1921.00,0.2632
1920.00,0.2633
1919.00,0.2635
1918.00,0.2636
1917.00,0.2639
1916.00,0.2642
1915.00,0.2643
1914.00,0.2645
1913.00,0.2646
1912.00,0.2648
1911.00,0.2650
1910.00,0.2653
1909.00,0.2655
1908.00,0.2656
1907.00,0.2656
1906.00,0.2655
1905.00,0.2654
1904.00,0.2654
1903.00,0.2654
1902.00,0.2654
1901.00,0.2655
1900.00,0.2656
1899.00,0.2657
1898.00,0.2658
1897.00,0.2661
1896.00,0.2666
1895.00,0.2668
1894.00,0.2669
1893.00,0.2669
1892.00,0.2670
1891.00,0.2671
1890.00,0.2672
1889.00,0.2674
1888.00,0.2675
1887.00,0.2676
1886.00,0.2676
1885.00,0.2677
1884.00,0.2677
1883.00,0.2676
1882.00,0.2675
1881.00,0.2675
1880.00,0.2674
1879.00,0.2673
1878.00,0.2671
1877.00,0.2669
1876.00,0.2667
1875.00,0.2665
1874.00,0.2663
1873.00,0.2662
1872.00,0.2660
1871.00,0.2657
1870.00,0.2656
1869.00,0.2658
1868.00,0.2661
1867.00,0.2661
1866.00,0.2657
1865.00,0.2653
1864.00,0.2649
1863.00,0.2644
1862.00,0.2641
1861.00,0.2638
1860.00,0.2637
1859.00,0.2634
1858.00,0.2631
1857.00,0.2628
1856.00,0.2625
1855.00,0.2622
1854.00,0.2620
1853.00,0.2618
1852.00,0.2618
1851.00,0.2617
1850.00,0.2617
1849.00,0.2618
1848.00,0.2619
1847.00,0.2618
1846.00,0.2614
1845.00,0.2609
1844.00,0.2606
1843.00,0.2605
1842.00,0.2606
1841.00,0.2608
1840.00,0.2608
1839.00,0.2607
1838.00,0.2606
1837.00,0.2606
1836.00,0.2605
1835.00,0.2603
1834.00,0.2601
1833.00,0.2599
1832.00,0.2598
1831.00,0.2597
1830.00,0.2598
1829.00,0.2599
1828.00,0.2599
1827.00,0.2597
1826.00,0.2595
1825.00,0.2594
1824.00,0.2594
1823.00,0.2595
1822.00,0.2595
1821.00,0.2595
1820.00,0.2595
1819.00,0.2595
1818.00,0.2595
1817.00,0.2596
1816.00,0.2599
1815.00,0.2601
1814.00,0.2604
1813.00,0.2607
1812.00,0.2613
1811.00,0.2616
1810.00,0.2618
1809.00,0.2620
1808.00,0.2622
1807.00,0.2624
1806.00,0.2626
1805.00,0.2629
1804.00,0.2634
1803.00,0.2639
1802.00,0.2645
1801.00,0.2652
1800.00,0.2659
1799.00,0.2665
1798.00,0.2672
1797.00,0.2680
1796.00,0.2687
1795.00,0.2691
1794.00,0.2691
1793.00,0.2691
1792.00,0.2695
1791.00,0.2701
1790.00,0.2705
1789.00,0.2710
1788.00,0.2715
1787.00,0.2718
1786.00,0.2720
1785.00,0.2724
1784.00,0.2731
1783.00,0.2737
1782.00,0.2745
1781.00,0.2753
1780.00,0.2760
1779.00,0.2766
1778.00,0.2770
1777.00,0.2775
1776.00,0.2783
1775.00,0.2791
1774.00,0.2799
1773.00,0.2807
1772.00,0.2815
1771.00,0.2820
1770.00,0.2824
1769.00,0.2830
1768.00,0.2839
1767.00,0.2850
1766.00,0.2861
1765.00,0.2873
1764.00,0.2886
1763.00,0.2900
1762.00,0.2916
1761.00,0.2936
1760.00,0.2960
1759.00,0.2985
1758.00,0.3010
1757.00,0.3038
1756.00,0.3071
1755.00,0.3105
1754.00,0.3141
1753.00,0.3179
1752.00,0.3222
1751.00,0.3270
1750.00,0.3318
1749.00,0.3364
1748.00,0.3402
1747.00,0.3434
1746.00,0.3461
1745.00,0.3486
1744.00,0.3508
1743.00,0.3524
1742.00,0.3533
1741.00,0.3537
1740.00,0.3538
1739.00,0.3539
1738.00,0.3540
1737.00,0.3540
1736.00,0.3537
1735.00,0.3527
1734.00,0.3517
1733.00,0.3513
1732.00,0.3509
1731.00,0.3501
1730.00,0.3490
1729.00,0.3483
1728.00,0.3481
1727.00,0.3485
1726.00,0.3496
1725.00,0.3514
1724.00,0.3541
1723.00,0.3573
1722.00,0.3607
1721.00,0.3646
1720.00,0.3695
1719.00,0.3766
1718.00,0.3871
1717.00,0.3998
1716.00,0.4124
1715.00,0.4245
1714.00,0.4373
1713.00,0.4507
1712.00,0.4641
1711.00,0.4767
1710.00,0.4879
1709.00,0.4963
1708.00,0.5008
1707.00,0.5012
1706.00,0.4976
1705.00,0.4905
1704.00,0.4814
1703.00,0.4717
1702.00,0.4598
1701.00,0.4433
1700.00,0.4255
1699.00,0.4132
1698.00,0.4063
1697.00,0.3999
1696.00,0.3907
1695.00,0.3802
1694.00,0.3720
1693.00,0.3664
1692.00,0.3622
1691.00,0.3584
1690.00,0.3551
1689.00,0.3525
1688.00,0.3506
1687.00,0.3494
1686.00,0.3481
1685.00,0.3460
1684.00,0.3433
1683.00,0.3403
1682.00,0.3382
1681.00,0.3373
1680.00,0.3366
1679.00,0.3354
1678.00,0.3340
1677.00,0.3324
1676.00,0.3308
1675.00,0.3299
1674.00,0.3300
1673.00,0.3307
1672.00,0.3311
1671.00,0.3311
1670.00,0.3311
1669.00,0.3312
1668.00,0.3314
1667.00,0.3319
1666.00,0.3323
1665.00,0.3325
1664.00,0.3326
1663.00,0.3329
1662.00,0.3336
1661.00,0.3346
1660.00,0.3356
1659.00,0.3366
1658.00,0.3375
1657.00,0.3385
1656.00,0.3398
1655.00,0.3411
1654.00,0.3432
1653.00,0.3463
1652.00,0.3485
1651.00,0.3498
1650.00,0.3505
1649.00,0.3512
1648.00,0.3532
1647.00,0.3559
1646.00,0.3583
1645.00,0.3602
1644.00,0.3623
1643.00,0.3642
1642.00,0.3662
1641.00,0.3685
1640.00,0.3710
1639.00,0.3733
1638.00,0.3757
1637.00,0.3784
1636.00,0.3814
1635.00,0.3837
1634.00,0.3856
1633.00,0.3880
1632.00,0.3906
1631.00,0.3929
1630.00,0.3950
1629.00,0.3975
1628.00,0.4004
1627.00,0.4033
1626.00,0.4060
1625.00,0.4091
1624.00,0.4131
1623.00,0.4179
1622.00,0.4233
1621.00,0.4292
1620.00,0.4356
1619.00,0.4428
1618.00,0.4521
1617.00,0.4641
1616.00,0.4771
1615.00,0.4885
1614.00,0.4982
1613.00,0.5080
1612.00,0.5188
1611.00,0.5300
1610.00,0.5414
1609.00,0.5529
1608.00,0.5640
1607.00,0.5739
1606.00,0.5821
1605.00,0.5897
1604.00,0.5973
1603.00,0.6044
1602.00,0.6112
1601.00,0.6184
1600.00,0.6265
1599.00,0.6352
1598.00,0.6450
1597.00,0.6575
1596.00,0.6740
1595.00,0.6946
1594.00,0.7199
1593.00,0.7521
1592.00,0.7934
1591.00,0.8454
1590.00,0.9102
1589.00,0.9927
1588.00,1.0990
1587.00,1.2327
1586.00,1.3965
1585.00,1.5979
1584.00,1.8523
1583.00,2.1626
1582.00,2.4725
1581.00,2.6918
1580.00,2.7919
1579.00,2.6271
1578.00,2.2580
1577.00,1.9154
1576.00,1.6490
1575.00,1.4540
1574.00,1.3169
1573.00,1.2194
1572.00,1.1448
1571.00,1.0822
1570.00,1.0319
1569.00,1.0019
1568.00,0.9960
1567.00,1.0112
1566.00,1.0467
1565.00,1.1060
1564.00,1.1882
1563.00,1.2801
1562.00,1.3649
1561.00,1.4322
1560.00,1.4541
1559.00,1.3711
1558.00,1.2313
1557.00,1.1178
1556.00,1.0274
1555.00,0.9394
1554.00,0.8567
1553.00,0.7898
1552.00,0.7402
1551.00,0.7005
1550.00,0.6660
1549.00,0.6374
1548.00,0.6161
1547.00,0.5998
1546.00,0.5859
1545.00,0.5739
1544.00,0.5644
1543.00,0.5567
1542.00,0.5497
1541.00,0.5435
1540.00,0.5375
1539.00,0.5303
1538.00,0.5237
1537.00,0.5191
1536.00,0.5154
1535.00,0.5116
1534.00,0.5079
1533.00,0.5058
1532.00,0.5054
1531.00,0.5062
1530.00,0.5074
1529.00,0.5089
1528.00,0.5104
1527.00,0.5113
1526.00,0.5108
1525.00,0.5099
1524.00,0.5094
1523.00,0.5095
1522.00,0.5103
1521.00,0.5119
1520.00,0.5141
1519.00,0.5164
1518.00,0.5196
1517.00,0.5239
1516.00,0.5282
1515.00,0.5307
1514.00,0.5316
1513.00,0.5322
1512.00,0.5332
1511.00,0.5349
1510.00,0.5378
1509.00,0.5427
1508.00,0.5513
1507.00,0.5636
1506.00,0.5757
1505.00,0.5865
1504.00,0.5966
1503.00,0.6053
1502.00,0.6133
1501.00,0.6213
1500.00,0.6292
1499.00,0.6368
1498.00,0.6453
1497.00,0.6563
1496.00,0.6690
1495.00,0.6812
1494.00,0.6925
1493.00,0.7042
1492.00,0.7179
1491.00,0.7341
1490.00,0.7534
1489.00,0.7750
1488.00,0.7974
1487.00,0.8201
1486.00,0.8452
1485.00,0.8747
1484.00,0.9090
1483.00,0.9487
1482.00,0.9961
1481.00,1.0526
1480.00,1.1156
1479.00,1.1828
1478.00,1.2584
1477.00,1.3498
1476.00,1.4588
1475.00,1.5826
1474.00,1.7294
1473.00,1.9236
1472.00,2.1820
1471.00,2.4882
1470.00,2.8239
1469.00,3.2232
1468.00,3.6320
1467.00,3.8771
1466.00,4.1209
1465.00,3.9120
1464.00,3.7581
1463.00,3.8884
1462.00,4.0219
1461.00,3.8119
1460.00,3.7501
1459.00,4.0020
1458.00,4.0529
1457.00,3.9009
1456.00,3.9907
1455.00,4.4889
1454.00,4.5309
1453.00,4.1122
1452.00,3.8945
1451.00,4.1393
1450.00,4.2266
1449.00,4.0458
1448.00,4.1803
1447.00,3.7241
1446.00,3.3793
1445.00,3.2174
1444.00,3.0140
1443.00,2.7847
1442.00,2.6079
1441.00,2.4742
1440.00,2.3498
1439.00,2.2196
1438.00,2.0848
1437.00,1.9450
1436.00,1.8093
1435.00,1.6919
1434.00,1.5926
1433.00,1.5000
1432.00,1.4073
1431.00,1.3169
1430.00,1.2349
1429.00,1.1651
1428.00,1.1089
1427.00,1.0653
1426.00,1.0307
1425.00,1.0017
1424.00,0.9777
1423.00,0.9597
1422.00,0.9469
1421.00,0.9368
1420.00,0.9278
1419.00,0.9199
1418.00,0.9134
1417.00,0.9079
1416.00,0.9037
1415.00,0.9010
1414.00,0.8996
1413.00,0.8991
1412.00,0.8997
1411.00,0.9009
1410.00,0.9012
1409.00,0.8991
1408.00,0.8939
1407.00,0.8851
1406.00,0.8721
1405.00,0.8553
1404.00,0.8367
1403.00,0.8193
1402.00,0.8039
1401.00,0.7898
1400.00,0.7770
1399.00,0.7667
1398.00,0.7596
1397.00,0.7554
1396.00,0.7542
1395.00,0.7570
1394.00,0.7643
1393.00,0.7769
1392.00,0.7961
1391.00,0.8240
1390.00,0.8627
1389.00,0.9161
1388.00,0.9897
1387.00,1.0849
1386.00,1.1947
1385.00,1.3091
1384.00,1.4259
1383.00,1.5504
1382.00,1.6877
1381.00,1.8418
1380.00,2.0167
1379.00,2.2020
1378.00,2.3503
1377.00,2.4012
1376.00,2.3435
1375.00,2.2017
1374.00,2.0190
1373.00,1.8452
1372.00,1.7035
1371.00,1.5938
1370.00,1.5119
1369.00,1.4559
1368.00,1.4217
1367.00,1.3976
1366.00,1.3670
1365.00,1.3175
1364.00,1.2480
1363.00,1.1689
1362.00,1.0949
1361.00,1.0348
1360.00,0.9899
1359.00,0.9570
1358.00,0.9330
1357.00,0.9160
1356.00,0.9048
1355.00,0.8983
1354.00,0.8948
1353.00,0.8929
1352.00,0.8915
1351.00,0.8897
1350.00,0.8872
1349.00,0.8839
1348.00,0.8801
1347.00,0.8766
1346.00,0.8737
1345.00,0.8715
1344.00,0.8697
1343.00,0.8677
1342.00,0.8648
1341.00,0.8601
1340.00,0.8529
1339.00,0.8427
1338.00,0.8293
1337.00,0.8136
1336.00,0.7964
1335.00,0.7791
1334.00,0.7626
1333.00,0.7476
1332.00,0.7344
1331.00,0.7234
1330.00,0.7145
1329.00,0.7076
1328.00,0.7026
1327.00,0.6995
1326.00,0.6979
1325.00,0.6974
1324.00,0.6974
1323.00,0.6978
1322.00,0.6984
1321.00,0.6991
1320.00,0.7000
1319.00,0.7013
1318.00,0.7030
1317.00,0.7051
1316.00,0.7077
1315.00,0.7110
1314.00,0.7151
1313.00,0.7196
1312.00,0.7242
1311.00,0.7286
1310.00,0.7325
1309.00,0.7359
1308.00,0.7388
1307.00,0.7411
1306.00,0.7424
1305.00,0.7423
1304.00,0.7405
1303.00,0.7371
1302.00,0.7324
1301.00,0.7269
1300.00,0.7211
1299.00,0.7151
1298.00,0.7091
1297.00,0.7029
1296.00,0.6969
1295.00,0.6913
1294.00,0.6864
1293.00,0.6819
1292.00,0.6778
1291.00,0.6740
1290.00,0.6704
1289.00,0.6668
1288.00,0.6632
1287.00,0.6594
1286.00,0.6552
1285.00,0.6507
1284.00,0.6458
1283.00,0.6411
1282.00,0.6369
1281.00,0.6333
1280.00,0.6303
1279.00,0.6277
1278.00,0.6253
1277.00,0.6227
1276.00,0.6200
1275.00,0.6174
1274.00,0.6151
1273.00,0.6132
1272.00,0.6117
1271.00,0.6108
1270.00,0.6103
1269.00,0.6097
1268.00,0.6083
1267.00,0.6057
1266.00,0.6017
1265.00,0.5969
1264.00,0.5921
1263.00,0.5880
1262.00,0.5849
1261.00,0.5827
1260.00,0.5809
1259.00,0.5794
1258.00,0.5777
1257.00,0.5755
1256.00,0.5729
1255.00,0.5703
1254.00,0.5681
1253.00,0.5664
1252.00,0.5652
1251.00,0.5640
1250.00,0.5627
1249.00,0.5610
1248.00,0.5588
1247.00,0.5564
1246.00,0.5539
1245.00,0.5510
1244.00,0.5479
1243.00,0.5445
1242.00,0.5410
1241.00,0.5372
1240.00,0.5336
1239.00,0.5304
1238.00,0.5279
1237.00,0.5259
1236.00,0.5242
1235.00,0.5231
1234.00,0.5227
1233.00,0.5229
1232.00,0.5236
1231.00,0.5247
1230.00,0.5258
1229.00,0.5260
1228.00,0.5251
1227.00,0.5229
1226.00,0.5198
1225.00,0.5159
1224.00,0.5119
1223.00,0.5085
1222.00,0.5057
1221.00,0.5036
1220.00,0.5020
1219.00,0.5010
1218.00,0.5007
1217.00,0.5010
1216.00,0.5017
1215.00,0.5029
1214.00,0.5039
1213.00,0.5043
1212.00,0.5038
1211.00,0.5026
1210.00,0.5010
1209.00,0.4992
1208.00,0.4973
1207.00,0.4954
1206.00,0.4935
1205.00,0.4915
1204.00,0.4896
1203.00,0.4881
1202.00,0.4869
1201.00,0.4860
1200.00,0.4856
1199.00,0.4855
1198.00,0.4857
1197.00,0.4856
1196.00,0.4850
1195.00,0.4843
1194.00,0.4835
1193.00,0.4827
1192.00,0.4818
1191.00,0.4811
1190.00,0.4804
1189.00,0.4797
1188.00,0.4789
1187.00,0.4783
1186.00,0.4777
1185.00,0.4771
1184.00,0.4766
1183.00,0.4763
1182.00,0.4763
1181.00,0.4765
1180.00,0.4769
1179.00,0.4777
1178.00,0.4789
1177.00,0.4804
1176.00,0.4826
1175.00,0.4858
1174.00,0.4900
1173.00,0.4950
1172.00,0.5003
1171.00,0.5052
1170.00,0.5088
1169.00,0.5105
1168.00,0.5105
1167.00,0.5094
1166.00,0.5078
1165.00,0.5064
1164.00,0.5055
1163.00,0.5052
1162.00,0.5056
1161.00,0.5067
1160.00,0.5082
1159.00,0.5101
1158.00,0.5120
1157.00,0.5133
1156.00,0.5139
1155.00,0.5139
1154.00,0.5133
1153.00,0.5120
1152.00,0.5100
1151.00,0.5076
1150.00,0.5051
1149.00,0.5027
1148.00,0.5004
1147.00,0.4984
1146.00,0.4968
1145.00,0.4957
1144.00,0.4953
1143.00,0.4960
1142.00,0.4979
1141.00,0.5010
1140.00,0.5055
1139.00,0.5113
1138.00,0.5185
1137.00,0.5270
1136.00,0.5363
1135.00,0.5459
1134.00,0.5540
1133.00,0.5583
1132.00,0.5575
1131.00,0.5517
1130.00,0.5426
1129.00,0.5327
1128.00,0.5236
1127.00,0.5166
1126.00,0.5116
1125.00,0.5084
1124.00,0.5063
1123.00,0.5048
1122.00,0.5035
1121.00,0.5022
1120.00,0.5013
1119.00,0.5014
1118.00,0.5032
1117.00,0.5066
1116.00,0.5113
1115.00,0.5161
1114.00,0.5188
1113.00,0.5179
1112.00,0.5128
1111.00,0.5049
1110.00,0.4963
1109.00,0.4885
1108.00,0.4825
1107.00,0.4783
1106.00,0.4756
1105.00,0.4741
1104.00,0.4732
1103.00,0.4727
1102.00,0.4723
1101.00,0.4715
1100.00,0.4704
1099.00,0.4691
1098.00,0.4679
1097.00,0.4666
1096.00,0.4653
1095.00,0.4644
1094.00,0.4640
1093.00,0.4640
1092.00,0.4645
1091.00,0.4657
1090.00,0.4675
1089.00,0.4700
1088.00,0.4732
1087.00,0.4775
1086.00,0.4828
1085.00,0.4890
1084.00,0.4962
1083.00,0.5043
1082.00,0.5131
1081.00,0.5222
1080.00,0.5309
1079.00,0.5387
1078.00,0.5448
1077.00,0.5480
1076.00,0.5477
1075.00,0.5440
1074.00,0.5377
1073.00,0.5299
1072.00,0.5222
1071.00,0.5153
1070.00,0.5099
1069.00,0.5057
1068.00,0.5027
1067.00,0.5005
1066.00,0.4990
1065.00,0.4979
1064.00,0.4970
1063.00,0.4966
1062.00,0.4967
1061.00,0.4971
1060.00,0.4976
1059.00,0.4978
1058.00,0.4977
1057.00,0.4971
1056.00,0.4959
1055.00,0.4945
1054.00,0.4932
1053.00,0.4923
1052.00,0.4921
1051.00,0.4928
1050.00,0.4943
1049.00,0.4963
1048.00,0.4985
1047.00,0.5006
1046.00,0.5023
1045.00,0.5033
1044.00,0.5036
1043.00,0.5034
1042.00,0.5030
1041.00,0.5026
1040.00,0.5022
1039.00,0.5018
1038.00,0.5013
1037.00,0.5008
1036.00,0.5006
1035.00,0.5011
1034.00,0.5025
1033.00,0.5046
1032.00,0.5073
1031.00,0.5102
1030.00,0.5127
1029.00,0.5142
1028.00,0.5141
1027.00,0.5120
1026.00,0.5078
1025.00,0.5019
1024.00,0.4950
1023.00,0.4880
1022.00,0.4816
1021.00,0.4758
1020.00,0.4705
1019.00,0.4659
1018.00,0.4620
1017.00,0.4587
1016.00,0.4557
1015.00,0.4532
1014.00,0.4511
1013.00,0.4493
1012.00,0.4479
1011.00,0.4469
1010.00,0.4464
1009.00,0.4463
1008.00,0.4466
1007.00,0.4475
1006.00,0.4488
1005.00,0.4506
1004.00,0.4527
1003.00,0.4552
1002.00,0.4577
1001.00,0.4601
1000.00,0.4621
999.00,0.4634
998.00,0.4639
997.00,0.4634
996.00,0.4618
995.00,0.4594
994.00,0.4565
993.00,0.4531
992.00,0.4493
991.00,0.4452
990.00,0.4411
989.00,0.4373
988.00,0.4343
987.00,0.4322
986.00,0.4312
985.00,0.4312
984.00,0.4319
983.00,0.4334
982.00,0.4355
981.00,0.4380
980.00,0.4405
979.00,0.4431
978.00,0.4454
977.00,0.4474
976.00,0.4488
975.00,0.4499
974.00,0.4505
973.00,0.4508
972.00,0.4507
971.00,0.4507
970.00,0.4506
969.00,0.4504
968.00,0.4502
967.00,0.4498
966.00,0.4493
965.00,0.4486
964.00,0.4477
963.00,0.4465
962.00,0.4452
961.00,0.4438
960.00,0.4425
959.00,0.4415
958.00,0.4410
957.00,0.4406
956.00,0.4403
955.00,0.4400
954.00,0.4395
953.00,0.4387
952.00,0.4375
951.00,0.4363
950.00,0.4355
949.00,0.4352
948.00,0.4351
947.00,0.4356
946.00,0.4364
945.00,0.4377
944.00,0.4394
943.00,0.4413
942.00,0.4433
941.00,0.4450
940.00,0.4464
939.00,0.4475
938.00,0.4480
937.00,0.4479
936.00,0.4469
935.00,0.4451
934.00,0.4428
933.00,0.4401
932.00,0.4373
931.00,0.4347
930.00,0.4326
929.00,0.4310
928.00,0.4303
927.00,0.4308
926.00,0.4327
925.00,0.4363
924.00,0.4413
923.00,0.4475
922.00,0.4536
921.00,0.4579
920.00,0.4588
919.00,0.4555
918.00,0.4484
917.00,0.4391
916.00,0.4291
915.00,0.4196
914.00,0.4116
913.00,0.4051
912.00,0.4000
911.00,0.3961
910.00,0.3930
909.00,0.3905
908.00,0.3885
907.00,0.3872
906.00,0.3864
905.00,0.3859
904.00,0.3858
903.00,0.3863
902.00,0.3876
901.00,0.3899
900.00,0.3928
899.00,0.3962
898.00,0.3998
897.00,0.4034
896.00,0.4072
895.00,0.4112
894.00,0.4156
893.00,0.4202
892.00,0.4248
891.00,0.4290
890.00,0.4325
889.00,0.4348
888.00,0.4355
887.00,0.4349
886.00,0.4334
885.00,0.4314
884.00,0.4295
883.00,0.4283
882.00,0.4279
881.00,0.4285
880.00,0.4297
879.00,0.4310
878.00,0.4321
877.00,0.4326
876.00,0.4326
875.00,0.4326
874.00,0.4328
873.00,0.4331
872.00,0.4336
871.00,0.4345
870.00,0.4359
869.00,0.4376
868.00,0.4398
867.00,0.4428
866.00,0.4469
865.00,0.4520
864.00,0.4573
863.00,0.4618
862.00,0.4638
861.00,0.4620
860.00,0.4564
859.00,0.4485
858.00,0.4400
857.00,0.4324
856.00,0.4261
855.00,0.4212
854.00,0.4175
853.00,0.4147
852.00,0.4124
851.00,0.4105
850.00,0.4087
849.00,0.4065
848.00,0.4040
847.00,0.4011
846.00,0.3982
845.00,0.3954
844.00,0.3931
843.00,0.3915
842.00,0.3912
841.00,0.3927
840.00,0.3967
839.00,0.4033
838.00,0.4119
837.00,0.4205
836.00,0.4266
835.00,0.4284
834.00,0.4258
833.00,0.4201
832.00,0.4139
831.00,0.4091
830.00,0.4069
829.00,0.4073
828.00,0.4099
827.00,0.4143
826.00,0.4200
825.00,0.4263
824.00,0.4330
823.00,0.4402
822.00,0.4476
821.00,0.4551
820.00,0.4624
819.00,0.4693
818.00,0.4754
817.00,0.4802
816.00,0.4832
815.00,0.4840
814.00,0.4823
813.00,0.4783
812.00,0.4723
811.00,0.4655
810.00,0.4585
809.00,0.4517
808.00,0.4455
807.00,0.4401
806.00,0.4354
805.00,0.4307
804.00,0.4255
803.00,0.4196
802.00,0.4134
801.00,0.4075
800.00,0.4025
799.00,0.3987
798.00,0.3960
797.00,0.3941
796.00,0.3927
795.00,0.3917
794.00,0.3914
793.00,0.3918
792.00,0.3930
791.00,0.3948
790.00,0.3973
789.00,0.4000
788.00,0.4029
787.00,0.4059
786.00,0.4094
785.00,0.4135
784.00,0.4179
783.00,0.4224
782.00,0.4265
781.00,0.4298
780.00,0.4320
779.00,0.4338
778.00,0.4353
777.00,0.4370
776.00,0.4389
775.00,0.4410
774.00,0.4434
773.00,0.4459
772.00,0.4487
771.00,0.4520
770.00,0.4559
769.00,0.4601
768.00,0.4642
767.00,0.4678
766.00,0.4706
765.00,0.4727
764.00,0.4743
763.00,0.4763
762.00,0.4793
761.00,0.4834
760.00,0.4882
759.00,0.4930
758.00,0.4973
757.00,0.5004
756.00,0.5028
755.00,0.5051
754.00,0.5081
753.00,0.5119
752.00,0.5163
751.00,0.5214
750.00,0.5270
749.00,0.5325
748.00,0.5374
747.00,0.5417
746.00,0.5458
745.00,0.5501
744.00,0.5549
743.00,0.5606
742.00,0.5671
741.00,0.5737
740.00,0.5798
739.00,0.5851
738.00,0.5897
737.00,0.5942
736.00,0.5988
735.00,0.6039
734.00,0.6097
733.00,0.6163
732.00,0.6245
731.00,0.6350
730.00,0.6488
729.00,0.6662
728.00,0.6875
727.00,0.7133
726.00,0.7442
725.00,0.7789
724.00,0.8138
723.00,0.8417
722.00,0.8532
721.00,0.8406
720.00,0.8047
719.00,0.7552
718.00,0.7034
717.00,0.6563
716.00,0.6167
715.00,0.5850
714.00,0.5602
713.00,0.5402
712.00,0.5237
711.00,0.5101
710.00,0.4990
709.00,0.4900
708.00,0.4824
707.00,0.4759
706.00,0.4702
705.00,0.4652
704.00,0.4606
703.00,0.4570
702.00,0.4547
701.00,0.4531
700.00,0.4504
699.00,0.4441
698.00,0.4326
697.00,0.4165
696.00,0.3986
695.00,0.3819
694.00,0.3683
693.00,0.3580
692.00,0.3506
691.00,0.3453
690.00,0.3413
689.00,0.3380
688.00,0.3350
687.00,0.3326
686.00,0.3308
685.00,0.3294
684.00,0.3283
683.00,0.3274
682.00,0.3269
681.00,0.3268
680.00,0.3267
679.00,0.3265
678.00,0.3261
677.00,0.3255
676.00,0.3252
675.00,0.3253
674.00,0.3256
673.00,0.3260
672.00,0.3261
671.00,0.3264
670.00,0.3267
669.00,0.3271
668.00,0.3270
667.00,0.3265
666.00,0.3267
665.00,0.3276
664.00,0.3288
663.00,0.3300
662.00,0.3311
661.00,0.3322
660.00,0.3334
659.00,0.3344
658.00,0.3352
657.00,0.3356
656.00,0.3361
655.00,0.3367
654.00,0.3377
653.00,0.3387
652.00,0.3396
651.00,0.3405
650.00,0.3415
649.00,0.3428
648.00,0.3443
647.00,0.3459
646.00,0.3475
645.00,0.3490
644.00,0.3503
643.00,0.3516
642.00,0.3530
641.00,0.3543
640.00,0.3555
639.00,0.3566
638.00,0.3577
637.00,0.3587
636.00,0.3596
635.00,0.3604
634.00,0.3610
633.00,0.3614
632.00,0.3619
631.00,0.3626
630.00,0.3637
629.00,0.3651
628.00,0.3667
627.00,0.3687
626.00,0.3711
625.00,0.3735
624.00,0.3759
623.00,0.3780
622.00,0.3797
621.00,0.3810
620.00,0.3820
619.00,0.3827
618.00,0.3832
617.00,0.3832
616.00,0.3831
615.00,0.3828
614.00,0.3824
613.00,0.3817
612.00,0.3808
611.00,0.3796
610.00,0.3781
609.00,0.3764
608.00,0.3747
607.00,0.3734
606.00,0.3724
605.00,0.3714
604.00,0.3703
603.00,0.3696
602.00,0.3696
601.00,0.3702
600.00,0.3708
599.00,0.3714
598.00,0.3722
597.00,0.3736
596.00,0.3754
595.00,0.3778
594.00,0.3806
593.00,0.3832
592.00,0.3853
591.00,0.3868
590.00,0.3881
589.00,0.3894
588.00,0.3910
587.00,0.3933
586.00,0.3962
585.00,0.3993
584.00,0.4023
583.00,0.4048
582.00,0.4071
581.00,0.4094
580.00,0.4119
579.00,0.4145
578.00,0.4170
577.00,0.4193
576.00,0.4216
575.00,0.4242
574.00,0.4269
573.00,0.4296
572.00,0.4322
571.00,0.4349
570.00,0.4376
569.00,0.4400
568.00,0.4422
567.00,0.4444
566.00,0.4466
565.00,0.4485
564.00,0.4501
563.00,0.4518
562.00,0.4537
561.00,0.4555
560.00,0.4567
559.00,0.4577
558.00,0.4589
557.00,0.4604
556.00,0.4621
555.00,0.4635
554.00,0.4646
553.00,0.4657
552.00,0.4670
551.00,0.4685
550.00,0.4697
