Created as New Dataset,
cm-1,A
4000.00,0.3934
3999.00,0.3931
3998.00,0.3927
3997.00,0.3923
3996.00,0.3919
3995.00,0.3915
3994.00,0.3912
3993.00,0.3909
3992.00,0.3906
3991.00,0.3902
3990.00,0.3898
3989.00,0.3893
3988.00,0.3889
3987.00,0.3885
3986.00,0.3882
3985.00,0.3879
3984.00,0.3875
3983.00,0.3872
3982.00,0.3869
3981.00,0.3867
3980.00,0.3864
3979.00,0.3861
3978.00,0.3858
3977.00,0.3855
3976.00,0.3854
3975.00,0.3852
3974.00,0.3850
3973.00,0.3849
3972.00,0.3847
3971.00,0.3845
3970.00,0.3843
3969.00,0.3840
3968.00,0.3838
3967.00,0.3835
3966.00,0.3833
3965.00,0.3830
3964.00,0.3828
3963.00,0.3826
3962.00,0.3823
3961.00,0.3821
3960.00,0.3819
3959.00,0.3817
3958.00,0.3815
3957.00,0.3814
3956.00,0.3813
3955.00,0.3811
3954.00,0.3810
3953.00,0.3807
3952.00,0.3805
3951.00,0.3803
3950.00,0.3802
3949.00,0.3800
3948.00,0.3799
3947.00,0.3798
3946.00,0.3796
3945.00,0.3794
3944.00,0.3793
3943.00,0.3793
3942.00,0.3793
3941.00,0.3793
3940.00,0.3792
3939.00,0.3791
3938.00,0.3791
3937.00,0.3790
3936.00,0.3790
3935.00,0.3790
3934.00,0.3790
3933.00,0.3791
3932.00,0.3791
3931.00,0.3791
3930.00,0.3790
3929.00,0.3789
3928.00,0.3789
3927.00,0.3788
3926.00,0.3788
3925.00,0.3788
3924.00,0.3788
3923.00,0.3787
3922.00,0.3786
3921.00,0.3785
3920.00,0.3784
3919.00,0.3783
3918.00,0.3782
3917.00,0.3781
3916.00,0.3780
3915.00,0.3778
3914.00,0.3777
3913.00,0.3776
3912.00,0.3776
3911.00,0.3777
3910.00,0.3778
3909.00,0.3778
3908.00,0.3778
3907.00,0.3778
3906.00,0.3777
3905.00,0.3777
3904.00,0.3777
3903.00,0.3776
3902.00,0.3776
3901.00,0.3776
3900.00,0.3776
3899.00,0.3777
3898.00,0.3777
3897.00,0.3776
3896.00,0.3775
3895.00,0.3774
3894.00,0.3773
3893.00,0.3772
3892.00,0.3772
3891.00,0.3772
3890.00,0.3772
3889.00,0.3772
3888.00,0.3770
3887.00,0.3767
3886.00,0.3767
3885.00,0.3767
3884.00,0.3768
3883.00,0.3766
3882.00,0.3763
3881.00,0.3761
3880.00,0.3761
3879.00,0.3762
3878.00,0.3761
3877.00,0.3758
3876.00,0.3756
3875.00,0.3755
3874.00,0.3755
3873.00,0.3755
3872.00,0.3752
3871.00,0.3748
3870.00,0.3747
3869.00,0.3748
3868.00,0.3750
3867.00,0.3749
3866.00,0.3747
3865.00,0.3745
3864.00,0.3745
3863.00,0.3744
3862.00,0.3742
3861.00,0.3741
3860.00,0.3740
3859.00,0.3740
3858.00,0.3741
3857.00,0.3743
3856.00,0.3743
3855.00,0.3743
3854.00,0.3741
3853.00,0.3740
3852.00,0.3738
3851.00,0.3735
3850.00,0.3732
3849.00,0.3731
3848.00,0.3732
3847.00,0.3731
3846.00,0.3730
3845.00,0.3729
3844.00,0.3728
3843.00,0.3729
3842.00,0.3729
3841.00,0.3728
3840.00,0.3726
3839.00,0.3724
3838.00,0.3723
3837.00,0.3722
3836.00,0.3722
3835.00,0.3721
3834.00,0.3721
3833.00,0.3720
3832.00,0.3720
3831.00,0.3720
3830.00,0.3719
3829.00,0.3717
3828.00,0.3715
3827.00,0.3715
3826.00,0.3715
3825.00,0.3716
3824.00,0.3715
3823.00,0.3713
3822.00,0.3712
3821.00,0.3713
3820.00,0.3714
3819.00,0.3712
3818.00,0.3708
3817.00,0.3705
3816.00,0.3704
3815.00,0.3705
3814.00,0.3704
3813.00,0.3700
3812.00,0.3696
3811.00,0.3694
3810.00,0.3694
3809.00,0.3692
3808.00,0.3690
3807.00,0.3687
3806.00,0.3686
3805.00,0.3684
3804.00,0.3681
3803.00,0.3678
3802.00,0.3676
3801.00,0.3676
3800.00,0.3676
3799.00,0.3673
3798.00,0.3669
3797.00,0.3667
3796.00,0.3666
3795.00,0.3666
3794.00,0.3664
3793.00,0.3661
3792.00,0.3658
3791.00,0.3657
3790.00,0.3656
3789.00,0.3655
3788.00,0.3654
3787.00,0.3653
3786.00,0.3652
3785.00,0.3651
3784.00,0.3651
3783.00,0.3650
3782.00,0.3648
3781.00,0.3646
3780.00,0.3644
3779.00,0.3643
3778.00,0.3642
3777.00,0.3640
3776.00,0.3638
3775.00,0.3637
3774.00,0.3636
3773.00,0.3634
3772.00,0.3632
3771.00,0.3629
3770.00,0.3627
3769.00,0.3626
3768.00,0.3624
3767.00,0.3622
3766.00,0.3620
3765.00,0.3619
3764.00,0.3618
3763.00,0.3617
3762.00,0.3615
3761.00,0.3613
3760.00,0.3612
3759.00,0.3610
3758.00,0.3608
3757.00,0.3606
3756.00,0.3605
3755.00,0.3604
3754.00,0.3604
3753.00,0.3604
3752.00,0.3604
3751.00,0.3603
3750.00,0.3602
3749.00,0.3601
3748.00,0.3601
3747.00,0.3599
3746.00,0.3595
3745.00,0.3594
3744.00,0.3594
3743.00,0.3595
3742.00,0.3592
3741.00,0.3589
3740.00,0.3587
3739.00,0.3587
3738.00,0.3586
3737.00,0.3585
3736.00,0.3584
3735.00,0.3583
3734.00,0.3581
3733.00,0.3578
3732.00,0.3576
3731.00,0.3575
3730.00,0.3574
3729.00,0.3572
3728.00,0.3570
3727.00,0.3568
3726.00,0.3568
3725.00,0.3567
3724.00,0.3565
3723.00,0.3562
3722.00,0.3560
3721.00,0.3559
3720.00,0.3558
3719.00,0.3556
3718.00,0.3555
3717.00,0.3555
3716.00,0.3555
3715.00,0.3554
3714.00,0.3554
3713.00,0.3553
3712.00,0.3553
3711.00,0.3552
3710.00,0.3552
3709.00,0.3552
3708.00,0.3551
3707.00,0.3551
3706.00,0.3551
3705.00,0.3550
3704.00,0.3549
3703.00,0.3549
3702.00,0.3549
3701.00,0.3548
3700.00,0.3548
3699.00,0.3547
3698.00,0.3545
3697.00,0.3544
3696.00,0.3544
3695.00,0.3545
3694.00,0.3546
3693.00,0.3547
3692.00,0.3547
3691.00,0.3548
3690.00,0.3548
3689.00,0.3547
3688.00,0.3547
3687.00,0.3547
3686.00,0.3545
3685.00,0.3544
3684.00,0.3543
3683.00,0.3543
3682.00,0.3542
3681.00,0.3542
3680.00,0.3541
3679.00,0.3541
3678.00,0.3540
3677.00,0.3538
3676.00,0.3537
3675.00,0.3538
3674.00,0.3540
3673.00,0.3539
3672.00,0.3536
3671.00,0.3535
3670.00,0.3536
3669.00,0.3537
3668.00,0.3537
3667.00,0.3535
3666.00,0.3533
3665.00,0.3533
3664.00,0.3533
3663.00,0.3534
3662.00,0.3534
3661.00,0.3535
3660.00,0.3536
3659.00,0.3537
3658.00,0.3538
3657.00,0.3538
3656.00,0.3540
3655.00,0.3543
3654.00,0.3544
3653.00,0.3545
3652.00,0.3547
3651.00,0.3548
3650.00,0.3549
3649.00,0.3550
3648.00,0.3550
3647.00,0.3551
3646.00,0.3553
3645.00,0.3555
3644.00,0.3557
3643.00,0.3559
3642.00,0.3562
3641.00,0.3565
3640.00,0.3567
3639.00,0.3570
3638.00,0.3573
3637.00,0.3577
3636.00,0.3580
3635.00,0.3584
3634.00,0.3588
3633.00,0.3593
3632.00,0.3598
3631.00,0.3603
3630.00,0.3611
3629.00,0.3622
3628.00,0.3635
3627.00,0.3646
3626.00,0.3654
3625.00,0.3661
3624.00,0.3666
3623.00,0.3669
3622.00,0.3668
3621.00,0.3662
3620.00,0.3653
3619.00,0.3643
3618.00,0.3633
3617.00,0.3623
3616.00,0.3615
3615.00,0.3609
3614.00,0.3605
3613.00,0.3603
3612.00,0.3602
3611.00,0.3600
3610.00,0.3599
3609.00,0.3599
3608.00,0.3600
3607.00,0.3601
3606.00,0.3601
3605.00,0.3600
3604.00,0.3599
3603.00,0.3598
3602.00,0.3595
3601.00,0.3592
3600.00,0.3589
3599.00,0.3585
3598.00,0.3580
3597.00,0.3575
3596.00,0.3569
3595.00,0.3563
3594.00,0.3558
3593.00,0.3553
3592.00,0.3548
3591.00,0.3544
3590.00,0.3539
3589.00,0.3535
3588.00,0.3532
3587.00,0.3530
3586.00,0.3527
3585.00,0.3525
3584.00,0.3522
3583.00,0.3521
3582.00,0.3520
3581.00,0.3520
3580.00,0.3519
3579.00,0.3518
3578.00,0.3517
3577.00,0.3516
3576.00,0.3516
3575.00,0.3517
3574.00,0.3517
3573.00,0.3518
3572.00,0.3518
3571.00,0.3519
3570.00,0.3519
3569.00,0.3519
3568.00,0.3520
3567.00,0.3522
3566.00,0.3523
3565.00,0.3525
3564.00,0.3526
3563.00,0.3528
3562.00,0.3529
3561.00,0.3531
3560.00,0.3533
3559.00,0.3534
3558.00,0.3536
3557.00,0.3538
3556.00,0.3541
3555.00,0.3543
3554.00,0.3546
3553.00,0.3550
3552.00,0.3553
3551.00,0.3556
3550.00,0.3559
3549.00,0.3562
3548.00,0.3566
3547.00,0.3570
3546.00,0.3575
3545.00,0.3580
3544.00,0.3584
3543.00,0.3587
3542.00,0.3591
3541.00,0.3595
3540.00,0.3600
3539.00,0.3604
3538.00,0.3608
3537.00,0.3611
3536.00,0.3614
3535.00,0.3617
3534.00,0.3619
3533.00,0.3621
3532.00,0.3624
3531.00,0.3627
3530.00,0.3631
3529.00,0.3635
3528.00,0.3638
3527.00,0.3641
3526.00,0.3644
3525.00,0.3646
3524.00,0.3649
3523.00,0.3653
3522.00,0.3657
3521.00,0.3661
3520.00,0.3665
3519.00,0.3669
3518.00,0.3673
3517.00,0.3676
3516.00,0.3680
3515.00,0.3685
3514.00,0.3690
3513.00,0.3696
3512.00,0.3701
3511.00,0.3706
3510.00,0.3711
3509.00,0.3717
3508.00,0.3723
3507.00,0.3728
3506.00,0.3735
3505.00,0.3741
3504.00,0.3747
3503.00,0.3754
3502.00,0.3759
3501.00,0.3764
3500.00,0.3769
3499.00,0.3774
3498.00,0.3781
3497.00,0.3788
3496.00,0.3795
3495.00,0.3802
3494.00,0.3809
3493.00,0.3816
3492.00,0.3824
3491.00,0.3832
3490.00,0.3841
3489.00,0.3848
3488.00,0.3856
3487.00,0.3863
3486.00,0.3870
3485.00,0.3877
3484.00,0.3884
3483.00,0.3890
3482.00,0.3896
3481.00,0.3902
3480.00,0.3908
3479.00,0.3914
3478.00,0.3920
3477.00,0.3926
3476.00,0.3932
3475.00,0.3938
3474.00,0.3945
3473.00,0.3951
3472.00,0.3958
3471.00,0.3964
3470.00,0.3971
3469.00,0.3977
3468.00,0.3985
3467.00,0.3992
3466.00,0.3998
3465.00,0.4005
3464.00,0.4012
3463.00,0.4019
3462.00,0.4026
3461.00,0.4034
3460.00,0.4041
3459.00,0.4049
3458.00,0.4056
3457.00,0.4064
3456.00,0.4071
3455.00,0.4079
3454.00,0.4087
3453.00,0.4096
3452.00,0.4104
3451.00,0.4112
3450.00,0.4119
3449.00,0.4127
3448.00,0.4135
3447.00,0.4144
3446.00,0.4153
3445.00,0.4163
3444.00,0.4172
3443.00,0.4181
3442.00,0.4190
3441.00,0.4199
3440.00,0.4208
3439.00,0.4217
3438.00,0.4227
3437.00,0.4237
3436.00,0.4246
3435.00,0.4256
3434.00,0.4265
3433.00,0.4275
3432.00,0.4284
3431.00,0.4293
3430.00,0.4303
3429.00,0.4313
3428.00,0.4322
3427.00,0.4332
3426.00,0.4342
3425.00,0.4352
3424.00,0.4362
3423.00,0.4372
3422.00,0.4383
3421.00,0.4394
3420.00,0.4404
3419.00,0.4415
3418.00,0.4426
3417.00,0.4436
3416.00,0.4446
3415.00,0.4457
3414.00,0.4467
3413.00,0.4477
3412.00,0.4488
3411.00,0.4499
3410.00,0.4509
3409.00,0.4520
3408.00,0.4531
3407.00,0.4543
3406.00,0.4555
3405.00,0.4566
3404.00,0.4576
3403.00,0.4586
3402.00,0.4596
3401.00,0.4607
3400.00,0.4618
3399.00,0.4629
3398.00,0.4639
3397.00,0.4649
3396.00,0.4658
3395.00,0.4667
3394.00,0.4676
3393.00,0.4687
3392.00,0.4698
3391.00,0.4709
3390.00,0.4718
3389.00,0.4728
3388.00,0.4737
3387.00,0.4746
3386.00,0.4755
3385.00,0.4765
3384.00,0.4774
3383.00,0.4783
3382.00,0.4792
3381.00,0.4800
3380.00,0.4809
3379.00,0.4819
3378.00,0.4828
3377.00,0.4838
3376.00,0.4847
3375.00,0.4856
3374.00,0.4866
3373.00,0.4877
3372.00,0.4887
3371.00,0.4897
3370.00,0.4908
3369.00,0.4919
3368.00,0.4929
3367.00,0.4940
3366.00,0.4951
3365.00,0.4963
3364.00,0.4976
3363.00,0.4988
3362.00,0.5000
3361.00,0.5012
3360.00,0.5023
3359.00,0.5034
3358.00,0.5045
3357.00,0.5057
3356.00,0.5069
3355.00,0.5081
3354.00,0.5093
3353.00,0.5105
3352.00,0.5117
3351.00,0.5130
3350.00,0.5142
3349.00,0.5154
3348.00,0.5165
3347.00,0.5175
3346.00,0.5185
3345.00,0.5195
3344.00,0.5205
3343.00,0.5214
3342.00,0.5224
3341.00,0.5232
3340.00,0.5241
3339.00,0.5248
3338.00,0.5255
3337.00,0.5262
3336.00,0.5268
3335.00,0.5273
3334.00,0.5279
3333.00,0.5283
3332.00,0.5287
3331.00,0.5290
3330.00,0.5293
3329.00,0.5296
3328.00,0.5297
3327.00,0.5298
3326.00,0.5299
3325.00,0.5298
3324.00,0.5296
3323.00,0.5293
3322.00,0.5291
3321.00,0.5289
3320.00,0.5286
3319.00,0.5282
3318.00,0.5278
3317.00,0.5274
3316.00,0.5269
3315.00,0.5264
3314.00,0.5259
3313.00,0.5253
3312.00,0.5247
3311.00,0.5241
3310.00,0.5235
3309.00,0.5230
3308.00,0.5224
3307.00,0.5218
3306.00,0.5212
3305.00,0.5206
3304.00,0.5200
3303.00,0.5195
3302.00,0.5190
3301.00,0.5185
3300.00,0.5181
3299.00,0.5177
3298.00,0.5173
3297.00,0.5169
3296.00,0.5165
3295.00,0.5162
3294.00,0.5160
3293.00,0.5157
3292.00,0.5154
3291.00,0.5151
3290.00,0.5148
3289.00,0.5147
3288.00,0.5146
3287.00,0.5146
3286.00,0.5146
3285.00,0.5146
3284.00,0.5146
3283.00,0.5146
3282.00,0.5147
3281.00,0.5149
3280.00,0.5150
3279.00,0.5152
3278.00,0.5154
3277.00,0.5156
3276.00,0.5158
3275.00,0.5159
3274.00,0.5161
3273.00,0.5163
3272.00,0.5166
3271.00,0.5169
3270.00,0.5172
3269.00,0.5175
3268.00,0.5178
3267.00,0.5180
3266.00,0.5183
3265.00,0.5186
3264.00,0.5189
3263.00,0.5193
3262.00,0.5197
3261.00,0.5203
3260.00,0.5207
3259.00,0.5210
3258.00,0.5213
3257.00,0.5215
3256.00,0.5218
3255.00,0.5221
3254.00,0.5224
3253.00,0.5227
3252.00,0.5229
3251.00,0.5231
3250.00,0.5234
3249.00,0.5236
3248.00,0.5239
3247.00,0.5240
3246.00,0.5242
3245.00,0.5242
3244.00,0.5243
3243.00,0.5243
3242.00,0.5244
3241.00,0.5246
3240.00,0.5246
3239.00,0.5245
3238.00,0.5243
3237.00,0.5242
3236.00,0.5241
3235.00,0.5240
3234.00,0.5239
3233.00,0.5238
3232.00,0.5236
3231.00,0.5235
3230.00,0.5234
3229.00,0.5232
3228.00,0.5230
3227.00,0.5227
3226.00,0.5225
3225.00,0.5222
3224.00,0.5219
3223.00,0.5216
3222.00,0.5213
3221.00,0.5211
3220.00,0.5208
3219.00,0.5205
3218.00,0.5202
3217.00,0.5199
3216.00,0.5197
3215.00,0.5195
3214.00,0.5193
3213.00,0.5191
3212.00,0.5189
3211.00,0.5186
3210.00,0.5183
3209.00,0.5179
3208.00,0.5176
3207.00,0.5173
3206.00,0.5171
3205.00,0.5169
3204.00,0.5166
3203.00,0.5164
3202.00,0.5161
3201.00,0.5157
3200.00,0.5154
3199.00,0.5151
3198.00,0.5148
3197.00,0.5145
3196.00,0.5141
3195.00,0.5137
3194.00,0.5132
3193.00,0.5128
3192.00,0.5125
3191.00,0.5121
3190.00,0.5117
3189.00,0.5112
3188.00,0.5108
3187.00,0.5103
3186.00,0.5099
3185.00,0.5094
3184.00,0.5088
3183.00,0.5083
3182.00,0.5077
3181.00,0.5072
3180.00,0.5067
3179.00,0.5061
3178.00,0.5055
3177.00,0.5049
3176.00,0.5043
3175.00,0.5037
3174.00,0.5031
3173.00,0.5024
3172.00,0.5016
3171.00,0.5009
3170.00,0.5001
3169.00,0.4995
3168.00,0.4988
3167.00,0.4981
3166.00,0.4973
3165.00,0.4965
3164.00,0.4957
3163.00,0.4949
3162.00,0.4941
3161.00,0.4933
3160.00,0.4926
3159.00,0.4919
3158.00,0.4912
3157.00,0.4904
3156.00,0.4897
3155.00,0.4889
3154.00,0.4881
3153.00,0.4873
3152.00,0.4867
3151.00,0.4861
3150.00,0.4855
3149.00,0.4849
3148.00,0.4843
3147.00,0.4837
3146.00,0.4832
3145.00,0.4827
3144.00,0.4823
3143.00,0.4818
3142.00,0.4812
3141.00,0.4806
3140.00,0.4800
3139.00,0.4795
3138.00,0.4791
3137.00,0.4788
3136.00,0.4785
3135.00,0.4782
3134.00,0.4779
3133.00,0.4775
3132.00,0.4773
3131.00,0.4770
3130.00,0.4769
3129.00,0.4768
3128.00,0.4767
3127.00,0.4767
3126.00,0.4767
3125.00,0.4767
3124.00,0.4768
3123.00,0.4769
3122.00,0.4770
3121.00,0.4772
3120.00,0.4775
3119.00,0.4778
3118.00,0.4781
3117.00,0.4784
3116.00,0.4788
3115.00,0.4793
3114.00,0.4797
3113.00,0.4802
3112.00,0.4808
3111.00,0.4815
3110.00,0.4823
3109.00,0.4831
3108.00,0.4840
3107.00,0.4848
3106.00,0.4856
3105.00,0.4864
3104.00,0.4872
3103.00,0.4880
3102.00,0.4888
3101.00,0.4896
3100.00,0.4906
3099.00,0.4916
3098.00,0.4926
3097.00,0.4936
3096.00,0.4947
3095.00,0.4960
3094.00,0.4975
3093.00,0.4992
3092.00,0.5012
3091.00,0.5033
3090.00,0.5055
3089.00,0.5079
3088.00,0.5105
3087.00,0.5131
3086.00,0.5158
3085.00,0.5185
3084.00,0.5215
3083.00,0.5245
3082.00,0.5277
3081.00,0.5311
3080.00,0.5346
3079.00,0.5383
3078.00,0.5423
3077.00,0.5464
3076.00,0.5507
3075.00,0.5551
3074.00,0.5594
3073.00,0.5636
3072.00,0.5679
3071.00,0.5721
3070.00,0.5763
3069.00,0.5806
3068.00,0.5850
3067.00,0.5893
3066.00,0.5937
3065.00,0.5978
3064.00,0.6017
3063.00,0.6053
3062.00,0.6086
3061.00,0.6117
3060.00,0.6145
3059.00,0.6173
3058.00,0.6201
3057.00,0.6229
3056.00,0.6259
3055.00,0.6289
3054.00,0.6321
3053.00,0.6355
3052.00,0.6392
3051.00,0.6430
3050.00,0.6472
3049.00,0.6515
3048.00,0.6559
3047.00,0.6605
3046.00,0.6652
3045.00,0.6698
3044.00,0.6745
3043.00,0.6791
3042.00,0.6837
3041.00,0.6882
3040.00,0.6927
3039.00,0.6973
3038.00,0.7021
3037.00,0.7072
3036.00,0.7126
3035.00,0.7185
3034.00,0.7247
3033.00,0.7315
3032.00,0.7388
3031.00,0.7465
3030.00,0.7547
3029.00,0.7632
3028.00,0.7720
3027.00,0.7811
3026.00,0.7905
3025.00,0.8002
3024.00,0.8103
3023.00,0.8207
3022.00,0.8315
3021.00,0.8427
3020.00,0.8543
3019.00,0.8661
3018.00,0.8780
3017.00,0.8900
3016.00,0.9020
3015.00,0.9141
3014.00,0.9263
3013.00,0.9387
3012.00,0.9515
3011.00,0.9648
3010.00,0.9787
3009.00,0.9934
3008.00,1.0088
3007.00,1.0248
3006.00,1.0414
3005.00,1.0585
3004.00,1.0760
3003.00,1.0942
3002.00,1.1130
3001.00,1.1325
3000.00,1.1528
2999.00,1.1743
2998.00,1.1972
2997.00,1.2221
2996.00,1.2493
2995.00,1.2793
2994.00,1.3127
2993.00,1.3501
2992.00,1.3921
2991.00,1.4390
2990.00,1.4913
2989.00,1.5493
2988.00,1.6135
2987.00,1.6850
2986.00,1.7644
2985.00,1.8522
2984.00,1.9495
2983.00,2.0574
2982.00,2.1767
2981.00,2.3074
2980.00,2.4505
2979.00,2.6121
2978.00,2.7993
2977.00,3.0100
2976.00,3.2273
2975.00,3.4357
2974.00,3.6517
2973.00,3.8510
2972.00,3.8881
2971.00,3.8201
2970.00,3.8013
2969.00,3.8875
2968.00,4.0265
2967.00,4.1330
2966.00,4.1315
2965.00,4.0123
2964.00,3.8520
2963.00,3.7516
2962.00,3.7226
2961.00,3.8338
2960.00,4.1611
2959.00,4.1550
2958.00,3.8943
2957.00,3.7500
2956.00,3.7424
2955.00,3.7235
2954.00,3.6983
2953.00,3.8303
2952.00,4.0187
2951.00,3.9303
2950.00,3.8090
2949.00,3.8002
2948.00,3.8247
2947.00,3.7687
2946.00,3.7276
2945.00,3.7842
2944.00,3.9113
2943.00,4.0460
2942.00,4.0693
2941.00,3.9639
2940.00,3.8713
2939.00,3.9017
2938.00,4.1098
2937.00,4.3234
2936.00,4.2010
2935.00,4.0494
2934.00,4.0720
2933.00,4.3211
2932.00,4.4304
2931.00,4.2846
2930.00,4.2009
2929.00,4.1143
2928.00,3.9477
2927.00,3.7971
2926.00,3.7701
2925.00,3.8735
2924.00,4.0282
2923.00,4.2678
2922.00,4.5859
2921.00,4.4432
2920.00,4.2227
2919.00,4.0840
2918.00,4.1022
2917.00,4.1148
2916.00,4.0602
2915.00,4.0310
2914.00,4.0339
2913.00,3.9727
2912.00,3.8302
2911.00,3.7409
2910.00,3.7854
2909.00,3.9592
2908.00,4.1834
2907.00,4.2859
2906.00,4.1305
2905.00,3.8950
2904.00,3.7596
2903.00,3.7244
2902.00,3.8732
2901.00,4.2505
2900.00,4.1802
2899.00,3.9275
2898.00,3.8557
2897.00,4.1679
2896.00,4.3666
2895.00,4.0574
2894.00,3.8873
2893.00,3.8379
2892.00,3.8573
2891.00,3.9142
2890.00,4.1566
2889.00,4.4828
2888.00,4.3732
2887.00,4.2712
2886.00,4.3738
2885.00,4.5870
2884.00,4.4679
2883.00,4.1809
2882.00,3.9612
2881.00,3.8231
2880.00,3.7938
2879.00,3.8552
2878.00,3.9327
2877.00,3.9843
2876.00,4.0181
2875.00,4.0317
2874.00,4.0145
2873.00,3.9897
2872.00,3.9947
2871.00,4.0091
2870.00,4.0447
2869.00,4.1042
2868.00,4.1848
2867.00,4.2022
2866.00,4.2169
2865.00,4.3857
2864.00,4.3229
2863.00,4.0709
2862.00,3.8899
2861.00,3.8602
2860.00,3.9027
2859.00,3.9350
2858.00,3.9877
2857.00,4.0169
2856.00,4.0345
2855.00,4.0540
2854.00,4.0159
2853.00,3.9383
2852.00,3.8950
2851.00,4.0221
2850.00,4.3004
2849.00,4.5037
2848.00,4.6613
2847.00,4.3758
2846.00,4.1006
2845.00,3.9194
2844.00,3.9620
2843.00,4.1047
2842.00,4.0730
2841.00,4.0369
2840.00,3.9910
2839.00,3.7782
2838.00,3.4633
2837.00,3.1838
2836.00,2.9596
2835.00,2.7689
2834.00,2.5996
2833.00,2.4451
2832.00,2.3021
2831.00,2.1709
2830.00,2.0513
2829.00,1.9428
2828.00,1.8454
2827.00,1.7586
2826.00,1.6808
2825.00,1.6104
2824.00,1.5461
2823.00,1.4874
2822.00,1.4338
2821.00,1.3846
2820.00,1.3394
2819.00,1.2977
2818.00,1.2590
2817.00,1.2229
2816.00,1.1894
2815.00,1.1583
2814.00,1.1293
2813.00,1.1019
2812.00,1.0761
2811.00,1.0517
2810.00,1.0285
2809.00,1.0066
2808.00,0.9857
2807.00,0.9658
2806.00,0.9470
2805.00,0.9291
2804.00,0.9119
2803.00,0.8956
2802.00,0.8802
2801.00,0.8657
2800.00,0.8519
2799.00,0.8388
2798.00,0.8262
2797.00,0.8141
2796.00,0.8024
2795.00,0.7911
2794.00,0.7800
2793.00,0.7692
2792.00,0.7588
2791.00,0.7487
2790.00,0.7388
2789.00,0.7293
2788.00,0.7199
2787.00,0.7107
2786.00,0.7017
2785.00,0.6929
2784.00,0.6843
2783.00,0.6759
2782.00,0.6679
2781.00,0.6602
2780.00,0.6528
2779.00,0.6458
2778.00,0.6391
2777.00,0.6327
2776.00,0.6267
2775.00,0.6209
2774.00,0.6155
2773.00,0.6104
2772.00,0.6057
2771.00,0.6014
2770.00,0.5974
2769.00,0.5939
2768.00,0.5907
2767.00,0.5878
2766.00,0.5852
2765.00,0.5830
2764.00,0.5810
2763.00,0.5792
2762.00,0.5776
2761.00,0.5762
2760.00,0.5749
2759.00,0.5736
2758.00,0.5723
2757.00,0.5711
2756.00,0.5700
2755.00,0.5690
2754.00,0.5680
2753.00,0.5672
2752.00,0.5666
2751.00,0.5662
2750.00,0.5660
2749.00,0.5661
2748.00,0.5664
2747.00,0.5669
2746.00,0.5677
2745.00,0.5687
2744.00,0.5701
2743.00,0.5718
2742.00,0.5738
2741.00,0.5763
2740.00,0.5791
2739.00,0.5824
2738.00,0.5862
2737.00,0.5905
2736.00,0.5952
2735.00,0.6003
2734.00,0.6055
2733.00,0.6107
2732.00,0.6154
2731.00,0.6194
2730.00,0.6224
2729.00,0.6244
2728.00,0.6252
2727.00,0.6250
2726.00,0.6241
2725.00,0.6226
2724.00,0.6206
2723.00,0.6181
2722.00,0.6153
2721.00,0.6122
2720.00,0.6089
2719.00,0.6053
2718.00,0.6015
2717.00,0.5973
2716.00,0.5930
2715.00,0.5886
2714.00,0.5841
2713.00,0.5797
2712.00,0.5755
2711.00,0.5717
2710.00,0.5683
2709.00,0.5653
2708.00,0.5628
2707.00,0.5608
2706.00,0.5591
2705.00,0.5576
2704.00,0.5563
2703.00,0.5553
2702.00,0.5546
2701.00,0.5542
2700.00,0.5540
2699.00,0.5540
2698.00,0.5542
2697.00,0.5546
2696.00,0.5551
2695.00,0.5557
2694.00,0.5564
2693.00,0.5572
2692.00,0.5580
2691.00,0.5588
2690.00,0.5596
2689.00,0.5604
2688.00,0.5613
2687.00,0.5621
2686.00,0.5628
2685.00,0.5634
2684.00,0.5638
2683.00,0.5642
2682.00,0.5646
2681.00,0.5650
2680.00,0.5654
2679.00,0.5658
2678.00,0.5662
2677.00,0.5666
2676.00,0.5670
2675.00,0.5673
2674.00,0.5676
2673.00,0.5679
2672.00,0.5681
2671.00,0.5682
2670.00,0.5680
2669.00,0.5676
2668.00,0.5668
2667.00,0.5658
2666.00,0.5646
2665.00,0.5631
2664.00,0.5614
2663.00,0.5595
2662.00,0.5574
2661.00,0.5553
2660.00,0.5533
2659.00,0.5512
2658.00,0.5492
2657.00,0.5471
2656.00,0.5450
2655.00,0.5429
2654.00,0.5409
2653.00,0.5391
2652.00,0.5374
2651.00,0.5358
2650.00,0.5343
2649.00,0.5330
2648.00,0.5317
2647.00,0.5305
2646.00,0.5293
2645.00,0.5281
2644.00,0.5270
2643.00,0.5259
2642.00,0.5249
2641.00,0.5240
2640.00,0.5231
2639.00,0.5223
2638.00,0.5214
2637.00,0.5206
2636.00,0.5198
2635.00,0.5189
2634.00,0.5180
2633.00,0.5171
2632.00,0.5163
2631.00,0.5154
2630.00,0.5146
2629.00,0.5137
2628.00,0.5128
2627.00,0.5117
2626.00,0.5106
2625.00,0.5095
2624.00,0.5084
2623.00,0.5075
2622.00,0.5066
2621.00,0.5058
2620.00,0.5049
2619.00,0.5039
2618.00,0.5029
2617.00,0.5019
2616.00,0.5010
2615.00,0.5001
2614.00,0.4992
2613.00,0.4984
2612.00,0.4976
2611.00,0.4967
2610.00,0.4958
2609.00,0.4949
2608.00,0.4941
2607.00,0.4933
2606.00,0.4925
2605.00,0.4917
2604.00,0.4908
2603.00,0.4898
2602.00,0.4888
2601.00,0.4876
2600.00,0.4864
2599.00,0.4851
2598.00,0.4838
2597.00,0.4824
2596.00,0.4810
2595.00,0.4795
2594.00,0.4780
2593.00,0.4764
2592.00,0.4748
2591.00,0.4731
2590.00,0.4714
2589.00,0.4697
2588.00,0.4681
2587.00,0.4664
2586.00,0.4648
2585.00,0.4631
2584.00,0.4614
2583.00,0.4596
2582.00,0.4579
2581.00,0.4562
2580.00,0.4545
2579.00,0.4527
2578.00,0.4511
2577.00,0.4495
2576.00,0.4479
2575.00,0.4464
2574.00,0.4449
2573.00,0.4435
2572.00,0.4422
2571.00,0.4408
2570.00,0.4394
2569.00,0.4380
2568.00,0.4366
2567.00,0.4352
2566.00,0.4339
2565.00,0.4325
2564.00,0.4311
2563.00,0.4297
2562.00,0.4283
2561.00,0.4269
2560.00,0.4256
2559.00,0.4243
2558.00,0.4230
2557.00,0.4217
2556.00,0.4204
2555.00,0.4192
2554.00,0.4180
2553.00,0.4168
2552.00,0.4155
2551.00,0.4143
2550.00,0.4132
2549.00,0.4122
2548.00,0.4113
2547.00,0.4105
2546.00,0.4096
2545.00,0.4088
2544.00,0.4080
2543.00,0.4071
2542.00,0.4063
2541.00,0.4056
2540.00,0.4050
2539.00,0.4043
2538.00,0.4037
2537.00,0.4031
2536.00,0.4025
2535.00,0.4020
2534.00,0.4014
2533.00,0.4008
2532.00,0.4002
2531.00,0.3995
2530.00,0.3988
2529.00,0.3980
2528.00,0.3972
2527.00,0.3964
2526.00,0.3954
2525.00,0.3944
2524.00,0.3934
2523.00,0.3923
2522.00,0.3912
2521.00,0.3901
2520.00,0.3890
2519.00,0.3879
2518.00,0.3869
2517.00,0.3859
2516.00,0.3850
2515.00,0.3841
2514.00,0.3833
2513.00,0.3824
2512.00,0.3816
2511.00,0.3809
2510.00,0.3802
2509.00,0.3796
2508.00,0.3790
2507.00,0.3785
2506.00,0.3780
2505.00,0.3776
2504.00,0.3772
2503.00,0.3768
2502.00,0.3764
2501.00,0.3760
2500.00,0.3757
2499.00,0.3755
2498.00,0.3752
2497.00,0.3749
2496.00,0.3745
2495.00,0.3741
2494.00,0.3737
2493.00,0.3733
2492.00,0.3729
2491.00,0.3725
2490.00,0.3720
2489.00,0.3716
2488.00,0.3711
2487.00,0.3707
2486.00,0.3702
2485.00,0.3697
2484.00,0.3693
2483.00,0.3688
2482.00,0.3683
2481.00,0.3678
2480.00,0.3674
2479.00,0.3670
2478.00,0.3666
2477.00,0.3663
2476.00,0.3659
2475.00,0.3656
2474.00,0.3653
2473.00,0.3650
2472.00,0.3647
2471.00,0.3645
2470.00,0.3643
2469.00,0.3640
2468.00,0.3638
2467.00,0.3636
2466.00,0.3634
2465.00,0.3632
2464.00,0.3631
2463.00,0.3629
2462.00,0.3627
2461.00,0.3626
2460.00,0.3624
2459.00,0.3622
2458.00,0.3621
2457.00,0.3619
2456.00,0.3618
2455.00,0.3616
2454.00,0.3614
2453.00,0.3613
2452.00,0.3612
2451.00,0.3610
2450.00,0.3608
2449.00,0.3606
2448.00,0.3604
2447.00,0.3603
2446.00,0.3602
2445.00,0.3601
2444.00,0.3600
2443.00,0.3600
2442.00,0.3600
2441.00,0.3599
2440.00,0.3599
2439.00,0.3599
2438.00,0.3600
2437.00,0.3600
2436.00,0.3601
2435.00,0.3602
2434.00,0.3603
2433.00,0.3604
2432.00,0.3605
2431.00,0.3607
2430.00,0.3608
2429.00,0.3609
2428.00,0.3610
2427.00,0.3611
2426.00,0.3612
2425.00,0.3614
2424.00,0.3615
2423.00,0.3616
2422.00,0.3617
2421.00,0.3617
2420.00,0.3617
2419.00,0.3617
2418.00,0.3618
2417.00,0.3618
2416.00,0.3618
2415.00,0.3618
2414.00,0.3618
2413.00,0.3618
2412.00,0.3618
2411.00,0.3617
2410.00,0.3617
2409.00,0.3616
2408.00,0.3615
2407.00,0.3615
2406.00,0.3614
2405.00,0.3613
2404.00,0.3612
2403.00,0.3611
2402.00,0.3609
2401.00,0.3608
2400.00,0.3607
2399.00,0.3605
2398.00,0.3605
2397.00,0.3604
2396.00,0.3602
2395.00,0.3601
2394.00,0.3600
2393.00,0.3599
2392.00,0.3599
2391.00,0.3599
2390.00,0.3598
2389.00,0.3598
2388.00,0.3598
2387.00,0.3597
2386.00,0.3597
2385.00,0.3597
2384.00,0.3597
2383.00,0.3597
2382.00,0.3598
2381.00,0.3600
2380.00,0.3602
2379.00,0.3603
2378.00,0.3603
2377.00,0.3602
2376.00,0.3601
2375.00,0.3599
2374.00,0.3598
2373.00,0.3597
2372.00,0.3596
2371.00,0.3594
2370.00,0.3593
2369.00,0.3593
2368.00,0.3592
2367.00,0.3592
2366.00,0.3593
2365.00,0.3593
2364.00,0.3594
2363.00,0.3594
2362.00,0.3593
2361.00,0.3592
2360.00,0.3591
2359.00,0.3589
2358.00,0.3588
2357.00,0.3588
2356.00,0.3588
2355.00,0.3588
2354.00,0.3587
2353.00,0.3587
2352.00,0.3586
2351.00,0.3585
2350.00,0.3584
2349.00,0.3583
2348.00,0.3582
2347.00,0.3581
2346.00,0.3581
2345.00,0.3580
2344.00,0.3580
2343.00,0.3579
2342.00,0.3577
2341.00,0.3576
2340.00,0.3575
2339.00,0.3574
2338.00,0.3573
2337.00,0.3573
2336.00,0.3572
2335.00,0.3570
2334.00,0.3568
2333.00,0.3566
2332.00,0.3564
2331.00,0.3562
2330.00,0.3560
2329.00,0.3557
2328.00,0.3554
2327.00,0.3551
2326.00,0.3548
2325.00,0.3546
2324.00,0.3545
2323.00,0.3543
2322.00,0.3542
2321.00,0.3540
2320.00,0.3538
2319.00,0.3535
2318.00,0.3531
2317.00,0.3528
2316.00,0.3526
2315.00,0.3523
2314.00,0.3521
2313.00,0.3519
2312.00,0.3517
2311.00,0.3513
2310.00,0.3510
2309.00,0.3506
2308.00,0.3504
2307.00,0.3501
2306.00,0.3498
2305.00,0.3495
2304.00,0.3491
2303.00,0.3488
2302.00,0.3485
2301.00,0.3482
2300.00,0.3479
2299.00,0.3476
2298.00,0.3473
2297.00,0.3471
2296.00,0.3468
2295.00,0.3465
2294.00,0.3462
2293.00,0.3459
2292.00,0.3456
2291.00,0.3453
2290.00,0.3449
2289.00,0.3446
2288.00,0.3442
2287.00,0.3439
2286.00,0.3436
2285.00,0.3433
2284.00,0.3430
2283.00,0.3427
2282.00,0.3424
2281.00,0.3421
2280.00,0.3418
2279.00,0.3415
2278.00,0.3411
2277.00,0.3408
2276.00,0.3405
2275.00,0.3403
2274.00,0.3400
2273.00,0.3398
2272.00,0.3396
2271.00,0.3394
2270.00,0.3392
2269.00,0.3390
2268.00,0.3389
2267.00,0.3387
2266.00,0.3386
2265.00,0.3384
2264.00,0.3383
2263.00,0.3381
2262.00,0.3379
2261.00,0.3376
2260.00,0.3374
2259.00,0.3371
2258.00,0.3369
2257.00,0.3367
2256.00,0.3366
2255.00,0.3363
2254.00,0.3360
2253.00,0.3357
2252.00,0.3354
2251.00,0.3352
2250.00,0.3350
2249.00,0.3347
2248.00,0.3345
2247.00,0.3341
2246.00,0.3338
2245.00,0.3336
2244.00,0.3333
2243.00,0.3331
2242.00,0.3330
2241.00,0.3328
2240.00,0.3326
2239.00,0.3324
2238.00,0.3321
2237.00,0.3319
2236.00,0.3318
2235.00,0.3317
2234.00,0.3316
2233.00,0.3316
2232.00,0.3316
2231.00,0.3315
2230.00,0.3314
2229.00,0.3314
2228.00,0.3313
2227.00,0.3313
2226.00,0.3312
2225.00,0.3311
2224.00,0.3311
2223.00,0.3310
2222.00,0.3309
2221.00,0.3309
2220.00,0.3309
2219.00,0.3308
2218.00,0.3308
2217.00,0.3307
2216.00,0.3306
2215.00,0.3305
2214.00,0.3303
2213.00,0.3302
2212.00,0.3301
2211.00,0.3300
2210.00,0.3299
2209.00,0.3299
2208.00,0.3299
2207.00,0.3298
2206.00,0.3297
2205.00,0.3296
2204.00,0.3294
2203.00,0.3293
2202.00,0.3293
2201.00,0.3293
2200.00,0.3293
2199.00,0.3293
2198.00,0.3293
2197.00,0.3293
2196.00,0.3293
2195.00,0.3294
2194.00,0.3294
2193.00,0.3295
2192.00,0.3296
2191.00,0.3296
2190.00,0.3297
2189.00,0.3297
2188.00,0.3298
2187.00,0.3298
2186.00,0.3298
2185.00,0.3299
2184.00,0.3299
2183.00,0.3299
2182.00,0.3298
2181.00,0.3297
2180.00,0.3296
2179.00,0.3295
2178.00,0.3293
2177.00,0.3292
2176.00,0.3291
2175.00,0.3289
2174.00,0.3287
2173.00,0.3285
2172.00,0.3283
2171.00,0.3282
2170.00,0.3280
2169.00,0.3278
2168.00,0.3277
2167.00,0.3275
2166.00,0.3274
2165.00,0.3273
2164.00,0.3271
2163.00,0.3270
2162.00,0.3268
2161.00,0.3266
2160.00,0.3265
2159.00,0.3265
2158.00,0.3263
2157.00,0.3262
2156.00,0.3260
2155.00,0.3259
2154.00,0.3259
2153.00,0.3258
2152.00,0.3258
2151.00,0.3256
2150.00,0.3255
2149.00,0.3252
2148.00,0.3250
2147.00,0.3247
2146.00,0.3244
2145.00,0.3240
2144.00,0.3236
2143.00,0.3232
2142.00,0.3228
2141.00,0.3224
2140.00,0.3220
2139.00,0.3215
2138.00,0.3212
2137.00,0.3208
2136.00,0.3205
2135.00,0.3202
2134.00,0.3199
2133.00,0.3197
2132.00,0.3194
2131.00,0.3192
2130.00,0.3190
2129.00,0.3187
2128.00,0.3185
2127.00,0.3183
2126.00,0.3182
2125.00,0.3180
2124.00,0.3180
2123.00,0.3179
2122.00,0.3178
2121.00,0.3177
2120.00,0.3176
2119.00,0.3175
2118.00,0.3174
2117.00,0.3174
2116.00,0.3174
2115.00,0.3174
2114.00,0.3174
2113.00,0.3173
2112.00,0.3173
2111.00,0.3172
2110.00,0.3171
2109.00,0.3171
2108.00,0.3170
2107.00,0.3169
2106.00,0.3168
2105.00,0.3168
2104.00,0.3167
2103.00,0.3167
2102.00,0.3166
2101.00,0.3165
2100.00,0.3164
2099.00,0.3162
2098.00,0.3160
2097.00,0.3160
2096.00,0.3159
2095.00,0.3158
2094.00,0.3157
2093.00,0.3156
2092.00,0.3156
2091.00,0.3156
2090.00,0.3155
2089.00,0.3156
2088.00,0.3156
2087.00,0.3156
2086.00,0.3155
2085.00,0.3155
2084.00,0.3154
2083.00,0.3155
2082.00,0.3155
2081.00,0.3156
2080.00,0.3156
2079.00,0.3156
2078.00,0.3157
2077.00,0.3157
2076.00,0.3157
2075.00,0.3157
2074.00,0.3157
2073.00,0.3158
2072.00,0.3159
2071.00,0.3159
2070.00,0.3160
2069.00,0.3161
2068.00,0.3162
2067.00,0.3163
2066.00,0.3164
2065.00,0.3165
2064.00,0.3166
2063.00,0.3168
2062.00,0.3169
2061.00,0.3170
2060.00,0.3171
2059.00,0.3171
2058.00,0.3172
2057.00,0.3172
2056.00,0.3173
2055.00,0.3174
2054.00,0.3176
2053.00,0.3177
2052.00,0.3179
2051.00,0.3181
2050.00,0.3183
2049.00,0.3185
2048.00,0.3186
2047.00,0.3188
2046.00,0.3189
2045.00,0.3190
2044.00,0.3191
2043.00,0.3193
2042.00,0.3194
2041.00,0.3195
2040.00,0.3197
2039.00,0.3199
2038.00,0.3199
2037.00,0.3200
2036.00,0.3200
2035.00,0.3201
2034.00,0.3201
2033.00,0.3201
2032.00,0.3202
2031.00,0.3203
2030.00,0.3203
2029.00,0.3203
2028.00,0.3203
2027.00,0.3202
2026.00,0.3201
2025.00,0.3200
2024.00,0.3199
2023.00,0.3197
2022.00,0.3194
2021.00,0.3191
2020.00,0.3188
2019.00,0.3183
2018.00,0.3178
2017.00,0.3173
2016.00,0.3168
2015.00,0.3163
2014.00,0.3157
2013.00,0.3151
2012.00,0.3146
2011.00,0.3141
2010.00,0.3135
2009.00,0.3131
2008.00,0.3127
2007.00,0.3123
2006.00,0.3120
2005.00,0.3118
2004.00,0.3115
2003.00,0.3113
2002.00,0.3111
2001.00,0.3110
2000.00,0.3109
1999.00,0.3108
1998.00,0.3107
1997.00,0.3106
1996.00,0.3105
1995.00,0.3105
1994.00,0.3104
1993.00,0.3104
1992.00,0.3104
1991.00,0.3103
1990.00,0.3103
1989.00,0.3102
1988.00,0.3101
1987.00,0.3101
1986.00,0.3100
1985.00,0.3100
1984.00,0.3100
1983.00,0.3099
1982.00,0.3099
1981.00,0.3098
1980.00,0.3098
1979.00,0.3097
1978.00,0.3096
1977.00,0.3095
1976.00,0.3095
1975.00,0.3095
1974.00,0.3095
1973.00,0.3095
1972.00,0.3095
1971.00,0.3095
1970.00,0.3095
1969.00,0.3095
1968.00,0.3096
1967.00,0.3096
1966.00,0.3097
1965.00,0.3097
1964.00,0.3096
1963.00,0.3096
1962.00,0.3096
1961.00,0.3096
1960.00,0.3098
1959.00,0.3099
1958.00,0.3100
1957.00,0.3101
1956.00,0.3103
1955.00,0.3105
1954.00,0.3106
1953.00,0.3108
1952.00,0.3110
1951.00,0.3111
1950.00,0.3111
1949.00,0.3113
1948.00,0.3115
1947.00,0.3117
1946.00,0.3121
1945.00,0.3125
1944.00,0.3130
1943.00,0.3135
1942.00,0.3140
1941.00,0.3146
1940.00,0.3150
1939.00,0.3153
1938.00,0.3154
1937.00,0.3154
1936.00,0.3153
1935.00,0.3151
1934.00,0.3148
1933.00,0.3147
1932.00,0.3146
1931.00,0.3146
1930.00,0.3146
1929.00,0.3146
1928.00,0.3146
1927.00,0.3147
1926.00,0.3148
1925.00,0.3151
1924.00,0.3154
1923.00,0.3158
1922.00,0.3162
1921.00,0.3167
1920.00,0.3170
1919.00,0.3173
1918.00,0.3176
1917.00,0.3180
1916.00,0.3185
1915.00,0.3187
1914.00,0.3187
1913.00,0.3187
1912.00,0.3188
1911.00,0.3190
1910.00,0.3191
1909.00,0.3193
1908.00,0.3195
1907.00,0.3195
1906.00,0.3195
1905.00,0.3195
1904.00,0.3195
1903.00,0.3195
1902.00,0.3194
1901.00,0.3194
1900.00,0.3195
1899.00,0.3195
1898.00,0.3196
1897.00,0.3198
1896.00,0.3200
1895.00,0.3202
1894.00,0.3203
1893.00,0.3204
1892.00,0.3206
1891.00,0.3207
1890.00,0.3208
1889.00,0.3210
1888.00,0.3211
1887.00,0.3211
1886.00,0.3210
1885.00,0.3210
1884.00,0.3210
1883.00,0.3210
1882.00,0.3209
1881.00,0.3209
1880.00,0.3209
1879.00,0.3208
1878.00,0.3207
1877.00,0.3207
1876.00,0.3207
1875.00,0.3206
1874.00,0.3205
1873.00,0.3204
1872.00,0.3203
1871.00,0.3203
1870.00,0.3202
1869.00,0.3203
1868.00,0.3205
1867.00,0.3205
1866.00,0.3202
1865.00,0.3197
1864.00,0.3192
1863.00,0.3187
1862.00,0.3183
1861.00,0.3180
1860.00,0.3178
1859.00,0.3174
1858.00,0.3171
1857.00,0.3168
1856.00,0.3166
1855.00,0.3164
1854.00,0.3162
1853.00,0.3160
1852.00,0.3158
1851.00,0.3157
1850.00,0.3156
1849.00,0.3155
1848.00,0.3156
1847.00,0.3157
1846.00,0.3155
1845.00,0.3153
1844.00,0.3153
1843.00,0.3154
1842.00,0.3155
1841.00,0.3154
1840.00,0.3152
1839.00,0.3150
1838.00,0.3149
1837.00,0.3149
1836.00,0.3149
1835.00,0.3149
1834.00,0.3148
1833.00,0.3149
1832.00,0.3151
1831.00,0.3152
1830.00,0.3154
1829.00,0.3157
1828.00,0.3159
1827.00,0.3157
1826.00,0.3153
1825.00,0.3150
1824.00,0.3150
1823.00,0.3150
1822.00,0.3149
1821.00,0.3147
1820.00,0.3145
1819.00,0.3144
1818.00,0.3143
1817.00,0.3143
1816.00,0.3145
1815.00,0.3146
1814.00,0.3147
1813.00,0.3148
1812.00,0.3151
1811.00,0.3153
1810.00,0.3156
1809.00,0.3158
1808.00,0.3160
1807.00,0.3162
1806.00,0.3164
1805.00,0.3167
1804.00,0.3172
1803.00,0.3176
1802.00,0.3182
1801.00,0.3190
1800.00,0.3199
1799.00,0.3206
1798.00,0.3212
1797.00,0.3217
1796.00,0.3222
1795.00,0.3226
1794.00,0.3229
1793.00,0.3232
1792.00,0.3238
1791.00,0.3244
1790.00,0.3247
1789.00,0.3250
1788.00,0.3251
1787.00,0.3251
1786.00,0.3252
1785.00,0.3255
1784.00,0.3261
1783.00,0.3267
1782.00,0.3272
1781.00,0.3277
1780.00,0.3282
1779.00,0.3286
1778.00,0.3290
1777.00,0.3295
1776.00,0.3301
1775.00,0.3309
1774.00,0.3316
1773.00,0.3325
1772.00,0.3337
1771.00,0.3348
1770.00,0.3354
1769.00,0.3358
1768.00,0.3361
1767.00,0.3368
1766.00,0.3378
1765.00,0.3390
1764.00,0.3402
1763.00,0.3415
1762.00,0.3431
1761.00,0.3451
1760.00,0.3473
1759.00,0.3493
1758.00,0.3514
1757.00,0.3538
1756.00,0.3568
1755.00,0.3598
1754.00,0.3627
1753.00,0.3655
1752.00,0.3688
1751.00,0.3726
1750.00,0.3768
1749.00,0.3809
1748.00,0.3842
1747.00,0.3868
1746.00,0.3888
1745.00,0.3903
1744.00,0.3917
1743.00,0.3928
1742.00,0.3937
1741.00,0.3942
1740.00,0.3945
1739.00,0.3944
1738.00,0.3942
1737.00,0.3936
1736.00,0.3924
1735.00,0.3908
1734.00,0.3896
1733.00,0.3894
1732.00,0.3893
1731.00,0.3890
1730.00,0.3883
1729.00,0.3878
1728.00,0.3878
1727.00,0.3882
1726.00,0.3889
1725.00,0.3903
1724.00,0.3923
1723.00,0.3948
1722.00,0.3978
1721.00,0.4013
1720.00,0.4055
1719.00,0.4109
1718.00,0.4184
1717.00,0.4280
1716.00,0.4383
1715.00,0.4489
1714.00,0.4599
1713.00,0.4712
1712.00,0.4821
1711.00,0.4924
1710.00,0.5015
1709.00,0.5084
1708.00,0.5123
1707.00,0.5130
1706.00,0.5104
1705.00,0.5050
1704.00,0.4979
1703.00,0.4900
1702.00,0.4802
1701.00,0.4675
1700.00,0.4542
1699.00,0.4439
1698.00,0.4364
1697.00,0.4290
1696.00,0.4206
1695.00,0.4128
1694.00,0.4071
1693.00,0.4032
1692.00,0.3998
1691.00,0.3964
1690.00,0.3936
1689.00,0.3915
1688.00,0.3898
1687.00,0.3883
1686.00,0.3866
1685.00,0.3852
1684.00,0.3843
1683.00,0.3837
1682.00,0.3829
1681.00,0.3818
1680.00,0.3805
1679.00,0.3793
1678.00,0.3785
1677.00,0.3777
1676.00,0.3770
1675.00,0.3767
1674.00,0.3768
1673.00,0.3771
1672.00,0.3772
1671.00,0.3769
1670.00,0.3766
1669.00,0.3765
1668.00,0.3763
1667.00,0.3759
1666.00,0.3756
1665.00,0.3754
1664.00,0.3753
1663.00,0.3754
1662.00,0.3757
1661.00,0.3759
1660.00,0.3760
1659.00,0.3760
1658.00,0.3761
1657.00,0.3767
1656.00,0.3774
1655.00,0.3778
1654.00,0.3784
1653.00,0.3800
1652.00,0.3815
1651.00,0.3825
1650.00,0.3833
1649.00,0.3840
1648.00,0.3847
1647.00,0.3857
1646.00,0.3866
1645.00,0.3874
1644.00,0.3881
1643.00,0.3889
1642.00,0.3897
1641.00,0.3909
1640.00,0.3924
1639.00,0.3942
1638.00,0.3961
1637.00,0.3984
1636.00,0.4011
1635.00,0.4034
1634.00,0.4052
1633.00,0.4068
1632.00,0.4083
1631.00,0.4098
1630.00,0.4116
1629.00,0.4142
1628.00,0.4172
1627.00,0.4200
1626.00,0.4228
1625.00,0.4259
1624.00,0.4297
1623.00,0.4341
1622.00,0.4389
1621.00,0.4441
1620.00,0.4496
1619.00,0.4556
1618.00,0.4632
1617.00,0.4732
1616.00,0.4848
1615.00,0.4956
1614.00,0.5051
1613.00,0.5142
1612.00,0.5239
1611.00,0.5339
1610.00,0.5440
1609.00,0.5541
1608.00,0.5638
1607.00,0.5723
1606.00,0.5795
1605.00,0.5860
1604.00,0.5924
1603.00,0.5983
1602.00,0.6041
1601.00,0.6104
1600.00,0.6176
1599.00,0.6255
1598.00,0.6344
1597.00,0.6458
1596.00,0.6606
1595.00,0.6790
1594.00,0.7016
1593.00,0.7302
1592.00,0.7666
1591.00,0.8121
1590.00,0.8690
1589.00,0.9414
1588.00,1.0347
1587.00,1.1528
1586.00,1.2995
1585.00,1.4824
1584.00,1.7128
1583.00,1.9920
1582.00,2.2899
1581.00,2.5571
1580.00,2.7325
1579.00,2.6194
1578.00,2.2649
1577.00,1.9210
1576.00,1.6471
1575.00,1.4429
1574.00,1.2967
1573.00,1.1910
1572.00,1.1096
1571.00,1.0431
1570.00,0.9918
1569.00,0.9611
1568.00,0.9527
1567.00,0.9644
1566.00,0.9958
1565.00,1.0497
1564.00,1.1251
1563.00,1.2122
1562.00,1.2978
1561.00,1.3703
1560.00,1.3993
1559.00,1.3350
1558.00,1.2137
1557.00,1.1033
1556.00,1.0103
1555.00,0.9231
1554.00,0.8439
1553.00,0.7803
1552.00,0.7327
1551.00,0.6949
1550.00,0.6630
1549.00,0.6373
1548.00,0.6179
1547.00,0.6027
1546.00,0.5900
1545.00,0.5794
1544.00,0.5712
1543.00,0.5649
1542.00,0.5593
1541.00,0.5541
1540.00,0.5491
1539.00,0.5434
1538.00,0.5381
1537.00,0.5342
1536.00,0.5311
1535.00,0.5282
1534.00,0.5257
1533.00,0.5246
1532.00,0.5249
1531.00,0.5258
1530.00,0.5271
1529.00,0.5289
1528.00,0.5309
1527.00,0.5321
1526.00,0.5323
1525.00,0.5321
1524.00,0.5321
1523.00,0.5322
1522.00,0.5329
1521.00,0.5347
1520.00,0.5376
1519.00,0.5409
1518.00,0.5443
1517.00,0.5480
1516.00,0.5515
1515.00,0.5537
1514.00,0.5547
1513.00,0.5553
1512.00,0.5564
1511.00,0.5580
1510.00,0.5606
1509.00,0.5647
1508.00,0.5713
1507.00,0.5810
1506.00,0.5924
1505.00,0.6031
1504.00,0.6126
1503.00,0.6206
1502.00,0.6279
1501.00,0.6352
1500.00,0.6424
1499.00,0.6492
1498.00,0.6563
1497.00,0.6651
1496.00,0.6754
1495.00,0.6858
1494.00,0.6960
1493.00,0.7070
1492.00,0.7192
1491.00,0.7331
1490.00,0.7493
1489.00,0.7677
1488.00,0.7872
1487.00,0.8073
1486.00,0.8295
1485.00,0.8554
1484.00,0.8855
1483.00,0.9207
1482.00,0.9627
1481.00,1.0129
1480.00,1.0695
1479.00,1.1314
1478.00,1.2018
1477.00,1.2863
1476.00,1.3861
1475.00,1.5008
1474.00,1.6390
1473.00,1.8199
1472.00,2.0541
1471.00,2.3273
1470.00,2.6246
1469.00,2.9671
1468.00,3.3705
1467.00,3.7074
1466.00,3.9277
1465.00,4.3300
1464.00,4.6470
1463.00,3.9752
1462.00,3.7498
1461.00,3.9192
1460.00,4.2671
1459.00,4.0346
1458.00,4.0391
1457.00,4.4013
1456.00,3.8559
1455.00,3.6027
1454.00,3.5769
1453.00,3.7335
1452.00,3.9933
1451.00,3.8852
1450.00,3.6799
1449.00,3.6447
1448.00,3.4912
1447.00,3.2125
1446.00,3.0203
1445.00,2.8842
1444.00,2.7307
1443.00,2.5614
1442.00,2.4131
1441.00,2.2890
1440.00,2.1730
1439.00,2.0566
1438.00,1.9374
1437.00,1.8142
1436.00,1.6936
1435.00,1.5863
1434.00,1.4927
1433.00,1.4052
1432.00,1.3194
1431.00,1.2375
1430.00,1.1638
1429.00,1.1010
1428.00,1.0499
1427.00,1.0098
1426.00,0.9780
1425.00,0.9514
1424.00,0.9297
1423.00,0.9134
1422.00,0.9016
1421.00,0.8920
1420.00,0.8831
1419.00,0.8754
1418.00,0.8693
1417.00,0.8643
1416.00,0.8605
1415.00,0.8581
1414.00,0.8568
1413.00,0.8566
1412.00,0.8573
1411.00,0.8587
1410.00,0.8598
1409.00,0.8590
1408.00,0.8554
1407.00,0.8483
1406.00,0.8375
1405.00,0.8231
1404.00,0.8071
1403.00,0.7916
1402.00,0.7776
1401.00,0.7650
1400.00,0.7539
1399.00,0.7452
1398.00,0.7394
1397.00,0.7362
1396.00,0.7358
1395.00,0.7391
1394.00,0.7466
1393.00,0.7588
1392.00,0.7771
1391.00,0.8035
1390.00,0.8406
1389.00,0.8917
1388.00,0.9606
1387.00,1.0481
1386.00,1.1485
1385.00,1.2540
1384.00,1.3624
1383.00,1.4772
1382.00,1.6029
1381.00,1.7440
1380.00,1.9028
1379.00,2.0670
1378.00,2.1946
1377.00,2.2372
1376.00,2.1858
1375.00,2.0622
1374.00,1.9028
1373.00,1.7475
1372.00,1.6173
1371.00,1.5156
1370.00,1.4405
1369.00,1.3904
1368.00,1.3604
1367.00,1.3393
1366.00,1.3115
1365.00,1.2660
1364.00,1.2022
1363.00,1.1304
1362.00,1.0632
1361.00,1.0083
1360.00,0.9669
1359.00,0.9366
1358.00,0.9145
1357.00,0.8990
1356.00,0.8886
1355.00,0.8824
1354.00,0.8789
1353.00,0.8769
1352.00,0.8753
1351.00,0.8733
1350.00,0.8705
1349.00,0.8670
1348.00,0.8634
1347.00,0.8601
1346.00,0.8573
1345.00,0.8551
1344.00,0.8532
1343.00,0.8513
1342.00,0.8485
1341.00,0.8441
1340.00,0.8373
1339.00,0.8279
1338.00,0.8161
1337.00,0.8025
1336.00,0.7877
1335.00,0.7727
1334.00,0.7584
1333.00,0.7453
1332.00,0.7338
1331.00,0.7241
1330.00,0.7164
1329.00,0.7104
1328.00,0.7061
1327.00,0.7032
1326.00,0.7016
1325.00,0.7009
1324.00,0.7007
1323.00,0.7009
1322.00,0.7013
1321.00,0.7018
1320.00,0.7025
1319.00,0.7034
1318.00,0.7049
1317.00,0.7069
1316.00,0.7093
1315.00,0.7122
1314.00,0.7157
1313.00,0.7197
1312.00,0.7240
1311.00,0.7281
1310.00,0.7318
1309.00,0.7348
1308.00,0.7372
1307.00,0.7391
1306.00,0.7400
1305.00,0.7398
1304.00,0.7381
1303.00,0.7351
1302.00,0.7311
1301.00,0.7264
1300.00,0.7213
1299.00,0.7160
1298.00,0.7105
1297.00,0.7049
1296.00,0.6994
1295.00,0.6945
1294.00,0.6901
1293.00,0.6861
1292.00,0.6822
1291.00,0.6785
1290.00,0.6752
1289.00,0.6722
1288.00,0.6692
1287.00,0.6660
1286.00,0.6624
1285.00,0.6583
1284.00,0.6541
1283.00,0.6502
1282.00,0.6467
1281.00,0.6437
1280.00,0.6412
1279.00,0.6392
1278.00,0.6373
1277.00,0.6354
1276.00,0.6333
1275.00,0.6312
1274.00,0.6294
1273.00,0.6278
1272.00,0.6266
1271.00,0.6257
1270.00,0.6251
1269.00,0.6242
1268.00,0.6224
1267.00,0.6195
1266.00,0.6154
1265.00,0.6108
1264.00,0.6065
1263.00,0.6028
1262.00,0.6000
1261.00,0.5979
1260.00,0.5962
1259.00,0.5950
1258.00,0.5938
1257.00,0.5924
1256.00,0.5906
1255.00,0.5887
1254.00,0.5869
1253.00,0.5853
1252.00,0.5842
1251.00,0.5834
1250.00,0.5825
1249.00,0.5814
1248.00,0.5799
1247.00,0.5781
1246.00,0.5761
1245.00,0.5735
1244.00,0.5706
1243.00,0.5676
1242.00,0.5645
1241.00,0.5613
1240.00,0.5582
1239.00,0.5553
1238.00,0.5529
1237.00,0.5508
1236.00,0.5491
1235.00,0.5480
1234.00,0.5475
1233.00,0.5476
1232.00,0.5482
1231.00,0.5491
1230.00,0.5499
1229.00,0.5500
1228.00,0.5488
1227.00,0.5466
1226.00,0.5438
1225.00,0.5405
1224.00,0.5372
1223.00,0.5342
1222.00,0.5317
1221.00,0.5298
1220.00,0.5285
1219.00,0.5279
1218.00,0.5279
1217.00,0.5282
1216.00,0.5290
1215.00,0.5299
1214.00,0.5307
1213.00,0.5310
1212.00,0.5307
1211.00,0.5298
1210.00,0.5285
1209.00,0.5271
1208.00,0.5255
1207.00,0.5239
1206.00,0.5222
1205.00,0.5205
1204.00,0.5188
1203.00,0.5175
1202.00,0.5167
1201.00,0.5161
1200.00,0.5158
1199.00,0.5156
1198.00,0.5155
1197.00,0.5151
1196.00,0.5145
1195.00,0.5138
1194.00,0.5130
1193.00,0.5122
1192.00,0.5115
1191.00,0.5110
1190.00,0.5104
1189.00,0.5097
1188.00,0.5088
1187.00,0.5081
1186.00,0.5075
1185.00,0.5070
1184.00,0.5067
1183.00,0.5067
1182.00,0.5067
1181.00,0.5069
1180.00,0.5072
1179.00,0.5078
1178.00,0.5091
1177.00,0.5109
1176.00,0.5133
1175.00,0.5166
1174.00,0.5207
1173.00,0.5254
1172.00,0.5302
1171.00,0.5346
1170.00,0.5379
1169.00,0.5396
1168.00,0.5398
1167.00,0.5390
1166.00,0.5377
1165.00,0.5365
1164.00,0.5356
1163.00,0.5354
1162.00,0.5358
1161.00,0.5367
1160.00,0.5381
1159.00,0.5397
1158.00,0.5414
1157.00,0.5426
1156.00,0.5432
1155.00,0.5431
1154.00,0.5425
1153.00,0.5412
1152.00,0.5395
1151.00,0.5375
1150.00,0.5354
1149.00,0.5332
1148.00,0.5310
1147.00,0.5291
1146.00,0.5276
1145.00,0.5267
1144.00,0.5264
1143.00,0.5271
1142.00,0.5289
1141.00,0.5318
1140.00,0.5359
1139.00,0.5412
1138.00,0.5474
1137.00,0.5544
1136.00,0.5621
1135.00,0.5698
1134.00,0.5760
1133.00,0.5791
1132.00,0.5778
1131.00,0.5724
1130.00,0.5644
1129.00,0.5559
1128.00,0.5482
1127.00,0.5422
1126.00,0.5379
1125.00,0.5351
1124.00,0.5332
1123.00,0.5319
1122.00,0.5309
1121.00,0.5300
1120.00,0.5296
1119.00,0.5302
1118.00,0.5322
1117.00,0.5355
1116.00,0.5398
1115.00,0.5440
1114.00,0.5464
1113.00,0.5453
1112.00,0.5404
1111.00,0.5327
1110.00,0.5244
1109.00,0.5170
1108.00,0.5114
1107.00,0.5077
1106.00,0.5056
1105.00,0.5043
1104.00,0.5034
1103.00,0.5027
1102.00,0.5023
1101.00,0.5018
1100.00,0.5013
1099.00,0.5007
1098.00,0.4999
1097.00,0.4991
1096.00,0.4982
1095.00,0.4977
1094.00,0.4978
1093.00,0.4983
1092.00,0.4992
1091.00,0.5006
1090.00,0.5026
1089.00,0.5049
1088.00,0.5079
1087.00,0.5117
1086.00,0.5166
1085.00,0.5225
1084.00,0.5292
1083.00,0.5364
1082.00,0.5440
1081.00,0.5518
1080.00,0.5593
1079.00,0.5658
1078.00,0.5704
1077.00,0.5723
1076.00,0.5714
1075.00,0.5678
1074.00,0.5624
1073.00,0.5562
1072.00,0.5500
1071.00,0.5445
1070.00,0.5399
1069.00,0.5361
1068.00,0.5330
1067.00,0.5308
1066.00,0.5292
1065.00,0.5281
1064.00,0.5273
1063.00,0.5267
1062.00,0.5265
1061.00,0.5266
1060.00,0.5268
1059.00,0.5271
1058.00,0.5271
1057.00,0.5267
1056.00,0.5257
1055.00,0.5244
1054.00,0.5233
1053.00,0.5228
1052.00,0.5229
1051.00,0.5237
1050.00,0.5252
1049.00,0.5268
1048.00,0.5284
1047.00,0.5298
1046.00,0.5309
1045.00,0.5315
1044.00,0.5317
1043.00,0.5315
1042.00,0.5310
1041.00,0.5305
1040.00,0.5300
1039.00,0.5296
1038.00,0.5293
1037.00,0.5290
1036.00,0.5289
1035.00,0.5293
1034.00,0.5305
1033.00,0.5326
1032.00,0.5354
1031.00,0.5383
1030.00,0.5408
1029.00,0.5422
1028.00,0.5421
1027.00,0.5403
1026.00,0.5368
1025.00,0.5318
1024.00,0.5260
1023.00,0.5202
1022.00,0.5150
1021.00,0.5103
1020.00,0.5060
1019.00,0.5021
1018.00,0.4985
1017.00,0.4952
1016.00,0.4923
1015.00,0.4899
1014.00,0.4880
1013.00,0.4863
1012.00,0.4848
1011.00,0.4837
1010.00,0.4829
1009.00,0.4825
1008.00,0.4825
1007.00,0.4831
1006.00,0.4842
1005.00,0.4858
1004.00,0.4877
1003.00,0.4899
1002.00,0.4922
1001.00,0.4943
1000.00,0.4960
999.00,0.4970
998.00,0.4974
997.00,0.4969
996.00,0.4956
995.00,0.4936
994.00,0.4909
993.00,0.4877
992.00,0.4841
991.00,0.4805
990.00,0.4772
989.00,0.4742
988.00,0.4717
987.00,0.4700
986.00,0.4692
985.00,0.4692
984.00,0.4701
983.00,0.4717
982.00,0.4739
981.00,0.4764
980.00,0.4788
979.00,0.4811
978.00,0.4834
977.00,0.4854
976.00,0.4869
975.00,0.4881
974.00,0.4889
973.00,0.4892
972.00,0.4893
971.00,0.4891
970.00,0.4889
969.00,0.4887
968.00,0.4885
967.00,0.4882
966.00,0.4879
965.00,0.4872
964.00,0.4861
963.00,0.4849
962.00,0.4837
961.00,0.4824
960.00,0.4811
959.00,0.4800
958.00,0.4793
957.00,0.4788
956.00,0.4785
955.00,0.4782
954.00,0.4777
953.00,0.4770
952.00,0.4761
951.00,0.4750
950.00,0.4741
949.00,0.4736
948.00,0.4736
947.00,0.4740
946.00,0.4747
945.00,0.4758
944.00,0.4771
943.00,0.4786
942.00,0.4802
941.00,0.4817
940.00,0.4829
939.00,0.4837
938.00,0.4839
937.00,0.4834
936.00,0.4824
935.00,0.4809
934.00,0.4790
933.00,0.4767
932.00,0.4743
931.00,0.4719
930.00,0.4699
929.00,0.4684
928.00,0.4678
927.00,0.4684
926.00,0.4701
925.00,0.4731
924.00,0.4772
923.00,0.4822
922.00,0.4871
921.00,0.4907
920.00,0.4915
919.00,0.4891
918.00,0.4836
917.00,0.4759
916.00,0.4673
915.00,0.4588
914.00,0.4511
913.00,0.4447
912.00,0.4397
911.00,0.4360
910.00,0.4332
909.00,0.4309
908.00,0.4290
907.00,0.4276
906.00,0.4266
905.00,0.4260
904.00,0.4260
903.00,0.4266
902.00,0.4280
901.00,0.4298
900.00,0.4320
899.00,0.4348
898.00,0.4381
897.00,0.4416
896.00,0.4453
895.00,0.4492
894.00,0.4532
893.00,0.4574
892.00,0.4617
891.00,0.4657
890.00,0.4689
889.00,0.4708
888.00,0.4711
887.00,0.4701
886.00,0.4682
885.00,0.4659
884.00,0.4635
883.00,0.4618
882.00,0.4611
881.00,0.4613
880.00,0.4621
879.00,0.4629
878.00,0.4635
877.00,0.4636
876.00,0.4636
875.00,0.4639
874.00,0.4646
873.00,0.4656
872.00,0.4665
871.00,0.4675
870.00,0.4687
869.00,0.4702
868.00,0.4722
867.00,0.4750
866.00,0.4788
865.00,0.4836
864.00,0.4888
863.00,0.4932
862.00,0.4953
861.00,0.4942
860.00,0.4898
859.00,0.4832
858.00,0.4760
857.00,0.4692
856.00,0.4635
855.00,0.4590
854.00,0.4557
853.00,0.4533
852.00,0.4514
851.00,0.4497
850.00,0.4480
849.00,0.4459
848.00,0.4434
847.00,0.4406
846.00,0.4378
845.00,0.4350
844.00,0.4327
843.00,0.4311
842.00,0.4309
841.00,0.4324
840.00,0.4362
839.00,0.4422
838.00,0.4498
837.00,0.4572
836.00,0.4623
835.00,0.4634
834.00,0.4605
833.00,0.4552
832.00,0.4496
831.00,0.4456
830.00,0.4439
829.00,0.4443
828.00,0.4464
827.00,0.4497
826.00,0.4539
825.00,0.4590
824.00,0.4649
823.00,0.4717
822.00,0.4788
821.00,0.4856
820.00,0.4920
819.00,0.4982
818.00,0.5039
817.00,0.5085
816.00,0.5113
815.00,0.5119
814.00,0.5103
813.00,0.5068
812.00,0.5016
811.00,0.4956
810.00,0.4894
809.00,0.4836
808.00,0.4783
807.00,0.4735
806.00,0.4691
805.00,0.4646
804.00,0.4598
803.00,0.4545
802.00,0.4491
801.00,0.4435
800.00,0.4385
799.00,0.4344
798.00,0.4315
797.00,0.4296
796.00,0.4285
795.00,0.4278
794.00,0.4276
793.00,0.4278
792.00,0.4284
791.00,0.4299
790.00,0.4320
789.00,0.4345
788.00,0.4370
787.00,0.4397
786.00,0.4427
785.00,0.4463
784.00,0.4504
783.00,0.4547
782.00,0.4586
781.00,0.4617
780.00,0.4640
779.00,0.4658
778.00,0.4675
777.00,0.4693
776.00,0.4711
775.00,0.4731
774.00,0.4753
773.00,0.4776
772.00,0.4801
771.00,0.4830
770.00,0.4863
769.00,0.4898
768.00,0.4932
767.00,0.4962
766.00,0.4987
765.00,0.5006
764.00,0.5021
763.00,0.5039
762.00,0.5064
761.00,0.5099
760.00,0.5140
759.00,0.5179
758.00,0.5212
757.00,0.5237
756.00,0.5257
755.00,0.5278
754.00,0.5307
753.00,0.5344
752.00,0.5388
751.00,0.5437
750.00,0.5485
749.00,0.5531
748.00,0.5573
747.00,0.5615
746.00,0.5657
745.00,0.5699
744.00,0.5743
743.00,0.5792
742.00,0.5848
741.00,0.5907
740.00,0.5964
739.00,0.6016
738.00,0.6065
737.00,0.6110
736.00,0.6153
735.00,0.6200
734.00,0.6254
733.00,0.6320
732.00,0.6400
731.00,0.6500
730.00,0.6626
729.00,0.6785
728.00,0.6980
727.00,0.7218
726.00,0.7502
725.00,0.7817
724.00,0.8123
723.00,0.8353
722.00,0.8428
721.00,0.8296
720.00,0.7969
719.00,0.7530
718.00,0.7070
717.00,0.6650
716.00,0.6293
715.00,0.6006
714.00,0.5777
713.00,0.5591
712.00,0.5436
711.00,0.5309
710.00,0.5208
709.00,0.5129
708.00,0.5064
707.00,0.5008
706.00,0.4957
705.00,0.4910
704.00,0.4865
703.00,0.4828
702.00,0.4804
701.00,0.4789
700.00,0.4766
699.00,0.4713
698.00,0.4614
697.00,0.4475
696.00,0.4318
695.00,0.4173
694.00,0.4054
693.00,0.3962
692.00,0.3894
691.00,0.3845
690.00,0.3810
689.00,0.3783
688.00,0.3760
687.00,0.3739
686.00,0.3723
685.00,0.3710
684.00,0.3700
683.00,0.3691
682.00,0.3682
681.00,0.3674
680.00,0.3668
679.00,0.3666
678.00,0.3666
677.00,0.3664
676.00,0.3661
675.00,0.3658
674.00,0.3656
673.00,0.3654
672.00,0.3655
671.00,0.3662
670.00,0.3673
669.00,0.3686
668.00,0.3689
667.00,0.3680
666.00,0.3676
665.00,0.3681
664.00,0.3690
663.00,0.3701
662.00,0.3712
661.00,0.3723
660.00,0.3733
659.00,0.3743
658.00,0.3755
657.00,0.3767
656.00,0.3779
655.00,0.3790
654.00,0.3800
653.00,0.3809
652.00,0.3820
651.00,0.3832
650.00,0.3846
649.00,0.3859
648.00,0.3869
647.00,0.3876
646.00,0.3884
645.00,0.3895
644.00,0.3911
643.00,0.3927
642.00,0.3942
641.00,0.3954
640.00,0.3964
639.00,0.3974
638.00,0.3985
637.00,0.3994
636.00,0.3998
635.00,0.3997
634.00,0.3996
633.00,0.3997
632.00,0.4003
631.00,0.4014
630.00,0.4026
629.00,0.4038
628.00,0.4052
627.00,0.4068
626.00,0.4087
625.00,0.4108
624.00,0.4129
623.00,0.4152
622.00,0.4174
621.00,0.4192
620.00,0.4205
619.00,0.4216
618.00,0.4229
617.00,0.4241
616.00,0.4249
615.00,0.4249
614.00,0.4242
613.00,0.4232
612.00,0.4223
611.00,0.4217
610.00,0.4214
609.00,0.4207
608.00,0.4193
607.00,0.4174
606.00,0.4154
605.00,0.4138
604.00,0.4131
603.00,0.4132
602.00,0.4138
601.00,0.4142
600.00,0.4141
599.00,0.4139
598.00,0.4141
597.00,0.4151
596.00,0.4168
595.00,0.4189
594.00,0.4207
593.00,0.4219
592.00,0.4227
591.00,0.4236
590.00,0.4252
589.00,0.4275
588.00,0.4300
587.00,0.4322
586.00,0.4341
585.00,0.4358
584.00,0.4380
583.00,0.4412
582.00,0.4454
581.00,0.4497
580.00,0.4533
579.00,0.4556
578.00,0.4569
577.00,0.4584
576.00,0.4608
575.00,0.4641
574.00,0.4675
573.00,0.4701
572.00,0.4717
571.00,0.4732
570.00,0.4752
569.00,0.4780
568.00,0.4811
567.00,0.4839
566.00,0.4860
565.00,0.4873
564.00,0.4882
563.00,0.4893
562.00,0.4906
561.00,0.4917
560.00,0.4923
559.00,0.4927
558.00,0.4931
557.00,0.4937
556.00,0.4946
555.00,0.4960
554.00,0.4978
553.00,0.4993
552.00,0.4994
551.00,0.4985
550.00,0.4979
