Created as New Dataset,
cm-1,A
4000.00,0.3948
3999.00,0.3944
3998.00,0.3941
3997.00,0.3937
3996.00,0.3934
3995.00,0.3931
3994.00,0.3927
3993.00,0.3924
3992.00,0.3921
3991.00,0.3918
3990.00,0.3915
3989.00,0.3913
3988.00,0.3910
3987.00,0.3907
3986.00,0.3903
3985.00,0.3899
3984.00,0.3896
3983.00,0.3892
3982.00,0.3889
3981.00,0.3887
3980.00,0.3885
3979.00,0.3882
3978.00,0.3879
3977.00,0.3876
3976.00,0.3873
3975.00,0.3870
3974.00,0.3868
3973.00,0.3865
3972.00,0.3862
3971.00,0.3859
3970.00,0.3856
3969.00,0.3853
3968.00,0.3850
3967.00,0.3847
3966.00,0.3845
3965.00,0.3843
3964.00,0.3841
3963.00,0.3840
3962.00,0.3838
3961.00,0.3836
3960.00,0.3834
3959.00,0.3832
3958.00,0.3830
3957.00,0.3828
3956.00,0.3827
3955.00,0.3826
3954.00,0.3825
3953.00,0.3824
3952.00,0.3823
3951.00,0.3821
3950.00,0.3820
3949.00,0.3819
3948.00,0.3818
3947.00,0.3817
3946.00,0.3816
3945.00,0.3815
3944.00,0.3814
3943.00,0.3812
3942.00,0.3811
3941.00,0.3810
3940.00,0.3809
3939.00,0.3808
3938.00,0.3807
3937.00,0.3807
3936.00,0.3806
3935.00,0.3805
3934.00,0.3804
3933.00,0.3803
3932.00,0.3802
3931.00,0.3802
3930.00,0.3802
3929.00,0.3802
3928.00,0.3801
3927.00,0.3801
3926.00,0.3799
3925.00,0.3798
3924.00,0.3798
3923.00,0.3798
3922.00,0.3797
3921.00,0.3797
3920.00,0.3797
3919.00,0.3797
3918.00,0.3797
3917.00,0.3797
3916.00,0.3797
3915.00,0.3796
3914.00,0.3795
3913.00,0.3795
3912.00,0.3795
3911.00,0.3795
3910.00,0.3795
3909.00,0.3794
3908.00,0.3794
3907.00,0.3793
3906.00,0.3793
3905.00,0.3794
3904.00,0.3794
3903.00,0.3795
3902.00,0.3795
3901.00,0.3794
3900.00,0.3794
3899.00,0.3794
3898.00,0.3794
3897.00,0.3793
3896.00,0.3791
3895.00,0.3789
3894.00,0.3787
3893.00,0.3785
3892.00,0.3784
3891.00,0.3783
3890.00,0.3782
3889.00,0.3781
3888.00,0.3779
3887.00,0.3777
3886.00,0.3776
3885.00,0.3776
3884.00,0.3777
3883.00,0.3776
3882.00,0.3773
3881.00,0.3772
3880.00,0.3772
3879.00,0.3773
3878.00,0.3772
3877.00,0.3771
3876.00,0.3769
3875.00,0.3767
3874.00,0.3768
3873.00,0.3768
3872.00,0.3767
3871.00,0.3765
3870.00,0.3764
3869.00,0.3765
3868.00,0.3766
3867.00,0.3765
3866.00,0.3763
3865.00,0.3762
3864.00,0.3762
3863.00,0.3761
3862.00,0.3760
3861.00,0.3758
3860.00,0.3757
3859.00,0.3757
3858.00,0.3757
3857.00,0.3757
3856.00,0.3756
3855.00,0.3753
3854.00,0.3751
3853.00,0.3750
3852.00,0.3751
3851.00,0.3750
3850.00,0.3748
3849.00,0.3747
3848.00,0.3746
3847.00,0.3746
3846.00,0.3746
3845.00,0.3744
3844.00,0.3742
3843.00,0.3741
3842.00,0.3740
3841.00,0.3739
3840.00,0.3738
3839.00,0.3737
3838.00,0.3737
3837.00,0.3738
3836.00,0.3738
3835.00,0.3738
3834.00,0.3736
3833.00,0.3735
3832.00,0.3734
3831.00,0.3735
3830.00,0.3734
3829.00,0.3733
3828.00,0.3731
3827.00,0.3730
3826.00,0.3730
3825.00,0.3731
3824.00,0.3731
3823.00,0.3729
3822.00,0.3727
3821.00,0.3727
3820.00,0.3728
3819.00,0.3728
3818.00,0.3726
3817.00,0.3722
3816.00,0.3721
3815.00,0.3720
3814.00,0.3718
3813.00,0.3714
3812.00,0.3710
3811.00,0.3708
3810.00,0.3706
3809.00,0.3704
3808.00,0.3700
3807.00,0.3697
3806.00,0.3696
3805.00,0.3695
3804.00,0.3693
3803.00,0.3690
3802.00,0.3688
3801.00,0.3689
3800.00,0.3690
3799.00,0.3689
3798.00,0.3686
3797.00,0.3684
3796.00,0.3683
3795.00,0.3683
3794.00,0.3681
3793.00,0.3679
3792.00,0.3677
3791.00,0.3675
3790.00,0.3675
3789.00,0.3674
3788.00,0.3674
3787.00,0.3672
3786.00,0.3670
3785.00,0.3668
3784.00,0.3666
3783.00,0.3665
3782.00,0.3663
3781.00,0.3662
3780.00,0.3660
3779.00,0.3659
3778.00,0.3658
3777.00,0.3655
3776.00,0.3653
3775.00,0.3650
3774.00,0.3649
3773.00,0.3648
3772.00,0.3646
3771.00,0.3643
3770.00,0.3641
3769.00,0.3639
3768.00,0.3637
3767.00,0.3635
3766.00,0.3632
3765.00,0.3631
3764.00,0.3630
3763.00,0.3629
3762.00,0.3628
3761.00,0.3626
3760.00,0.3626
3759.00,0.3625
3758.00,0.3624
3757.00,0.3623
3756.00,0.3621
3755.00,0.3620
3754.00,0.3619
3753.00,0.3619
3752.00,0.3619
3751.00,0.3618
3750.00,0.3618
3749.00,0.3618
3748.00,0.3619
3747.00,0.3618
3746.00,0.3616
3745.00,0.3614
3744.00,0.3613
3743.00,0.3612
3742.00,0.3609
3741.00,0.3605
3740.00,0.3602
3739.00,0.3602
3738.00,0.3602
3737.00,0.3600
3736.00,0.3599
3735.00,0.3597
3734.00,0.3596
3733.00,0.3594
3732.00,0.3592
3731.00,0.3591
3730.00,0.3589
3729.00,0.3587
3728.00,0.3585
3727.00,0.3583
3726.00,0.3582
3725.00,0.3580
3724.00,0.3578
3723.00,0.3576
3722.00,0.3575
3721.00,0.3574
3720.00,0.3573
3719.00,0.3571
3718.00,0.3570
3717.00,0.3569
3716.00,0.3569
3715.00,0.3569
3714.00,0.3568
3713.00,0.3568
3712.00,0.3567
3711.00,0.3567
3710.00,0.3567
3709.00,0.3567
3708.00,0.3566
3707.00,0.3566
3706.00,0.3566
3705.00,0.3566
3704.00,0.3566
3703.00,0.3565
3702.00,0.3564
3701.00,0.3563
3700.00,0.3563
3699.00,0.3562
3698.00,0.3560
3697.00,0.3558
3696.00,0.3558
3695.00,0.3558
3694.00,0.3558
3693.00,0.3559
3692.00,0.3559
3691.00,0.3559
3690.00,0.3558
3689.00,0.3557
3688.00,0.3558
3687.00,0.3558
3686.00,0.3559
3685.00,0.3558
3684.00,0.3556
3683.00,0.3556
3682.00,0.3556
3681.00,0.3555
3680.00,0.3555
3679.00,0.3556
3678.00,0.3555
3677.00,0.3553
3676.00,0.3552
3675.00,0.3554
3674.00,0.3556
3673.00,0.3557
3672.00,0.3556
3671.00,0.3555
3670.00,0.3555
3669.00,0.3555
3668.00,0.3555
3667.00,0.3553
3666.00,0.3551
3665.00,0.3551
3664.00,0.3551
3663.00,0.3550
3662.00,0.3550
3661.00,0.3550
3660.00,0.3551
3659.00,0.3552
3658.00,0.3552
3657.00,0.3552
3656.00,0.3554
3655.00,0.3555
3654.00,0.3557
3653.00,0.3557
3652.00,0.3558
3651.00,0.3559
3650.00,0.3561
3649.00,0.3563
3648.00,0.3564
3647.00,0.3566
3646.00,0.3567
3645.00,0.3568
3644.00,0.3569
3643.00,0.3571
3642.00,0.3572
3641.00,0.3574
3640.00,0.3575
3639.00,0.3576
3638.00,0.3578
3637.00,0.3579
3636.00,0.3581
3635.00,0.3582
3634.00,0.3583
3633.00,0.3586
3632.00,0.3588
3631.00,0.3590
3630.00,0.3592
3629.00,0.3595
3628.00,0.3599
3627.00,0.3602
3626.00,0.3604
3625.00,0.3605
3624.00,0.3608
3623.00,0.3610
3622.00,0.3611
3621.00,0.3611
3620.00,0.3610
3619.00,0.3609
3618.00,0.3608
3617.00,0.3607
3616.00,0.3605
3615.00,0.3604
3614.00,0.3604
3613.00,0.3605
3612.00,0.3606
3611.00,0.3606
3610.00,0.3606
3609.00,0.3607
3608.00,0.3608
3607.00,0.3610
3606.00,0.3610
3605.00,0.3609
3604.00,0.3607
3603.00,0.3605
3602.00,0.3603
3601.00,0.3599
3600.00,0.3595
3599.00,0.3590
3598.00,0.3584
3597.00,0.3578
3596.00,0.3572
3595.00,0.3567
3594.00,0.3562
3593.00,0.3557
3592.00,0.3553
3591.00,0.3550
3590.00,0.3547
3589.00,0.3545
3588.00,0.3542
3587.00,0.3540
3586.00,0.3538
3585.00,0.3536
3584.00,0.3535
3583.00,0.3534
3582.00,0.3534
3581.00,0.3535
3580.00,0.3535
3579.00,0.3535
3578.00,0.3535
3577.00,0.3536
3576.00,0.3537
3575.00,0.3538
3574.00,0.3539
3573.00,0.3540
3572.00,0.3541
3571.00,0.3542
3570.00,0.3543
3569.00,0.3545
3568.00,0.3547
3567.00,0.3550
3566.00,0.3553
3565.00,0.3555
3564.00,0.3557
3563.00,0.3558
3562.00,0.3561
3561.00,0.3563
3560.00,0.3564
3559.00,0.3566
3558.00,0.3567
3557.00,0.3569
3556.00,0.3573
3555.00,0.3576
3554.00,0.3579
3553.00,0.3583
3552.00,0.3586
3551.00,0.3589
3550.00,0.3593
3549.00,0.3596
3548.00,0.3600
3547.00,0.3605
3546.00,0.3609
3545.00,0.3613
3544.00,0.3617
3543.00,0.3621
3542.00,0.3625
3541.00,0.3629
3540.00,0.3634
3539.00,0.3637
3538.00,0.3641
3537.00,0.3644
3536.00,0.3647
3535.00,0.3649
3534.00,0.3652
3533.00,0.3655
3532.00,0.3658
3531.00,0.3661
3530.00,0.3664
3529.00,0.3667
3528.00,0.3670
3527.00,0.3672
3526.00,0.3675
3525.00,0.3678
3524.00,0.3680
3523.00,0.3684
3522.00,0.3687
3521.00,0.3690
3520.00,0.3693
3519.00,0.3696
3518.00,0.3699
3517.00,0.3702
3516.00,0.3707
3515.00,0.3712
3514.00,0.3718
3513.00,0.3722
3512.00,0.3726
3511.00,0.3730
3510.00,0.3735
3509.00,0.3739
3508.00,0.3744
3507.00,0.3750
3506.00,0.3755
3505.00,0.3760
3504.00,0.3765
3503.00,0.3770
3502.00,0.3775
3501.00,0.3781
3500.00,0.3786
3499.00,0.3791
3498.00,0.3796
3497.00,0.3801
3496.00,0.3807
3495.00,0.3814
3494.00,0.3820
3493.00,0.3826
3492.00,0.3833
3491.00,0.3839
3490.00,0.3846
3489.00,0.3853
3488.00,0.3860
3487.00,0.3866
3486.00,0.3872
3485.00,0.3878
3484.00,0.3883
3483.00,0.3888
3482.00,0.3892
3481.00,0.3897
3480.00,0.3901
3479.00,0.3907
3478.00,0.3912
3477.00,0.3917
3476.00,0.3922
3475.00,0.3927
3474.00,0.3931
3473.00,0.3936
3472.00,0.3941
3471.00,0.3947
3470.00,0.3952
3469.00,0.3958
3468.00,0.3964
3467.00,0.3970
3466.00,0.3975
3465.00,0.3980
3464.00,0.3986
3463.00,0.3991
3462.00,0.3997
3461.00,0.4002
3460.00,0.4008
3459.00,0.4014
3458.00,0.4019
3457.00,0.4025
3456.00,0.4030
3455.00,0.4036
3454.00,0.4042
3453.00,0.4048
3452.00,0.4054
3451.00,0.4060
3450.00,0.4065
3449.00,0.4070
3448.00,0.4076
3447.00,0.4083
3446.00,0.4090
3445.00,0.4097
3444.00,0.4104
3443.00,0.4111
3442.00,0.4119
3441.00,0.4126
3440.00,0.4134
3439.00,0.4141
3438.00,0.4148
3437.00,0.4156
3436.00,0.4164
3435.00,0.4171
3434.00,0.4179
3433.00,0.4186
3432.00,0.4194
3431.00,0.4201
3430.00,0.4208
3429.00,0.4215
3428.00,0.4222
3427.00,0.4229
3426.00,0.4236
3425.00,0.4243
3424.00,0.4251
3423.00,0.4259
3422.00,0.4266
3421.00,0.4274
3420.00,0.4281
3419.00,0.4289
3418.00,0.4296
3417.00,0.4304
3416.00,0.4313
3415.00,0.4321
3414.00,0.4329
3413.00,0.4337
3412.00,0.4346
3411.00,0.4355
3410.00,0.4364
3409.00,0.4373
3408.00,0.4383
3407.00,0.4393
3406.00,0.4403
3405.00,0.4412
3404.00,0.4421
3403.00,0.4430
3402.00,0.4440
3401.00,0.4451
3400.00,0.4463
3399.00,0.4474
3398.00,0.4485
3397.00,0.4495
3396.00,0.4505
3395.00,0.4513
3394.00,0.4522
3393.00,0.4532
3392.00,0.4542
3391.00,0.4553
3390.00,0.4564
3389.00,0.4575
3388.00,0.4586
3387.00,0.4596
3386.00,0.4606
3385.00,0.4617
3384.00,0.4628
3383.00,0.4638
3382.00,0.4649
3381.00,0.4661
3380.00,0.4672
3379.00,0.4683
3378.00,0.4694
3377.00,0.4705
3376.00,0.4718
3375.00,0.4730
3374.00,0.4742
3373.00,0.4755
3372.00,0.4769
3371.00,0.4783
3370.00,0.4796
3369.00,0.4810
3368.00,0.4824
3367.00,0.4838
3366.00,0.4853
3365.00,0.4868
3364.00,0.4883
3363.00,0.4898
3362.00,0.4913
3361.00,0.4928
3360.00,0.4942
3359.00,0.4957
3358.00,0.4972
3357.00,0.4989
3356.00,0.5006
3355.00,0.5022
3354.00,0.5038
3353.00,0.5054
3352.00,0.5069
3351.00,0.5084
3350.00,0.5099
3349.00,0.5114
3348.00,0.5129
3347.00,0.5144
3346.00,0.5158
3345.00,0.5172
3344.00,0.5186
3343.00,0.5198
3342.00,0.5211
3341.00,0.5224
3340.00,0.5236
3339.00,0.5248
3338.00,0.5260
3337.00,0.5271
3336.00,0.5281
3335.00,0.5290
3334.00,0.5299
3333.00,0.5307
3332.00,0.5315
3331.00,0.5321
3330.00,0.5326
3329.00,0.5330
3328.00,0.5334
3327.00,0.5336
3326.00,0.5338
3325.00,0.5340
3324.00,0.5341
3323.00,0.5341
3322.00,0.5340
3321.00,0.5337
3320.00,0.5334
3319.00,0.5330
3318.00,0.5326
3317.00,0.5321
3316.00,0.5315
3315.00,0.5308
3314.00,0.5300
3313.00,0.5293
3312.00,0.5286
3311.00,0.5279
3310.00,0.5271
3309.00,0.5263
3308.00,0.5255
3307.00,0.5246
3306.00,0.5236
3305.00,0.5227
3304.00,0.5218
3303.00,0.5209
3302.00,0.5200
3301.00,0.5193
3300.00,0.5185
3299.00,0.5179
3298.00,0.5173
3297.00,0.5167
3296.00,0.5161
3295.00,0.5157
3294.00,0.5152
3293.00,0.5148
3292.00,0.5144
3291.00,0.5140
3290.00,0.5136
3289.00,0.5133
3288.00,0.5130
3287.00,0.5128
3286.00,0.5125
3285.00,0.5123
3284.00,0.5122
3283.00,0.5121
3282.00,0.5121
3281.00,0.5121
3280.00,0.5120
3279.00,0.5120
3278.00,0.5121
3277.00,0.5123
3276.00,0.5125
3275.00,0.5128
3274.00,0.5130
3273.00,0.5133
3272.00,0.5137
3271.00,0.5140
3270.00,0.5144
3269.00,0.5147
3268.00,0.5151
3267.00,0.5155
3266.00,0.5160
3265.00,0.5165
3264.00,0.5169
3263.00,0.5174
3262.00,0.5179
3261.00,0.5185
3260.00,0.5190
3259.00,0.5196
3258.00,0.5201
3257.00,0.5207
3256.00,0.5212
3255.00,0.5218
3254.00,0.5225
3253.00,0.5231
3252.00,0.5237
3251.00,0.5242
3250.00,0.5247
3249.00,0.5252
3248.00,0.5256
3247.00,0.5260
3246.00,0.5264
3245.00,0.5268
3244.00,0.5271
3243.00,0.5274
3242.00,0.5277
3241.00,0.5280
3240.00,0.5281
3239.00,0.5282
3238.00,0.5283
3237.00,0.5286
3236.00,0.5289
3235.00,0.5292
3234.00,0.5294
3233.00,0.5295
3232.00,0.5295
3231.00,0.5296
3230.00,0.5296
3229.00,0.5296
3228.00,0.5296
3227.00,0.5296
3226.00,0.5296
3225.00,0.5296
3224.00,0.5296
3223.00,0.5296
3222.00,0.5295
3221.00,0.5294
3220.00,0.5292
3219.00,0.5290
3218.00,0.5288
3217.00,0.5287
3216.00,0.5285
3215.00,0.5284
3214.00,0.5282
3213.00,0.5280
3212.00,0.5278
3211.00,0.5275
3210.00,0.5272
3209.00,0.5269
3208.00,0.5266
3207.00,0.5263
3206.00,0.5261
3205.00,0.5258
3204.00,0.5255
3203.00,0.5252
3202.00,0.5248
3201.00,0.5245
3200.00,0.5242
3199.00,0.5238
3198.00,0.5235
3197.00,0.5232
3196.00,0.5229
3195.00,0.5225
3194.00,0.5222
3193.00,0.5218
3192.00,0.5214
3191.00,0.5210
3190.00,0.5206
3189.00,0.5203
3188.00,0.5199
3187.00,0.5194
3186.00,0.5188
3185.00,0.5182
3184.00,0.5176
3183.00,0.5171
3182.00,0.5167
3181.00,0.5161
3180.00,0.5156
3179.00,0.5149
3178.00,0.5142
3177.00,0.5135
3176.00,0.5128
3175.00,0.5121
3174.00,0.5114
3173.00,0.5107
3172.00,0.5099
3171.00,0.5091
3170.00,0.5082
3169.00,0.5074
3168.00,0.5066
3167.00,0.5058
3166.00,0.5051
3165.00,0.5044
3164.00,0.5036
3163.00,0.5028
3162.00,0.5019
3161.00,0.5012
3160.00,0.5005
3159.00,0.4998
3158.00,0.4990
3157.00,0.4982
3156.00,0.4974
3155.00,0.4967
3154.00,0.4960
3153.00,0.4953
3152.00,0.4947
3151.00,0.4941
3150.00,0.4935
3149.00,0.4929
3148.00,0.4922
3147.00,0.4915
3146.00,0.4908
3145.00,0.4902
3144.00,0.4896
3143.00,0.4890
3142.00,0.4883
3141.00,0.4876
3140.00,0.4870
3139.00,0.4865
3138.00,0.4860
3137.00,0.4856
3136.00,0.4852
3135.00,0.4848
3134.00,0.4844
3133.00,0.4839
3132.00,0.4836
3131.00,0.4833
3130.00,0.4832
3129.00,0.4832
3128.00,0.4832
3127.00,0.4832
3126.00,0.4832
3125.00,0.4833
3124.00,0.4835
3123.00,0.4837
3122.00,0.4839
3121.00,0.4842
3120.00,0.4845
3119.00,0.4847
3118.00,0.4849
3117.00,0.4852
3116.00,0.4855
3115.00,0.4859
3114.00,0.4862
3113.00,0.4867
3112.00,0.4871
3111.00,0.4877
3110.00,0.4883
3109.00,0.4890
3108.00,0.4898
3107.00,0.4905
3106.00,0.4913
3105.00,0.4920
3104.00,0.4927
3103.00,0.4934
3102.00,0.4941
3101.00,0.4949
3100.00,0.4958
3099.00,0.4968
3098.00,0.4978
3097.00,0.4989
3096.00,0.5002
3095.00,0.5016
3094.00,0.5032
3093.00,0.5049
3092.00,0.5067
3091.00,0.5088
3090.00,0.5110
3089.00,0.5134
3088.00,0.5160
3087.00,0.5187
3086.00,0.5214
3085.00,0.5243
3084.00,0.5271
3083.00,0.5300
3082.00,0.5331
3081.00,0.5363
3080.00,0.5397
3079.00,0.5433
3078.00,0.5471
3077.00,0.5511
3076.00,0.5553
3075.00,0.5595
3074.00,0.5638
3073.00,0.5681
3072.00,0.5724
3071.00,0.5767
3070.00,0.5810
3069.00,0.5854
3068.00,0.5898
3067.00,0.5942
3066.00,0.5984
3065.00,0.6026
3064.00,0.6065
3063.00,0.6102
3062.00,0.6136
3061.00,0.6167
3060.00,0.6196
3059.00,0.6223
3058.00,0.6249
3057.00,0.6276
3056.00,0.6305
3055.00,0.6335
3054.00,0.6366
3053.00,0.6400
3052.00,0.6436
3051.00,0.6474
3050.00,0.6514
3049.00,0.6556
3048.00,0.6599
3047.00,0.6643
3046.00,0.6688
3045.00,0.6733
3044.00,0.6780
3043.00,0.6827
3042.00,0.6873
3041.00,0.6919
3040.00,0.6964
3039.00,0.7009
3038.00,0.7057
3037.00,0.7109
3036.00,0.7164
3035.00,0.7224
3034.00,0.7287
3033.00,0.7355
3032.00,0.7427
3031.00,0.7504
3030.00,0.7586
3029.00,0.7671
3028.00,0.7759
3027.00,0.7850
3026.00,0.7944
3025.00,0.8042
3024.00,0.8143
3023.00,0.8247
3022.00,0.8355
3021.00,0.8467
3020.00,0.8582
3019.00,0.8699
3018.00,0.8819
3017.00,0.8940
3016.00,0.9060
3015.00,0.9180
3014.00,0.9301
3013.00,0.9423
3012.00,0.9549
3011.00,0.9678
3010.00,0.9814
3009.00,0.9956
3008.00,1.0106
3007.00,1.0263
3006.00,1.0426
3005.00,1.0596
3004.00,1.0770
3003.00,1.0948
3002.00,1.1130
3001.00,1.1318
3000.00,1.1514
2999.00,1.1722
2998.00,1.1946
2997.00,1.2189
2996.00,1.2455
2995.00,1.2749
2994.00,1.3080
2993.00,1.3454
2992.00,1.3873
2991.00,1.4338
2990.00,1.4854
2989.00,1.5425
2988.00,1.6058
2987.00,1.6762
2986.00,1.7549
2985.00,1.8438
2984.00,1.9439
2983.00,2.0555
2982.00,2.1782
2981.00,2.3117
2980.00,2.4563
2979.00,2.6139
2978.00,2.7891
2977.00,2.9874
2976.00,3.2125
2975.00,3.4628
2974.00,3.7359
2973.00,4.0333
2972.00,4.3157
2971.00,4.4334
2970.00,4.3321
2969.00,4.2328
2968.00,4.1945
2967.00,4.0916
2966.00,3.9330
2965.00,3.7831
2964.00,3.6812
2963.00,3.6367
2962.00,3.6579
2961.00,3.7703
2960.00,3.9669
2959.00,4.1838
2958.00,4.2803
2957.00,4.2699
2956.00,4.3629
2955.00,4.4275
2954.00,4.2219
2953.00,4.0100
2952.00,3.9396
2951.00,4.0682
2950.00,4.3248
2949.00,4.4253
2948.00,4.2806
2947.00,4.1395
2946.00,4.1536
2945.00,4.3389
2944.00,4.6690
2943.00,4.4205
2942.00,4.0817
2941.00,3.9391
2940.00,3.9838
2939.00,4.0578
2938.00,4.0114
2937.00,3.8847
2936.00,3.7638
2935.00,3.7130
2934.00,3.7672
2933.00,3.8599
2932.00,3.8567
2931.00,3.8167
2930.00,3.9092
2929.00,4.2569
2928.00,4.3941
2927.00,4.1590
2926.00,4.0224
2925.00,4.0792
2924.00,4.0390
2923.00,3.9093
2922.00,3.8341
2921.00,3.9210
2920.00,4.2624
2919.00,4.2688
2918.00,4.0483
2917.00,3.9191
2916.00,4.0142
2915.00,4.2830
2914.00,4.5580
2913.00,4.3887
2912.00,4.0727
2911.00,3.8883
2910.00,3.9209
2909.00,4.0906
2908.00,4.1149
2907.00,4.0261
2906.00,3.9799
2905.00,4.0723
2904.00,4.1506
2903.00,4.1205
2902.00,4.0627
2901.00,3.9377
2900.00,3.8131
2899.00,3.7678
2898.00,3.8004
2897.00,3.9000
2896.00,4.0261
2895.00,4.0719
2894.00,4.0598
2893.00,4.1513
2892.00,4.4294
2891.00,4.5660
2890.00,4.4006
2889.00,4.2916
2888.00,4.3889
2887.00,4.6448
2886.00,4.6358
2885.00,4.4282
2884.00,4.1755
2883.00,4.2226
2882.00,4.6064
2881.00,4.4608
2880.00,4.2423
2879.00,4.1218
2878.00,4.3621
2877.00,4.5034
2876.00,4.2218
2875.00,4.0569
2874.00,3.9610
2873.00,3.9690
2872.00,4.0427
2871.00,4.2066
2870.00,4.2939
2869.00,4.3439
2868.00,4.5154
2867.00,4.5446
2866.00,4.3586
2865.00,4.2923
2864.00,4.5290
2863.00,4.4161
2862.00,4.1098
2861.00,3.9096
2860.00,3.9171
2859.00,4.0833
2858.00,4.0270
2857.00,3.8894
2856.00,3.8248
2855.00,3.9502
2854.00,4.0713
2853.00,3.9272
2852.00,3.7821
2851.00,3.7148
2850.00,3.7821
2849.00,3.9113
2848.00,4.0930
2847.00,4.3481
2846.00,4.2732
2845.00,4.0586
2844.00,3.8914
2843.00,3.8608
2842.00,3.9220
2841.00,4.0196
2840.00,4.0024
2839.00,3.7577
2838.00,3.4701
2837.00,3.2053
2836.00,2.9729
2835.00,2.7707
2834.00,2.5904
2833.00,2.4270
2832.00,2.2792
2831.00,2.1465
2830.00,2.0275
2829.00,1.9206
2828.00,1.8247
2827.00,1.7391
2826.00,1.6627
2825.00,1.5940
2824.00,1.5316
2823.00,1.4747
2822.00,1.4224
2821.00,1.3742
2820.00,1.3295
2819.00,1.2880
2818.00,1.2496
2817.00,1.2140
2816.00,1.1810
2815.00,1.1503
2814.00,1.1215
2813.00,1.0944
2812.00,1.0689
2811.00,1.0448
2810.00,1.0221
2809.00,1.0004
2808.00,0.9797
2807.00,0.9600
2806.00,0.9414
2805.00,0.9237
2804.00,0.9069
2803.00,0.8908
2802.00,0.8755
2801.00,0.8610
2800.00,0.8474
2799.00,0.8345
2798.00,0.8221
2797.00,0.8101
2796.00,0.7985
2795.00,0.7872
2794.00,0.7763
2793.00,0.7656
2792.00,0.7554
2791.00,0.7454
2790.00,0.7356
2789.00,0.7261
2788.00,0.7167
2787.00,0.7076
2786.00,0.6988
2785.00,0.6902
2784.00,0.6818
2783.00,0.6737
2782.00,0.6658
2781.00,0.6582
2780.00,0.6509
2779.00,0.6439
2778.00,0.6372
2777.00,0.6309
2776.00,0.6250
2775.00,0.6194
2774.00,0.6141
2773.00,0.6092
2772.00,0.6045
2771.00,0.6002
2770.00,0.5962
2769.00,0.5927
2768.00,0.5895
2767.00,0.5866
2766.00,0.5840
2765.00,0.5817
2764.00,0.5797
2763.00,0.5779
2762.00,0.5763
2761.00,0.5749
2760.00,0.5736
2759.00,0.5724
2758.00,0.5713
2757.00,0.5702
2756.00,0.5692
2755.00,0.5682
2754.00,0.5673
2753.00,0.5666
2752.00,0.5661
2751.00,0.5658
2750.00,0.5657
2749.00,0.5657
2748.00,0.5659
2747.00,0.5664
2746.00,0.5672
2745.00,0.5683
2744.00,0.5697
2743.00,0.5713
2742.00,0.5732
2741.00,0.5755
2740.00,0.5783
2739.00,0.5816
2738.00,0.5853
2737.00,0.5896
2736.00,0.5942
2735.00,0.5993
2734.00,0.6046
2733.00,0.6098
2732.00,0.6146
2731.00,0.6187
2730.00,0.6216
2729.00,0.6235
2728.00,0.6243
2727.00,0.6241
2726.00,0.6232
2725.00,0.6217
2724.00,0.6197
2723.00,0.6175
2722.00,0.6149
2721.00,0.6120
2720.00,0.6088
2719.00,0.6052
2718.00,0.6013
2717.00,0.5972
2716.00,0.5929
2715.00,0.5885
2714.00,0.5840
2713.00,0.5796
2712.00,0.5754
2711.00,0.5716
2710.00,0.5683
2709.00,0.5653
2708.00,0.5627
2707.00,0.5604
2706.00,0.5586
2705.00,0.5571
2704.00,0.5558
2703.00,0.5549
2702.00,0.5542
2701.00,0.5538
2700.00,0.5536
2699.00,0.5536
2698.00,0.5537
2697.00,0.5540
2696.00,0.5545
2695.00,0.5551
2694.00,0.5559
2693.00,0.5567
2692.00,0.5576
2691.00,0.5585
2690.00,0.5594
2689.00,0.5603
2688.00,0.5611
2687.00,0.5619
2686.00,0.5625
2685.00,0.5631
2684.00,0.5637
2683.00,0.5641
2682.00,0.5645
2681.00,0.5648
2680.00,0.5650
2679.00,0.5654
2678.00,0.5657
2677.00,0.5661
2676.00,0.5665
2675.00,0.5669
2674.00,0.5673
2673.00,0.5677
2672.00,0.5680
2671.00,0.5680
2670.00,0.5678
2669.00,0.5673
2668.00,0.5665
2667.00,0.5654
2666.00,0.5640
2665.00,0.5623
2664.00,0.5606
2663.00,0.5587
2662.00,0.5568
2661.00,0.5548
2660.00,0.5528
2659.00,0.5506
2658.00,0.5485
2657.00,0.5463
2656.00,0.5443
2655.00,0.5424
2654.00,0.5406
2653.00,0.5389
2652.00,0.5373
2651.00,0.5357
2650.00,0.5343
2649.00,0.5329
2648.00,0.5316
2647.00,0.5304
2646.00,0.5291
2645.00,0.5279
2644.00,0.5268
2643.00,0.5257
2642.00,0.5246
2641.00,0.5236
2640.00,0.5225
2639.00,0.5215
2638.00,0.5206
2637.00,0.5198
2636.00,0.5189
2635.00,0.5181
2634.00,0.5172
2633.00,0.5163
2632.00,0.5155
2631.00,0.5147
2630.00,0.5138
2629.00,0.5130
2628.00,0.5121
2627.00,0.5111
2626.00,0.5102
2625.00,0.5093
2624.00,0.5084
2623.00,0.5076
2622.00,0.5067
2621.00,0.5059
2620.00,0.5050
2619.00,0.5041
2618.00,0.5033
2617.00,0.5025
2616.00,0.5017
2615.00,0.5009
2614.00,0.5000
2613.00,0.4990
2612.00,0.4981
2611.00,0.4972
2610.00,0.4963
2609.00,0.4955
2608.00,0.4946
2607.00,0.4936
2606.00,0.4926
2605.00,0.4916
2604.00,0.4906
2603.00,0.4896
2602.00,0.4885
2601.00,0.4874
2600.00,0.4863
2599.00,0.4850
2598.00,0.4836
2597.00,0.4821
2596.00,0.4807
2595.00,0.4791
2594.00,0.4775
2593.00,0.4759
2592.00,0.4742
2591.00,0.4726
2590.00,0.4711
2589.00,0.4696
2588.00,0.4681
2587.00,0.4666
2586.00,0.4651
2585.00,0.4635
2584.00,0.4619
2583.00,0.4602
2582.00,0.4585
2581.00,0.4568
2580.00,0.4551
2579.00,0.4534
2578.00,0.4518
2577.00,0.4502
2576.00,0.4486
2575.00,0.4470
2574.00,0.4455
2573.00,0.4440
2572.00,0.4426
2571.00,0.4410
2570.00,0.4395
2569.00,0.4380
2568.00,0.4366
2567.00,0.4352
2566.00,0.4337
2565.00,0.4323
2564.00,0.4308
2563.00,0.4294
2562.00,0.4279
2561.00,0.4266
2560.00,0.4252
2559.00,0.4239
2558.00,0.4225
2557.00,0.4213
2556.00,0.4202
2555.00,0.4191
2554.00,0.4180
2553.00,0.4169
2552.00,0.4158
2551.00,0.4147
2550.00,0.4137
2549.00,0.4128
2548.00,0.4120
2547.00,0.4111
2546.00,0.4103
2545.00,0.4095
2544.00,0.4087
2543.00,0.4080
2542.00,0.4073
2541.00,0.4066
2540.00,0.4059
2539.00,0.4053
2538.00,0.4046
2537.00,0.4040
2536.00,0.4033
2535.00,0.4027
2534.00,0.4020
2533.00,0.4012
2532.00,0.4005
2531.00,0.3997
2530.00,0.3988
2529.00,0.3980
2528.00,0.3970
2527.00,0.3960
2526.00,0.3950
2525.00,0.3939
2524.00,0.3929
2523.00,0.3919
2522.00,0.3909
2521.00,0.3899
2520.00,0.3889
2519.00,0.3880
2518.00,0.3870
2517.00,0.3861
2516.00,0.3853
2515.00,0.3845
2514.00,0.3838
2513.00,0.3832
2512.00,0.3826
2511.00,0.3820
2510.00,0.3814
2509.00,0.3808
2508.00,0.3802
2507.00,0.3796
2506.00,0.3792
2505.00,0.3787
2504.00,0.3783
2503.00,0.3778
2502.00,0.3773
2501.00,0.3769
2500.00,0.3765
2499.00,0.3760
2498.00,0.3756
2497.00,0.3752
2496.00,0.3747
2495.00,0.3743
2494.00,0.3738
2493.00,0.3734
2492.00,0.3728
2491.00,0.3722
2490.00,0.3717
2489.00,0.3712
2488.00,0.3707
2487.00,0.3703
2486.00,0.3698
2485.00,0.3694
2484.00,0.3690
2483.00,0.3686
2482.00,0.3682
2481.00,0.3679
2480.00,0.3676
2479.00,0.3673
2478.00,0.3670
2477.00,0.3667
2476.00,0.3664
2475.00,0.3661
2474.00,0.3659
2473.00,0.3658
2472.00,0.3656
2471.00,0.3654
2470.00,0.3653
2469.00,0.3651
2468.00,0.3649
2467.00,0.3647
2466.00,0.3645
2465.00,0.3643
2464.00,0.3641
2463.00,0.3638
2462.00,0.3636
2461.00,0.3633
2460.00,0.3631
2459.00,0.3628
2458.00,0.3626
2457.00,0.3624
2456.00,0.3621
2455.00,0.3619
2454.00,0.3617
2453.00,0.3615
2452.00,0.3613
2451.00,0.3611
2450.00,0.3610
2449.00,0.3608
2448.00,0.3607
2447.00,0.3606
2446.00,0.3606
2445.00,0.3606
2444.00,0.3606
2443.00,0.3605
2442.00,0.3605
2441.00,0.3605
2440.00,0.3606
2439.00,0.3607
2438.00,0.3608
2437.00,0.3609
2436.00,0.3611
2435.00,0.3612
2434.00,0.3612
2433.00,0.3613
2432.00,0.3614
2431.00,0.3616
2430.00,0.3617
2429.00,0.3619
2428.00,0.3620
2427.00,0.3620
2426.00,0.3620
2425.00,0.3620
2424.00,0.3620
2423.00,0.3620
2422.00,0.3620
2421.00,0.3621
2420.00,0.3621
2419.00,0.3621
2418.00,0.3621
2417.00,0.3620
2416.00,0.3620
2415.00,0.3620
2414.00,0.3619
2413.00,0.3619
2412.00,0.3619
2411.00,0.3619
2410.00,0.3619
2409.00,0.3619
2408.00,0.3619
2407.00,0.3618
2406.00,0.3617
2405.00,0.3616
2404.00,0.3616
2403.00,0.3615
2402.00,0.3615
2401.00,0.3615
2400.00,0.3614
2399.00,0.3614
2398.00,0.3613
2397.00,0.3612
2396.00,0.3611
2395.00,0.3609
2394.00,0.3608
2393.00,0.3607
2392.00,0.3606
2391.00,0.3605
2390.00,0.3605
2389.00,0.3604
2388.00,0.3604
2387.00,0.3603
2386.00,0.3602
2385.00,0.3602
2384.00,0.3602
2383.00,0.3602
2382.00,0.3603
2381.00,0.3604
2380.00,0.3605
2379.00,0.3605
2378.00,0.3605
2377.00,0.3605
2376.00,0.3605
2375.00,0.3604
2374.00,0.3603
2373.00,0.3602
2372.00,0.3600
2371.00,0.3599
2370.00,0.3598
2369.00,0.3597
2368.00,0.3596
2367.00,0.3596
2366.00,0.3596
2365.00,0.3597
2364.00,0.3598
2363.00,0.3598
2362.00,0.3598
2361.00,0.3598
2360.00,0.3597
2359.00,0.3597
2358.00,0.3595
2357.00,0.3594
2356.00,0.3594
2355.00,0.3593
2354.00,0.3593
2353.00,0.3592
2352.00,0.3591
2351.00,0.3590
2350.00,0.3589
2349.00,0.3588
2348.00,0.3587
2347.00,0.3586
2346.00,0.3585
2345.00,0.3584
2344.00,0.3583
2343.00,0.3582
2342.00,0.3581
2341.00,0.3580
2340.00,0.3580
2339.00,0.3578
2338.00,0.3576
2337.00,0.3574
2336.00,0.3572
2335.00,0.3571
2334.00,0.3570
2333.00,0.3570
2332.00,0.3569
2331.00,0.3568
2330.00,0.3566
2329.00,0.3564
2328.00,0.3561
2327.00,0.3558
2326.00,0.3554
2325.00,0.3551
2324.00,0.3549
2323.00,0.3548
2322.00,0.3547
2321.00,0.3545
2320.00,0.3543
2319.00,0.3540
2318.00,0.3537
2317.00,0.3535
2316.00,0.3533
2315.00,0.3532
2314.00,0.3529
2313.00,0.3527
2312.00,0.3524
2311.00,0.3520
2310.00,0.3517
2309.00,0.3513
2308.00,0.3509
2307.00,0.3506
2306.00,0.3502
2305.00,0.3498
2304.00,0.3495
2303.00,0.3491
2302.00,0.3489
2301.00,0.3486
2300.00,0.3484
2299.00,0.3481
2298.00,0.3477
2297.00,0.3474
2296.00,0.3471
2295.00,0.3467
2294.00,0.3464
2293.00,0.3461
2292.00,0.3458
2291.00,0.3454
2290.00,0.3450
2289.00,0.3446
2288.00,0.3443
2287.00,0.3439
2286.00,0.3437
2285.00,0.3434
2284.00,0.3431
2283.00,0.3428
2282.00,0.3425
2281.00,0.3423
2280.00,0.3420
2279.00,0.3417
2278.00,0.3414
2277.00,0.3411
2276.00,0.3408
2275.00,0.3405
2274.00,0.3403
2273.00,0.3402
2272.00,0.3401
2271.00,0.3399
2270.00,0.3398
2269.00,0.3396
2268.00,0.3395
2267.00,0.3394
2266.00,0.3392
2265.00,0.3391
2264.00,0.3389
2263.00,0.3386
2262.00,0.3384
2261.00,0.3381
2260.00,0.3379
2259.00,0.3376
2258.00,0.3372
2257.00,0.3369
2256.00,0.3367
2255.00,0.3363
2254.00,0.3360
2253.00,0.3357
2252.00,0.3354
2251.00,0.3352
2250.00,0.3349
2249.00,0.3346
2248.00,0.3343
2247.00,0.3341
2246.00,0.3338
2245.00,0.3336
2244.00,0.3335
2243.00,0.3333
2242.00,0.3331
2241.00,0.3330
2240.00,0.3329
2239.00,0.3328
2238.00,0.3327
2237.00,0.3326
2236.00,0.3326
2235.00,0.3325
2234.00,0.3325
2233.00,0.3325
2232.00,0.3325
2231.00,0.3324
2230.00,0.3324
2229.00,0.3323
2228.00,0.3323
2227.00,0.3322
2226.00,0.3320
2225.00,0.3319
2224.00,0.3318
2223.00,0.3317
2222.00,0.3315
2221.00,0.3313
2220.00,0.3312
2219.00,0.3310
2218.00,0.3308
2217.00,0.3307
2216.00,0.3305
2215.00,0.3304
2214.00,0.3302
2213.00,0.3301
2212.00,0.3300
2211.00,0.3299
2210.00,0.3298
2209.00,0.3297
2208.00,0.3296
2207.00,0.3296
2206.00,0.3295
2205.00,0.3296
2204.00,0.3296
2203.00,0.3296
2202.00,0.3297
2201.00,0.3297
2200.00,0.3297
2199.00,0.3298
2198.00,0.3299
2197.00,0.3300
2196.00,0.3301
2195.00,0.3302
2194.00,0.3303
2193.00,0.3304
2192.00,0.3305
2191.00,0.3306
2190.00,0.3306
2189.00,0.3306
2188.00,0.3305
2187.00,0.3304
2186.00,0.3304
2185.00,0.3304
2184.00,0.3303
2183.00,0.3302
2182.00,0.3301
2181.00,0.3299
2180.00,0.3297
2179.00,0.3294
2178.00,0.3292
2177.00,0.3290
2176.00,0.3289
2175.00,0.3287
2174.00,0.3285
2173.00,0.3283
2172.00,0.3282
2171.00,0.3281
2170.00,0.3279
2169.00,0.3278
2168.00,0.3276
2167.00,0.3275
2166.00,0.3274
2165.00,0.3273
2164.00,0.3273
2163.00,0.3272
2162.00,0.3271
2161.00,0.3271
2160.00,0.3271
2159.00,0.3270
2158.00,0.3270
2157.00,0.3269
2156.00,0.3267
2155.00,0.3266
2154.00,0.3264
2153.00,0.3263
2152.00,0.3262
2151.00,0.3260
2150.00,0.3258
2149.00,0.3256
2148.00,0.3253
2147.00,0.3249
2146.00,0.3245
2145.00,0.3241
2144.00,0.3236
2143.00,0.3230
2142.00,0.3225
2141.00,0.3221
2140.00,0.3217
2139.00,0.3212
2138.00,0.3208
2137.00,0.3204
2136.00,0.3201
2135.00,0.3198
2134.00,0.3196
2133.00,0.3194
2132.00,0.3192
2131.00,0.3191
2130.00,0.3189
2129.00,0.3187
2128.00,0.3186
2127.00,0.3185
2126.00,0.3184
2125.00,0.3184
2124.00,0.3183
2123.00,0.3183
2122.00,0.3182
2121.00,0.3182
2120.00,0.3182
2119.00,0.3182
2118.00,0.3181
2117.00,0.3181
2116.00,0.3181
2115.00,0.3180
2114.00,0.3179
2113.00,0.3178
2112.00,0.3177
2111.00,0.3175
2110.00,0.3174
2109.00,0.3172
2108.00,0.3171
2107.00,0.3170
2106.00,0.3168
2105.00,0.3167
2104.00,0.3165
2103.00,0.3164
2102.00,0.3162
2101.00,0.3161
2100.00,0.3161
2099.00,0.3160
2098.00,0.3159
2097.00,0.3158
2096.00,0.3158
2095.00,0.3158
2094.00,0.3157
2093.00,0.3157
2092.00,0.3156
2091.00,0.3155
2090.00,0.3155
2089.00,0.3156
2088.00,0.3157
2087.00,0.3157
2086.00,0.3157
2085.00,0.3157
2084.00,0.3157
2083.00,0.3157
2082.00,0.3158
2081.00,0.3159
2080.00,0.3160
2079.00,0.3161
2078.00,0.3162
2077.00,0.3162
2076.00,0.3162
2075.00,0.3162
2074.00,0.3162
2073.00,0.3162
2072.00,0.3162
2071.00,0.3162
2070.00,0.3163
2069.00,0.3163
2068.00,0.3163
2067.00,0.3163
2066.00,0.3162
2065.00,0.3163
2064.00,0.3164
2063.00,0.3166
2062.00,0.3168
2061.00,0.3169
2060.00,0.3170
2059.00,0.3170
2058.00,0.3171
2057.00,0.3172
2056.00,0.3173
2055.00,0.3174
2054.00,0.3175
2053.00,0.3176
2052.00,0.3178
2051.00,0.3179
2050.00,0.3181
2049.00,0.3184
2048.00,0.3186
2047.00,0.3189
2046.00,0.3191
2045.00,0.3192
2044.00,0.3194
2043.00,0.3195
2042.00,0.3195
2041.00,0.3196
2040.00,0.3198
2039.00,0.3199
2038.00,0.3201
2037.00,0.3202
2036.00,0.3202
2035.00,0.3203
2034.00,0.3203
2033.00,0.3203
2032.00,0.3204
2031.00,0.3204
2030.00,0.3204
2029.00,0.3204
2028.00,0.3204
2027.00,0.3203
2026.00,0.3201
2025.00,0.3199
2024.00,0.3197
2023.00,0.3195
2022.00,0.3192
2021.00,0.3188
2020.00,0.3183
2019.00,0.3177
2018.00,0.3170
2017.00,0.3164
2016.00,0.3160
2015.00,0.3156
2014.00,0.3151
2013.00,0.3146
2012.00,0.3142
2011.00,0.3137
2010.00,0.3133
2009.00,0.3129
2008.00,0.3126
2007.00,0.3123
2006.00,0.3120
2005.00,0.3117
2004.00,0.3116
2003.00,0.3114
2002.00,0.3112
2001.00,0.3111
2000.00,0.3110
1999.00,0.3109
1998.00,0.3107
1997.00,0.3106
1996.00,0.3106
1995.00,0.3104
1994.00,0.3102
1993.00,0.3099
1992.00,0.3097
1991.00,0.3097
1990.00,0.3098
1989.00,0.3098
1988.00,0.3099
1987.00,0.3099
1986.00,0.3099
1985.00,0.3099
1984.00,0.3098
1983.00,0.3097
1982.00,0.3096
1981.00,0.3096
1980.00,0.3096
1979.00,0.3095
1978.00,0.3095
1977.00,0.3094
1976.00,0.3094
1975.00,0.3093
1974.00,0.3092
1973.00,0.3092
1972.00,0.3092
1971.00,0.3091
1970.00,0.3090
1969.00,0.3088
1968.00,0.3087
1967.00,0.3087
1966.00,0.3089
1965.00,0.3092
1964.00,0.3094
1963.00,0.3096
1962.00,0.3097
1961.00,0.3098
1960.00,0.3100
1959.00,0.3101
1958.00,0.3102
1957.00,0.3103
1956.00,0.3105
1955.00,0.3107
1954.00,0.3110
1953.00,0.3112
1952.00,0.3114
1951.00,0.3115
1950.00,0.3115
1949.00,0.3116
1948.00,0.3116
1947.00,0.3117
1946.00,0.3118
1945.00,0.3119
1944.00,0.3121
1943.00,0.3124
1942.00,0.3129
1941.00,0.3136
1940.00,0.3143
1939.00,0.3147
1938.00,0.3149
1937.00,0.3149
1936.00,0.3148
1935.00,0.3146
1934.00,0.3143
1933.00,0.3141
1932.00,0.3141
1931.00,0.3141
1930.00,0.3142
1929.00,0.3142
1928.00,0.3143
1927.00,0.3144
1926.00,0.3145
1925.00,0.3145
1924.00,0.3145
1923.00,0.3146
1922.00,0.3151
1921.00,0.3158
1920.00,0.3164
1919.00,0.3169
1918.00,0.3174
1917.00,0.3179
1916.00,0.3183
1915.00,0.3186
1914.00,0.3186
1913.00,0.3187
1912.00,0.3187
1911.00,0.3186
1910.00,0.3184
1909.00,0.3185
1908.00,0.3186
1907.00,0.3189
1906.00,0.3190
1905.00,0.3192
1904.00,0.3192
1903.00,0.3192
1902.00,0.3191
1901.00,0.3192
1900.00,0.3192
1899.00,0.3193
1898.00,0.3193
1897.00,0.3193
1896.00,0.3193
1895.00,0.3193
1894.00,0.3195
1893.00,0.3198
1892.00,0.3199
1891.00,0.3199
1890.00,0.3198
1889.00,0.3200
1888.00,0.3203
1887.00,0.3206
1886.00,0.3207
1885.00,0.3208
1884.00,0.3208
1883.00,0.3209
1882.00,0.3209
1881.00,0.3209
1880.00,0.3209
1879.00,0.3209
1878.00,0.3208
1877.00,0.3208
1876.00,0.3207
1875.00,0.3206
1874.00,0.3205
1873.00,0.3202
1872.00,0.3199
1871.00,0.3195
1870.00,0.3189
1869.00,0.3184
1868.00,0.3183
1867.00,0.3183
1866.00,0.3184
1865.00,0.3184
1864.00,0.3183
1863.00,0.3180
1862.00,0.3177
1861.00,0.3173
1860.00,0.3170
1859.00,0.3167
1858.00,0.3164
1857.00,0.3162
1856.00,0.3160
1855.00,0.3159
1854.00,0.3157
1853.00,0.3155
1852.00,0.3154
1851.00,0.3152
1850.00,0.3149
1849.00,0.3146
1848.00,0.3144
1847.00,0.3143
1846.00,0.3143
1845.00,0.3144
1844.00,0.3145
1843.00,0.3146
1842.00,0.3147
1841.00,0.3147
1840.00,0.3147
1839.00,0.3145
1838.00,0.3144
1837.00,0.3144
1836.00,0.3144
1835.00,0.3145
1834.00,0.3145
1833.00,0.3145
1832.00,0.3144
1831.00,0.3142
1830.00,0.3140
1829.00,0.3140
1828.00,0.3141
1827.00,0.3139
1826.00,0.3135
1825.00,0.3133
1824.00,0.3134
1823.00,0.3135
1822.00,0.3136
1821.00,0.3136
1820.00,0.3135
1819.00,0.3134
1818.00,0.3133
1817.00,0.3133
1816.00,0.3136
1815.00,0.3137
1814.00,0.3137
1813.00,0.3136
1812.00,0.3136
1811.00,0.3137
1810.00,0.3139
1809.00,0.3143
1808.00,0.3147
1807.00,0.3151
1806.00,0.3155
1805.00,0.3158
1804.00,0.3161
1803.00,0.3163
1802.00,0.3166
1801.00,0.3174
1800.00,0.3184
1799.00,0.3192
1798.00,0.3198
1797.00,0.3202
1796.00,0.3205
1795.00,0.3210
1794.00,0.3214
1793.00,0.3217
1792.00,0.3221
1791.00,0.3226
1790.00,0.3232
1789.00,0.3238
1788.00,0.3243
1787.00,0.3245
1786.00,0.3245
1785.00,0.3247
1784.00,0.3250
1783.00,0.3254
1782.00,0.3255
1781.00,0.3257
1780.00,0.3261
1779.00,0.3267
1778.00,0.3272
1777.00,0.3277
1776.00,0.3282
1775.00,0.3287
1774.00,0.3292
1773.00,0.3300
1772.00,0.3310
1771.00,0.3320
1770.00,0.3327
1769.00,0.3333
1768.00,0.3341
1767.00,0.3353
1766.00,0.3365
1765.00,0.3378
1764.00,0.3390
1763.00,0.3402
1762.00,0.3418
1761.00,0.3438
1760.00,0.3458
1759.00,0.3478
1758.00,0.3498
1757.00,0.3524
1756.00,0.3556
1755.00,0.3588
1754.00,0.3617
1753.00,0.3644
1752.00,0.3674
1751.00,0.3706
1750.00,0.3740
1749.00,0.3775
1748.00,0.3807
1747.00,0.3835
1746.00,0.3858
1745.00,0.3876
1744.00,0.3892
1743.00,0.3906
1742.00,0.3918
1741.00,0.3928
1740.00,0.3932
1739.00,0.3931
1738.00,0.3927
1737.00,0.3920
1736.00,0.3911
1735.00,0.3895
1734.00,0.3879
1733.00,0.3870
1732.00,0.3865
1731.00,0.3861
1730.00,0.3859
1729.00,0.3861
1728.00,0.3867
1727.00,0.3875
1726.00,0.3884
1725.00,0.3896
1724.00,0.3914
1723.00,0.3937
1722.00,0.3966
1721.00,0.3999
1720.00,0.4036
1719.00,0.4081
1718.00,0.4140
1717.00,0.4221
1716.00,0.4318
1715.00,0.4423
1714.00,0.4535
1713.00,0.4648
1712.00,0.4757
1711.00,0.4860
1710.00,0.4953
1709.00,0.5026
1708.00,0.5070
1707.00,0.5082
1706.00,0.5061
1705.00,0.5013
1704.00,0.4951
1703.00,0.4884
1702.00,0.4805
1701.00,0.4696
1700.00,0.4565
1699.00,0.4448
1698.00,0.4359
1697.00,0.4280
1696.00,0.4202
1695.00,0.4134
1694.00,0.4082
1693.00,0.4041
1692.00,0.4004
1691.00,0.3966
1690.00,0.3932
1689.00,0.3904
1688.00,0.3882
1687.00,0.3865
1686.00,0.3847
1685.00,0.3828
1684.00,0.3810
1683.00,0.3800
1682.00,0.3792
1681.00,0.3781
1680.00,0.3771
1679.00,0.3766
1678.00,0.3764
1677.00,0.3763
1676.00,0.3761
1675.00,0.3756
1674.00,0.3750
1673.00,0.3744
1672.00,0.3739
1671.00,0.3734
1670.00,0.3731
1669.00,0.3731
1668.00,0.3733
1667.00,0.3732
1666.00,0.3730
1665.00,0.3729
1664.00,0.3729
1663.00,0.3729
1662.00,0.3730
1661.00,0.3732
1660.00,0.3735
1659.00,0.3736
1658.00,0.3739
1657.00,0.3743
1656.00,0.3748
1655.00,0.3752
1654.00,0.3758
1653.00,0.3773
1652.00,0.3790
1651.00,0.3798
1650.00,0.3801
1649.00,0.3805
1648.00,0.3810
1647.00,0.3820
1646.00,0.3837
1645.00,0.3855
1644.00,0.3869
1643.00,0.3880
1642.00,0.3891
1641.00,0.3905
1640.00,0.3921
1639.00,0.3938
1638.00,0.3954
1637.00,0.3975
1636.00,0.4002
1635.00,0.4032
1634.00,0.4056
1633.00,0.4074
1632.00,0.4090
1631.00,0.4107
1630.00,0.4127
1629.00,0.4151
1628.00,0.4179
1627.00,0.4207
1626.00,0.4236
1625.00,0.4269
1624.00,0.4308
1623.00,0.4352
1622.00,0.4401
1621.00,0.4454
1620.00,0.4511
1619.00,0.4574
1618.00,0.4651
1617.00,0.4753
1616.00,0.4870
1615.00,0.4980
1614.00,0.5077
1613.00,0.5171
1612.00,0.5269
1611.00,0.5368
1610.00,0.5467
1609.00,0.5565
1608.00,0.5661
1607.00,0.5747
1606.00,0.5819
1605.00,0.5883
1604.00,0.5945
1603.00,0.6002
1602.00,0.6056
1601.00,0.6115
1600.00,0.6181
1599.00,0.6252
1598.00,0.6330
1597.00,0.6430
1596.00,0.6563
1595.00,0.6734
1594.00,0.6948
1593.00,0.7223
1592.00,0.7576
1591.00,0.8020
1590.00,0.8577
1589.00,0.9288
1588.00,1.0200
1587.00,1.1345
1586.00,1.2748
1585.00,1.4458
1584.00,1.6525
1583.00,1.8795
1582.00,2.0588
1581.00,2.1054
1580.00,2.0221
1579.00,1.8585
1578.00,1.6562
1577.00,1.4544
1576.00,1.2828
1575.00,1.1553
1574.00,1.0676
1573.00,1.0065
1572.00,0.9609
1571.00,0.9245
1570.00,0.8975
1569.00,0.8840
1568.00,0.8858
1567.00,0.9019
1566.00,0.9330
1565.00,0.9818
1564.00,1.0461
1563.00,1.1160
1562.00,1.1794
1561.00,1.2266
1560.00,1.2324
1559.00,1.1662
1558.00,1.0653
1557.00,0.9788
1556.00,0.9077
1555.00,0.8414
1554.00,0.7805
1553.00,0.7311
1552.00,0.6936
1551.00,0.6634
1550.00,0.6378
1549.00,0.6173
1548.00,0.6020
1547.00,0.5899
1546.00,0.5793
1545.00,0.5699
1544.00,0.5626
1543.00,0.5571
1542.00,0.5523
1541.00,0.5476
1540.00,0.5431
1539.00,0.5389
1538.00,0.5350
1537.00,0.5318
1536.00,0.5291
1535.00,0.5262
1534.00,0.5232
1533.00,0.5212
1532.00,0.5207
1531.00,0.5210
1530.00,0.5216
1529.00,0.5225
1528.00,0.5233
1527.00,0.5237
1526.00,0.5236
1525.00,0.5235
1524.00,0.5235
1523.00,0.5235
1522.00,0.5239
1521.00,0.5258
1520.00,0.5292
1519.00,0.5327
1518.00,0.5361
1517.00,0.5399
1516.00,0.5438
1515.00,0.5468
1514.00,0.5484
1513.00,0.5493
1512.00,0.5499
1511.00,0.5506
1510.00,0.5519
1509.00,0.5548
1508.00,0.5603
1507.00,0.5703
1506.00,0.5843
1505.00,0.5979
1504.00,0.6083
1503.00,0.6166
1502.00,0.6241
1501.00,0.6317
1500.00,0.6393
1499.00,0.6463
1498.00,0.6535
1497.00,0.6625
1496.00,0.6732
1495.00,0.6841
1494.00,0.6949
1493.00,0.7062
1492.00,0.7185
1491.00,0.7318
1490.00,0.7470
1489.00,0.7648
1488.00,0.7849
1487.00,0.8062
1486.00,0.8296
1485.00,0.8565
1484.00,0.8873
1483.00,0.9227
1482.00,0.9648
1481.00,1.0150
1480.00,1.0717
1479.00,1.1336
1478.00,1.2037
1477.00,1.2869
1476.00,1.3846
1475.00,1.4967
1474.00,1.6325
1473.00,1.8119
1472.00,2.0457
1471.00,2.3191
1470.00,2.6161
1469.00,2.9611
1468.00,3.3810
1467.00,3.8202
1466.00,4.4972
1465.00,4.0994
1464.00,3.9432
1463.00,4.2809
1462.00,4.1174
1461.00,4.2870
1460.00,4.6158
1459.00,4.4265
1458.00,4.1523
1457.00,4.3025
1456.00,4.4482
1455.00,3.9400
1454.00,3.8810
1453.00,4.1118
1452.00,4.0582
1451.00,3.6972
1450.00,3.5115
1449.00,3.4563
1448.00,3.2985
1447.00,3.0744
1446.00,2.9186
1445.00,2.8074
1444.00,2.6781
1443.00,2.5285
1442.00,2.3908
1441.00,2.2704
1440.00,2.1558
1439.00,2.0417
1438.00,1.9264
1437.00,1.8073
1436.00,1.6906
1435.00,1.5870
1434.00,1.4965
1433.00,1.4110
1432.00,1.3262
1431.00,1.2445
1430.00,1.1707
1429.00,1.1075
1428.00,1.0556
1427.00,1.0143
1426.00,0.9807
1425.00,0.9520
1424.00,0.9279
1423.00,0.9096
1422.00,0.8960
1421.00,0.8847
1420.00,0.8738
1419.00,0.8635
1418.00,0.8547
1417.00,0.8476
1416.00,0.8419
1415.00,0.8373
1414.00,0.8338
1413.00,0.8309
1412.00,0.8289
1411.00,0.8278
1410.00,0.8268
1409.00,0.8246
1408.00,0.8203
1407.00,0.8135
1406.00,0.8040
1405.00,0.7921
1404.00,0.7793
1403.00,0.7674
1402.00,0.7567
1401.00,0.7469
1400.00,0.7379
1399.00,0.7310
1398.00,0.7267
1397.00,0.7248
1396.00,0.7256
1395.00,0.7302
1394.00,0.7390
1393.00,0.7522
1392.00,0.7711
1391.00,0.7979
1390.00,0.8349
1389.00,0.8856
1388.00,0.9539
1387.00,1.0410
1386.00,1.1415
1385.00,1.2475
1384.00,1.3569
1383.00,1.4735
1382.00,1.6017
1381.00,1.7450
1380.00,1.9053
1379.00,2.0712
1378.00,2.2026
1377.00,2.2485
1376.00,2.1939
1375.00,2.0626
1374.00,1.8980
1373.00,1.7417
1372.00,1.6125
1371.00,1.5116
1370.00,1.4366
1369.00,1.3857
1368.00,1.3549
1367.00,1.3331
1366.00,1.3049
1365.00,1.2588
1364.00,1.1948
1363.00,1.1235
1362.00,1.0576
1361.00,1.0044
1360.00,0.9642
1359.00,0.9345
1358.00,0.9127
1357.00,0.8971
1356.00,0.8866
1355.00,0.8802
1354.00,0.8766
1353.00,0.8746
1352.00,0.8729
1351.00,0.8709
1350.00,0.8683
1349.00,0.8650
1348.00,0.8615
1347.00,0.8581
1346.00,0.8552
1345.00,0.8527
1344.00,0.8507
1343.00,0.8485
1342.00,0.8453
1341.00,0.8401
1340.00,0.8327
1339.00,0.8234
1338.00,0.8125
1337.00,0.8003
1336.00,0.7870
1335.00,0.7731
1334.00,0.7595
1333.00,0.7468
1332.00,0.7353
1331.00,0.7256
1330.00,0.7177
1329.00,0.7117
1328.00,0.7073
1327.00,0.7043
1326.00,0.7026
1325.00,0.7018
1324.00,0.7018
1323.00,0.7023
1322.00,0.7031
1321.00,0.7038
1320.00,0.7044
1319.00,0.7051
1318.00,0.7064
1317.00,0.7083
1316.00,0.7107
1315.00,0.7137
1314.00,0.7172
1313.00,0.7211
1312.00,0.7251
1311.00,0.7290
1310.00,0.7325
1309.00,0.7355
1308.00,0.7380
1307.00,0.7399
1306.00,0.7410
1305.00,0.7410
1304.00,0.7396
1303.00,0.7368
1302.00,0.7330
1301.00,0.7283
1300.00,0.7232
1299.00,0.7178
1298.00,0.7123
1297.00,0.7066
1296.00,0.7010
1295.00,0.6958
1294.00,0.6911
1293.00,0.6869
1292.00,0.6830
1291.00,0.6793
1290.00,0.6759
1289.00,0.6726
1288.00,0.6694
1287.00,0.6661
1286.00,0.6625
1285.00,0.6586
1284.00,0.6545
1283.00,0.6507
1282.00,0.6473
1281.00,0.6445
1280.00,0.6420
1279.00,0.6398
1278.00,0.6378
1277.00,0.6357
1276.00,0.6335
1275.00,0.6314
1274.00,0.6294
1273.00,0.6275
1272.00,0.6260
1271.00,0.6251
1270.00,0.6246
1269.00,0.6241
1268.00,0.6228
1267.00,0.6206
1266.00,0.6175
1265.00,0.6136
1264.00,0.6097
1263.00,0.6064
1262.00,0.6037
1261.00,0.6015
1260.00,0.5998
1259.00,0.5983
1258.00,0.5967
1257.00,0.5947
1256.00,0.5925
1255.00,0.5904
1254.00,0.5886
1253.00,0.5871
1252.00,0.5857
1251.00,0.5846
1250.00,0.5834
1249.00,0.5820
1248.00,0.5803
1247.00,0.5783
1246.00,0.5761
1245.00,0.5736
1244.00,0.5706
1243.00,0.5674
1242.00,0.5641
1241.00,0.5608
1240.00,0.5577
1239.00,0.5549
1238.00,0.5525
1237.00,0.5504
1236.00,0.5486
1235.00,0.5472
1234.00,0.5464
1233.00,0.5460
1232.00,0.5462
1231.00,0.5469
1230.00,0.5475
1229.00,0.5476
1228.00,0.5466
1227.00,0.5445
1226.00,0.5418
1225.00,0.5386
1224.00,0.5355
1223.00,0.5327
1222.00,0.5306
1221.00,0.5290
1220.00,0.5279
1219.00,0.5273
1218.00,0.5272
1217.00,0.5275
1216.00,0.5282
1215.00,0.5293
1214.00,0.5304
1213.00,0.5312
1212.00,0.5311
1211.00,0.5304
1210.00,0.5292
1209.00,0.5278
1208.00,0.5263
1207.00,0.5248
1206.00,0.5232
1205.00,0.5216
1204.00,0.5200
1203.00,0.5186
1202.00,0.5175
1201.00,0.5166
1200.00,0.5160
1199.00,0.5155
1198.00,0.5152
1197.00,0.5147
1196.00,0.5140
1195.00,0.5132
1194.00,0.5123
1193.00,0.5116
1192.00,0.5109
1191.00,0.5105
1190.00,0.5102
1189.00,0.5100
1188.00,0.5096
1187.00,0.5092
1186.00,0.5086
1185.00,0.5081
1184.00,0.5078
1183.00,0.5077
1182.00,0.5079
1181.00,0.5082
1180.00,0.5088
1179.00,0.5097
1178.00,0.5110
1177.00,0.5128
1176.00,0.5152
1175.00,0.5182
1174.00,0.5221
1173.00,0.5267
1172.00,0.5315
1171.00,0.5360
1170.00,0.5393
1169.00,0.5410
1168.00,0.5410
1167.00,0.5400
1166.00,0.5384
1165.00,0.5370
1164.00,0.5360
1163.00,0.5357
1162.00,0.5362
1161.00,0.5372
1160.00,0.5384
1159.00,0.5398
1158.00,0.5412
1157.00,0.5422
1156.00,0.5428
1155.00,0.5427
1154.00,0.5420
1153.00,0.5405
1152.00,0.5384
1151.00,0.5359
1150.00,0.5332
1149.00,0.5305
1148.00,0.5279
1147.00,0.5256
1146.00,0.5238
1145.00,0.5224
1144.00,0.5215
1143.00,0.5214
1142.00,0.5222
1141.00,0.5240
1140.00,0.5270
1139.00,0.5312
1138.00,0.5367
1137.00,0.5432
1136.00,0.5506
1135.00,0.5585
1134.00,0.5656
1133.00,0.5699
1132.00,0.5701
1131.00,0.5660
1130.00,0.5590
1129.00,0.5509
1128.00,0.5436
1127.00,0.5379
1126.00,0.5340
1125.00,0.5314
1124.00,0.5295
1123.00,0.5279
1122.00,0.5263
1121.00,0.5246
1120.00,0.5233
1119.00,0.5229
1118.00,0.5238
1117.00,0.5261
1116.00,0.5294
1115.00,0.5329
1114.00,0.5351
1113.00,0.5345
1112.00,0.5308
1111.00,0.5249
1110.00,0.5183
1109.00,0.5124
1108.00,0.5077
1107.00,0.5045
1106.00,0.5025
1105.00,0.5014
1104.00,0.5008
1103.00,0.5004
1102.00,0.5001
1101.00,0.4996
1100.00,0.4987
1099.00,0.4977
1098.00,0.4967
1097.00,0.4959
1096.00,0.4953
1095.00,0.4949
1094.00,0.4949
1093.00,0.4951
1092.00,0.4956
1091.00,0.4965
1090.00,0.4977
1089.00,0.4994
1088.00,0.5016
1087.00,0.5045
1086.00,0.5082
1085.00,0.5125
1084.00,0.5176
1083.00,0.5235
1082.00,0.5303
1081.00,0.5376
1080.00,0.5452
1079.00,0.5521
1078.00,0.5575
1077.00,0.5604
1076.00,0.5604
1075.00,0.5578
1074.00,0.5529
1073.00,0.5469
1072.00,0.5407
1071.00,0.5352
1070.00,0.5310
1069.00,0.5278
1068.00,0.5255
1067.00,0.5238
1066.00,0.5228
1065.00,0.5221
1064.00,0.5218
1063.00,0.5216
1062.00,0.5218
1061.00,0.5221
1060.00,0.5226
1059.00,0.5230
1058.00,0.5231
1057.00,0.5229
1056.00,0.5223
1055.00,0.5217
1054.00,0.5212
1053.00,0.5209
1052.00,0.5210
1051.00,0.5217
1050.00,0.5231
1049.00,0.5250
1048.00,0.5269
1047.00,0.5288
1046.00,0.5303
1045.00,0.5311
1044.00,0.5313
1043.00,0.5310
1042.00,0.5306
1041.00,0.5304
1040.00,0.5303
1039.00,0.5301
1038.00,0.5299
1037.00,0.5295
1036.00,0.5291
1035.00,0.5292
1034.00,0.5299
1033.00,0.5313
1032.00,0.5331
1031.00,0.5350
1030.00,0.5365
1029.00,0.5373
1028.00,0.5369
1027.00,0.5352
1026.00,0.5320
1025.00,0.5275
1024.00,0.5222
1023.00,0.5168
1022.00,0.5117
1021.00,0.5071
1020.00,0.5030
1019.00,0.4994
1018.00,0.4962
1017.00,0.4933
1016.00,0.4906
1015.00,0.4883
1014.00,0.4865
1013.00,0.4849
1012.00,0.4836
1011.00,0.4826
1010.00,0.4819
1009.00,0.4815
1008.00,0.4815
1007.00,0.4818
1006.00,0.4826
1005.00,0.4838
1004.00,0.4851
1003.00,0.4867
1002.00,0.4882
1001.00,0.4896
1000.00,0.4907
999.00,0.4914
998.00,0.4915
997.00,0.4908
996.00,0.4893
995.00,0.4873
994.00,0.4848
993.00,0.4820
992.00,0.4789
991.00,0.4757
990.00,0.4728
989.00,0.4702
988.00,0.4683
987.00,0.4671
986.00,0.4668
985.00,0.4670
984.00,0.4679
983.00,0.4694
982.00,0.4714
981.00,0.4739
980.00,0.4764
979.00,0.4788
978.00,0.4809
977.00,0.4828
976.00,0.4843
975.00,0.4855
974.00,0.4864
973.00,0.4868
972.00,0.4869
971.00,0.4870
970.00,0.4870
969.00,0.4868
968.00,0.4866
967.00,0.4863
966.00,0.4858
965.00,0.4851
964.00,0.4840
963.00,0.4827
962.00,0.4812
961.00,0.4798
960.00,0.4784
959.00,0.4773
958.00,0.4765
957.00,0.4761
956.00,0.4756
955.00,0.4751
954.00,0.4743
953.00,0.4733
952.00,0.4722
951.00,0.4713
950.00,0.4707
949.00,0.4704
948.00,0.4704
947.00,0.4708
946.00,0.4715
945.00,0.4726
944.00,0.4740
943.00,0.4756
942.00,0.4773
941.00,0.4787
940.00,0.4799
939.00,0.4807
938.00,0.4810
937.00,0.4807
936.00,0.4797
935.00,0.4782
934.00,0.4762
933.00,0.4739
932.00,0.4714
931.00,0.4690
930.00,0.4670
929.00,0.4654
928.00,0.4646
927.00,0.4647
926.00,0.4660
925.00,0.4687
924.00,0.4727
923.00,0.4776
922.00,0.4825
921.00,0.4856
920.00,0.4856
919.00,0.4820
918.00,0.4756
917.00,0.4677
916.00,0.4595
915.00,0.4519
914.00,0.4457
913.00,0.4407
912.00,0.4368
911.00,0.4339
910.00,0.4318
909.00,0.4301
908.00,0.4290
907.00,0.4282
906.00,0.4276
905.00,0.4272
904.00,0.4270
903.00,0.4274
902.00,0.4286
901.00,0.4305
900.00,0.4330
899.00,0.4359
898.00,0.4393
897.00,0.4430
896.00,0.4468
895.00,0.4507
894.00,0.4546
893.00,0.4584
892.00,0.4622
891.00,0.4657
890.00,0.4687
889.00,0.4703
888.00,0.4705
887.00,0.4693
886.00,0.4673
885.00,0.4652
884.00,0.4635
883.00,0.4628
882.00,0.4631
881.00,0.4643
880.00,0.4660
879.00,0.4676
878.00,0.4686
877.00,0.4688
876.00,0.4682
875.00,0.4675
874.00,0.4670
873.00,0.4669
872.00,0.4670
871.00,0.4675
870.00,0.4684
869.00,0.4697
868.00,0.4713
867.00,0.4737
866.00,0.4769
865.00,0.4806
864.00,0.4843
863.00,0.4871
862.00,0.4881
861.00,0.4864
860.00,0.4819
859.00,0.4756
858.00,0.4689
857.00,0.4628
856.00,0.4581
855.00,0.4549
854.00,0.4528
853.00,0.4515
852.00,0.4504
851.00,0.4494
850.00,0.4482
849.00,0.4464
848.00,0.4440
847.00,0.4413
846.00,0.4385
845.00,0.4359
844.00,0.4336
843.00,0.4318
842.00,0.4309
841.00,0.4316
840.00,0.4342
839.00,0.4388
838.00,0.4449
837.00,0.4509
836.00,0.4553
835.00,0.4567
834.00,0.4549
833.00,0.4511
832.00,0.4471
831.00,0.4446
830.00,0.4441
829.00,0.4455
828.00,0.4484
827.00,0.4527
826.00,0.4580
825.00,0.4640
824.00,0.4705
823.00,0.4773
822.00,0.4842
821.00,0.4909
820.00,0.4973
819.00,0.5035
818.00,0.5092
817.00,0.5138
816.00,0.5166
815.00,0.5172
814.00,0.5157
813.00,0.5121
812.00,0.5067
811.00,0.5004
810.00,0.4940
809.00,0.4879
808.00,0.4824
807.00,0.4773
806.00,0.4726
805.00,0.4679
804.00,0.4628
803.00,0.4574
802.00,0.4517
801.00,0.4459
800.00,0.4405
799.00,0.4362
798.00,0.4332
797.00,0.4312
796.00,0.4297
795.00,0.4286
794.00,0.4279
793.00,0.4278
792.00,0.4285
791.00,0.4302
790.00,0.4328
789.00,0.4358
788.00,0.4388
787.00,0.4419
786.00,0.4454
785.00,0.4495
784.00,0.4540
783.00,0.4584
782.00,0.4622
781.00,0.4653
780.00,0.4676
779.00,0.4695
778.00,0.4714
777.00,0.4732
776.00,0.4750
775.00,0.4769
774.00,0.4790
773.00,0.4810
772.00,0.4831
771.00,0.4853
770.00,0.4878
769.00,0.4909
768.00,0.4941
767.00,0.4971
766.00,0.4994
765.00,0.5010
764.00,0.5025
763.00,0.5044
762.00,0.5072
761.00,0.5108
760.00,0.5146
759.00,0.5183
758.00,0.5217
757.00,0.5246
756.00,0.5271
755.00,0.5296
754.00,0.5326
753.00,0.5363
752.00,0.5408
751.00,0.5458
750.00,0.5507
749.00,0.5552
748.00,0.5592
747.00,0.5630
746.00,0.5666
745.00,0.5703
744.00,0.5745
743.00,0.5793
742.00,0.5847
741.00,0.5901
740.00,0.5948
739.00,0.5989
738.00,0.6026
737.00,0.6064
736.00,0.6103
735.00,0.6147
734.00,0.6197
733.00,0.6257
732.00,0.6330
731.00,0.6423
730.00,0.6543
729.00,0.6695
728.00,0.6879
727.00,0.7097
726.00,0.7348
725.00,0.7628
724.00,0.7913
723.00,0.8152
722.00,0.8264
721.00,0.8178
720.00,0.7888
719.00,0.7465
718.00,0.7006
717.00,0.6578
716.00,0.6214
715.00,0.5922
714.00,0.5692
713.00,0.5508
712.00,0.5357
711.00,0.5234
710.00,0.5136
709.00,0.5056
708.00,0.4990
707.00,0.4936
706.00,0.4890
705.00,0.4850
704.00,0.4814
703.00,0.4788
702.00,0.4775
701.00,0.4768
700.00,0.4749
699.00,0.4697
698.00,0.4597
697.00,0.4456
696.00,0.4299
695.00,0.4153
694.00,0.4034
693.00,0.3944
692.00,0.3876
691.00,0.3826
690.00,0.3789
689.00,0.3762
688.00,0.3740
687.00,0.3723
686.00,0.3709
685.00,0.3695
684.00,0.3683
683.00,0.3675
682.00,0.3671
681.00,0.3670
680.00,0.3669
679.00,0.3666
678.00,0.3664
677.00,0.3662
676.00,0.3662
675.00,0.3666
674.00,0.3670
673.00,0.3672
672.00,0.3675
671.00,0.3680
670.00,0.3688
669.00,0.3694
668.00,0.3690
667.00,0.3682
666.00,0.3680
665.00,0.3688
664.00,0.3698
663.00,0.3708
662.00,0.3718
661.00,0.3726
660.00,0.3734
659.00,0.3742
658.00,0.3753
657.00,0.3764
656.00,0.3776
655.00,0.3789
654.00,0.3801
653.00,0.3811
652.00,0.3819
651.00,0.3828
650.00,0.3838
649.00,0.3848
648.00,0.3858
647.00,0.3868
646.00,0.3876
645.00,0.3887
644.00,0.3899
643.00,0.3915
642.00,0.3931
641.00,0.3946
640.00,0.3957
639.00,0.3968
638.00,0.3978
637.00,0.3989
636.00,0.3997
635.00,0.4001
634.00,0.4001
633.00,0.3999
632.00,0.4002
631.00,0.4010
630.00,0.4022
629.00,0.4034
628.00,0.4046
627.00,0.4061
626.00,0.4080
625.00,0.4103
624.00,0.4127
623.00,0.4152
622.00,0.4175
621.00,0.4195
620.00,0.4213
619.00,0.4229
618.00,0.4242
617.00,0.4248
616.00,0.4246
615.00,0.4241
614.00,0.4237
613.00,0.4235
612.00,0.4232
611.00,0.4226
610.00,0.4214
609.00,0.4200
608.00,0.4185
607.00,0.4171
606.00,0.4158
605.00,0.4146
604.00,0.4139
603.00,0.4136
602.00,0.4139
601.00,0.4142
600.00,0.4145
599.00,0.4149
598.00,0.4152
597.00,0.4154
596.00,0.4156
595.00,0.4163
594.00,0.4176
593.00,0.4193
592.00,0.4212
591.00,0.4233
590.00,0.4255
589.00,0.4279
588.00,0.4300
587.00,0.4319
586.00,0.4335
585.00,0.4352
584.00,0.4373
583.00,0.4401
582.00,0.4432
581.00,0.4463
580.00,0.4494
579.00,0.4522
578.00,0.4547
577.00,0.4569
576.00,0.4589
575.00,0.4610
574.00,0.4628
573.00,0.4641
572.00,0.4655
571.00,0.4676
570.00,0.4701
569.00,0.4725
568.00,0.4743
567.00,0.4756
566.00,0.4769
565.00,0.4785
564.00,0.4802
563.00,0.4819
562.00,0.4828
561.00,0.4826
560.00,0.4816
559.00,0.4808
558.00,0.4810
557.00,0.4819
556.00,0.4830
555.00,0.4839
554.00,0.4850
553.00,0.4864
552.00,0.4881
551.00,0.4897
550.00,0.4907
