Created as New Dataset,
cm-1,A
4000.00,0.3807
3999.00,0.3804
3998.00,0.3801
3997.00,0.3798
3996.00,0.3795
3995.00,0.3793
3994.00,0.3790
3993.00,0.3787
3992.00,0.3784
3991.00,0.3780
3990.00,0.3777
3989.00,0.3773
3988.00,0.3770
3987.00,0.3766
3986.00,0.3763
3985.00,0.3759
3984.00,0.3756
3983.00,0.3752
3982.00,0.3749
3981.00,0.3745
3980.00,0.3742
3979.00,0.3738
3978.00,0.3735
3977.00,0.3731
3976.00,0.3728
3975.00,0.3725
3974.00,0.3723
3973.00,0.3720
3972.00,0.3718
3971.00,0.3715
3970.00,0.3713
3969.00,0.3710
3968.00,0.3708
3967.00,0.3706
3966.00,0.3704
3965.00,0.3701
3964.00,0.3699
3963.00,0.3697
3962.00,0.3695
3961.00,0.3693
3960.00,0.3692
3959.00,0.3691
3958.00,0.3690
3957.00,0.3688
3956.00,0.3688
3955.00,0.3687
3954.00,0.3686
3953.00,0.3685
3952.00,0.3684
3951.00,0.3682
3950.00,0.3680
3949.00,0.3679
3948.00,0.3677
3947.00,0.3677
3946.00,0.3676
3945.00,0.3674
3944.00,0.3672
3943.00,0.3671
3942.00,0.3670
3941.00,0.3668
3940.00,0.3667
3939.00,0.3666
3938.00,0.3664
3937.00,0.3663
3936.00,0.3661
3935.00,0.3660
3934.00,0.3659
3933.00,0.3659
3932.00,0.3659
3931.00,0.3659
3930.00,0.3659
3929.00,0.3659
3928.00,0.3658
3927.00,0.3657
3926.00,0.3656
3925.00,0.3656
3924.00,0.3657
3923.00,0.3656
3922.00,0.3656
3921.00,0.3655
3920.00,0.3655
3919.00,0.3655
3918.00,0.3656
3917.00,0.3656
3916.00,0.3657
3915.00,0.3657
3914.00,0.3656
3913.00,0.3656
3912.00,0.3655
3911.00,0.3655
3910.00,0.3655
3909.00,0.3654
3908.00,0.3653
3907.00,0.3652
3906.00,0.3651
3905.00,0.3650
3904.00,0.3650
3903.00,0.3650
3902.00,0.3649
3901.00,0.3648
3900.00,0.3648
3899.00,0.3648
3898.00,0.3648
3897.00,0.3647
3896.00,0.3646
3895.00,0.3645
3894.00,0.3644
3893.00,0.3641
3892.00,0.3640
3891.00,0.3639
3890.00,0.3639
3889.00,0.3639
3888.00,0.3638
3887.00,0.3636
3886.00,0.3637
3885.00,0.3638
3884.00,0.3638
3883.00,0.3636
3882.00,0.3634
3881.00,0.3633
3880.00,0.3633
3879.00,0.3634
3878.00,0.3633
3877.00,0.3631
3876.00,0.3630
3875.00,0.3630
3874.00,0.3631
3873.00,0.3631
3872.00,0.3629
3871.00,0.3627
3870.00,0.3626
3869.00,0.3627
3868.00,0.3628
3867.00,0.3627
3866.00,0.3625
3865.00,0.3624
3864.00,0.3622
3863.00,0.3619
3862.00,0.3616
3861.00,0.3614
3860.00,0.3613
3859.00,0.3612
3858.00,0.3612
3857.00,0.3612
3856.00,0.3610
3855.00,0.3608
3854.00,0.3606
3853.00,0.3607
3852.00,0.3607
3851.00,0.3606
3850.00,0.3605
3849.00,0.3604
3848.00,0.3604
3847.00,0.3605
3846.00,0.3605
3845.00,0.3604
3844.00,0.3602
3843.00,0.3602
3842.00,0.3601
3841.00,0.3601
3840.00,0.3601
3839.00,0.3602
3838.00,0.3602
3837.00,0.3603
3836.00,0.3603
3835.00,0.3603
3834.00,0.3602
3833.00,0.3601
3832.00,0.3601
3831.00,0.3600
3830.00,0.3599
3829.00,0.3596
3828.00,0.3594
3827.00,0.3592
3826.00,0.3592
3825.00,0.3591
3824.00,0.3590
3823.00,0.3587
3822.00,0.3586
3821.00,0.3586
3820.00,0.3586
3819.00,0.3584
3818.00,0.3580
3817.00,0.3577
3816.00,0.3576
3815.00,0.3575
3814.00,0.3573
3813.00,0.3569
3812.00,0.3566
3811.00,0.3564
3810.00,0.3563
3809.00,0.3561
3808.00,0.3558
3807.00,0.3557
3806.00,0.3558
3805.00,0.3558
3804.00,0.3557
3803.00,0.3555
3802.00,0.3556
3801.00,0.3557
3800.00,0.3557
3799.00,0.3555
3798.00,0.3551
3797.00,0.3549
3796.00,0.3547
3795.00,0.3546
3794.00,0.3544
3793.00,0.3542
3792.00,0.3539
3791.00,0.3537
3790.00,0.3535
3789.00,0.3534
3788.00,0.3532
3787.00,0.3530
3786.00,0.3528
3785.00,0.3526
3784.00,0.3524
3783.00,0.3522
3782.00,0.3520
3781.00,0.3518
3780.00,0.3516
3779.00,0.3515
3778.00,0.3513
3777.00,0.3511
3776.00,0.3509
3775.00,0.3507
3774.00,0.3506
3773.00,0.3505
3772.00,0.3503
3771.00,0.3502
3770.00,0.3502
3769.00,0.3501
3768.00,0.3499
3767.00,0.3497
3766.00,0.3495
3765.00,0.3495
3764.00,0.3494
3763.00,0.3494
3762.00,0.3492
3761.00,0.3490
3760.00,0.3489
3759.00,0.3488
3758.00,0.3486
3757.00,0.3485
3756.00,0.3484
3755.00,0.3483
3754.00,0.3483
3753.00,0.3482
3752.00,0.3481
3751.00,0.3480
3750.00,0.3479
3749.00,0.3478
3748.00,0.3477
3747.00,0.3475
3746.00,0.3472
3745.00,0.3470
3744.00,0.3470
3743.00,0.3469
3742.00,0.3466
3741.00,0.3463
3740.00,0.3461
3739.00,0.3460
3738.00,0.3459
3737.00,0.3457
3736.00,0.3456
3735.00,0.3454
3734.00,0.3452
3733.00,0.3451
3732.00,0.3451
3731.00,0.3451
3730.00,0.3450
3729.00,0.3448
3728.00,0.3446
3727.00,0.3445
3726.00,0.3444
3725.00,0.3443
3724.00,0.3440
3723.00,0.3438
3722.00,0.3437
3721.00,0.3436
3720.00,0.3435
3719.00,0.3434
3718.00,0.3433
3717.00,0.3431
3716.00,0.3430
3715.00,0.3430
3714.00,0.3429
3713.00,0.3428
3712.00,0.3427
3711.00,0.3426
3710.00,0.3425
3709.00,0.3424
3708.00,0.3423
3707.00,0.3422
3706.00,0.3421
3705.00,0.3420
3704.00,0.3419
3703.00,0.3417
3702.00,0.3416
3701.00,0.3415
3700.00,0.3415
3699.00,0.3415
3698.00,0.3414
3697.00,0.3414
3696.00,0.3415
3695.00,0.3416
3694.00,0.3418
3693.00,0.3419
3692.00,0.3420
3691.00,0.3420
3690.00,0.3420
3689.00,0.3420
3688.00,0.3420
3687.00,0.3421
3686.00,0.3420
3685.00,0.3420
3684.00,0.3419
3683.00,0.3418
3682.00,0.3417
3681.00,0.3416
3680.00,0.3416
3679.00,0.3415
3678.00,0.3414
3677.00,0.3412
3676.00,0.3411
3675.00,0.3412
3674.00,0.3412
3673.00,0.3411
3672.00,0.3409
3671.00,0.3408
3670.00,0.3407
3669.00,0.3407
3668.00,0.3406
3667.00,0.3404
3666.00,0.3403
3665.00,0.3404
3664.00,0.3404
3663.00,0.3405
3662.00,0.3405
3661.00,0.3405
3660.00,0.3406
3659.00,0.3407
3658.00,0.3407
3657.00,0.3408
3656.00,0.3410
3655.00,0.3412
3654.00,0.3414
3653.00,0.3415
3652.00,0.3417
3651.00,0.3419
3650.00,0.3422
3649.00,0.3424
3648.00,0.3425
3647.00,0.3426
3646.00,0.3427
3645.00,0.3427
3644.00,0.3427
3643.00,0.3426
3642.00,0.3426
3641.00,0.3427
3640.00,0.3427
3639.00,0.3428
3638.00,0.3428
3637.00,0.3429
3636.00,0.3429
3635.00,0.3430
3634.00,0.3431
3633.00,0.3432
3632.00,0.3433
3631.00,0.3434
3630.00,0.3436
3629.00,0.3439
3628.00,0.3442
3627.00,0.3444
3626.00,0.3446
3625.00,0.3448
3624.00,0.3451
3623.00,0.3454
3622.00,0.3456
3621.00,0.3456
3620.00,0.3456
3619.00,0.3455
3618.00,0.3454
3617.00,0.3453
3616.00,0.3453
3615.00,0.3452
3614.00,0.3453
3613.00,0.3453
3612.00,0.3454
3611.00,0.3454
3610.00,0.3453
3609.00,0.3453
3608.00,0.3453
3607.00,0.3452
3606.00,0.3451
3605.00,0.3449
3604.00,0.3447
3603.00,0.3445
3602.00,0.3442
3601.00,0.3438
3600.00,0.3433
3599.00,0.3428
3598.00,0.3422
3597.00,0.3415
3596.00,0.3409
3595.00,0.3403
3594.00,0.3398
3593.00,0.3394
3592.00,0.3391
3591.00,0.3388
3590.00,0.3385
3589.00,0.3383
3588.00,0.3381
3587.00,0.3379
3586.00,0.3378
3585.00,0.3376
3584.00,0.3376
3583.00,0.3375
3582.00,0.3376
3581.00,0.3376
3580.00,0.3377
3579.00,0.3377
3578.00,0.3377
3577.00,0.3377
3576.00,0.3378
3575.00,0.3379
3574.00,0.3380
3573.00,0.3381
3572.00,0.3381
3571.00,0.3382
3570.00,0.3382
3569.00,0.3383
3568.00,0.3385
3567.00,0.3386
3566.00,0.3388
3565.00,0.3389
3564.00,0.3390
3563.00,0.3392
3562.00,0.3394
3561.00,0.3396
3560.00,0.3398
3559.00,0.3399
3558.00,0.3401
3557.00,0.3403
3556.00,0.3406
3555.00,0.3408
3554.00,0.3411
3553.00,0.3414
3552.00,0.3418
3551.00,0.3422
3550.00,0.3426
3549.00,0.3430
3548.00,0.3433
3547.00,0.3436
3546.00,0.3439
3545.00,0.3443
3544.00,0.3448
3543.00,0.3452
3542.00,0.3457
3541.00,0.3461
3540.00,0.3465
3539.00,0.3467
3538.00,0.3470
3537.00,0.3471
3536.00,0.3474
3535.00,0.3476
3534.00,0.3478
3533.00,0.3480
3532.00,0.3482
3531.00,0.3485
3530.00,0.3487
3529.00,0.3489
3528.00,0.3491
3527.00,0.3494
3526.00,0.3496
3525.00,0.3499
3524.00,0.3502
3523.00,0.3506
3522.00,0.3509
3521.00,0.3512
3520.00,0.3516
3519.00,0.3519
3518.00,0.3522
3517.00,0.3526
3516.00,0.3529
3515.00,0.3533
3514.00,0.3536
3513.00,0.3541
3512.00,0.3545
3511.00,0.3549
3510.00,0.3554
3509.00,0.3559
3508.00,0.3564
3507.00,0.3569
3506.00,0.3574
3505.00,0.3578
3504.00,0.3582
3503.00,0.3587
3502.00,0.3591
3501.00,0.3595
3500.00,0.3600
3499.00,0.3605
3498.00,0.3610
3497.00,0.3616
3496.00,0.3621
3495.00,0.3627
3494.00,0.3632
3493.00,0.3638
3492.00,0.3644
3491.00,0.3651
3490.00,0.3657
3489.00,0.3663
3488.00,0.3669
3487.00,0.3675
3486.00,0.3681
3485.00,0.3688
3484.00,0.3694
3483.00,0.3699
3482.00,0.3704
3481.00,0.3708
3480.00,0.3713
3479.00,0.3717
3478.00,0.3722
3477.00,0.3727
3476.00,0.3731
3475.00,0.3736
3474.00,0.3740
3473.00,0.3745
3472.00,0.3750
3471.00,0.3755
3470.00,0.3759
3469.00,0.3763
3468.00,0.3767
3467.00,0.3772
3466.00,0.3777
3465.00,0.3781
3464.00,0.3786
3463.00,0.3790
3462.00,0.3795
3461.00,0.3801
3460.00,0.3806
3459.00,0.3812
3458.00,0.3817
3457.00,0.3822
3456.00,0.3827
3455.00,0.3833
3454.00,0.3838
3453.00,0.3844
3452.00,0.3850
3451.00,0.3856
3450.00,0.3862
3449.00,0.3868
3448.00,0.3874
3447.00,0.3881
3446.00,0.3887
3445.00,0.3894
3444.00,0.3899
3443.00,0.3905
3442.00,0.3912
3441.00,0.3918
3440.00,0.3925
3439.00,0.3933
3438.00,0.3940
3437.00,0.3947
3436.00,0.3954
3435.00,0.3961
3434.00,0.3967
3433.00,0.3972
3432.00,0.3979
3431.00,0.3985
3430.00,0.3992
3429.00,0.3998
3428.00,0.4005
3427.00,0.4011
3426.00,0.4017
3425.00,0.4023
3424.00,0.4030
3423.00,0.4037
3422.00,0.4043
3421.00,0.4051
3420.00,0.4058
3419.00,0.4066
3418.00,0.4074
3417.00,0.4083
3416.00,0.4091
3415.00,0.4100
3414.00,0.4108
3413.00,0.4117
3412.00,0.4125
3411.00,0.4134
3410.00,0.4142
3409.00,0.4151
3408.00,0.4159
3407.00,0.4167
3406.00,0.4176
3405.00,0.4186
3404.00,0.4195
3403.00,0.4205
3402.00,0.4214
3401.00,0.4223
3400.00,0.4232
3399.00,0.4241
3398.00,0.4250
3397.00,0.4259
3396.00,0.4267
3395.00,0.4276
3394.00,0.4285
3393.00,0.4294
3392.00,0.4303
3391.00,0.4313
3390.00,0.4323
3389.00,0.4333
3388.00,0.4343
3387.00,0.4353
3386.00,0.4363
3385.00,0.4374
3384.00,0.4385
3383.00,0.4396
3382.00,0.4406
3381.00,0.4416
3380.00,0.4427
3379.00,0.4438
3378.00,0.4450
3377.00,0.4462
3376.00,0.4474
3375.00,0.4486
3374.00,0.4498
3373.00,0.4510
3372.00,0.4523
3371.00,0.4536
3370.00,0.4549
3369.00,0.4563
3368.00,0.4576
3367.00,0.4589
3366.00,0.4602
3365.00,0.4616
3364.00,0.4630
3363.00,0.4644
3362.00,0.4658
3361.00,0.4672
3360.00,0.4686
3359.00,0.4700
3358.00,0.4715
3357.00,0.4730
3356.00,0.4745
3355.00,0.4759
3354.00,0.4774
3353.00,0.4789
3352.00,0.4804
3351.00,0.4819
3350.00,0.4834
3349.00,0.4849
3348.00,0.4865
3347.00,0.4880
3346.00,0.4895
3345.00,0.4909
3344.00,0.4923
3343.00,0.4937
3342.00,0.4950
3341.00,0.4962
3340.00,0.4974
3339.00,0.4986
3338.00,0.4997
3337.00,0.5008
3336.00,0.5017
3335.00,0.5026
3334.00,0.5034
3333.00,0.5041
3332.00,0.5048
3331.00,0.5055
3330.00,0.5061
3329.00,0.5066
3328.00,0.5069
3327.00,0.5072
3326.00,0.5074
3325.00,0.5074
3324.00,0.5074
3323.00,0.5072
3322.00,0.5070
3321.00,0.5068
3320.00,0.5065
3319.00,0.5061
3318.00,0.5056
3317.00,0.5050
3316.00,0.5045
3315.00,0.5039
3314.00,0.5033
3313.00,0.5026
3312.00,0.5019
3311.00,0.5012
3310.00,0.5004
3309.00,0.4997
3308.00,0.4990
3307.00,0.4983
3306.00,0.4977
3305.00,0.4970
3304.00,0.4962
3303.00,0.4953
3302.00,0.4944
3301.00,0.4937
3300.00,0.4930
3299.00,0.4925
3298.00,0.4920
3297.00,0.4915
3296.00,0.4909
3295.00,0.4903
3294.00,0.4897
3293.00,0.4891
3292.00,0.4886
3291.00,0.4881
3290.00,0.4877
3289.00,0.4874
3288.00,0.4871
3287.00,0.4868
3286.00,0.4866
3285.00,0.4863
3284.00,0.4862
3283.00,0.4861
3282.00,0.4861
3281.00,0.4862
3280.00,0.4863
3279.00,0.4864
3278.00,0.4866
3277.00,0.4867
3276.00,0.4868
3275.00,0.4869
3274.00,0.4872
3273.00,0.4876
3272.00,0.4880
3271.00,0.4885
3270.00,0.4889
3269.00,0.4893
3268.00,0.4897
3267.00,0.4901
3266.00,0.4906
3265.00,0.4911
3264.00,0.4916
3263.00,0.4922
3262.00,0.4928
3261.00,0.4934
3260.00,0.4941
3259.00,0.4946
3258.00,0.4951
3257.00,0.4956
3256.00,0.4960
3255.00,0.4965
3254.00,0.4971
3253.00,0.4976
3252.00,0.4981
3251.00,0.4985
3250.00,0.4990
3249.00,0.4994
3248.00,0.4999
3247.00,0.5004
3246.00,0.5008
3245.00,0.5013
3244.00,0.5017
3243.00,0.5020
3242.00,0.5023
3241.00,0.5026
3240.00,0.5029
3239.00,0.5032
3238.00,0.5036
3237.00,0.5039
3236.00,0.5042
3235.00,0.5045
3234.00,0.5048
3233.00,0.5050
3232.00,0.5051
3231.00,0.5052
3230.00,0.5053
3229.00,0.5054
3228.00,0.5055
3227.00,0.5056
3226.00,0.5056
3225.00,0.5056
3224.00,0.5056
3223.00,0.5056
3222.00,0.5055
3221.00,0.5054
3220.00,0.5053
3219.00,0.5051
3218.00,0.5049
3217.00,0.5047
3216.00,0.5045
3215.00,0.5043
3214.00,0.5042
3213.00,0.5041
3212.00,0.5040
3211.00,0.5039
3210.00,0.5037
3209.00,0.5034
3208.00,0.5032
3207.00,0.5030
3206.00,0.5028
3205.00,0.5027
3204.00,0.5026
3203.00,0.5025
3202.00,0.5023
3201.00,0.5021
3200.00,0.5019
3199.00,0.5018
3198.00,0.5016
3197.00,0.5014
3196.00,0.5012
3195.00,0.5010
3194.00,0.5007
3193.00,0.5004
3192.00,0.5002
3191.00,0.4999
3190.00,0.4997
3189.00,0.4993
3188.00,0.4989
3187.00,0.4983
3186.00,0.4977
3185.00,0.4972
3184.00,0.4967
3183.00,0.4961
3182.00,0.4955
3181.00,0.4949
3180.00,0.4942
3179.00,0.4935
3178.00,0.4928
3177.00,0.4921
3176.00,0.4916
3175.00,0.4910
3174.00,0.4904
3173.00,0.4897
3172.00,0.4890
3171.00,0.4883
3170.00,0.4876
3169.00,0.4870
3168.00,0.4864
3167.00,0.4857
3166.00,0.4851
3165.00,0.4845
3164.00,0.4838
3163.00,0.4831
3162.00,0.4824
3161.00,0.4817
3160.00,0.4811
3159.00,0.4806
3158.00,0.4800
3157.00,0.4793
3156.00,0.4786
3155.00,0.4779
3154.00,0.4772
3153.00,0.4765
3152.00,0.4757
3151.00,0.4749
3150.00,0.4742
3149.00,0.4735
3148.00,0.4729
3147.00,0.4723
3146.00,0.4716
3145.00,0.4710
3144.00,0.4703
3143.00,0.4697
3142.00,0.4691
3141.00,0.4686
3140.00,0.4681
3139.00,0.4676
3138.00,0.4672
3137.00,0.4668
3136.00,0.4665
3135.00,0.4661
3134.00,0.4658
3133.00,0.4656
3132.00,0.4654
3131.00,0.4653
3130.00,0.4653
3129.00,0.4653
3128.00,0.4654
3127.00,0.4654
3126.00,0.4655
3125.00,0.4656
3124.00,0.4658
3123.00,0.4660
3122.00,0.4662
3121.00,0.4664
3120.00,0.4666
3119.00,0.4669
3118.00,0.4672
3117.00,0.4676
3116.00,0.4679
3115.00,0.4682
3114.00,0.4684
3113.00,0.4688
3112.00,0.4693
3111.00,0.4698
3110.00,0.4705
3109.00,0.4712
3108.00,0.4720
3107.00,0.4727
3106.00,0.4735
3105.00,0.4742
3104.00,0.4750
3103.00,0.4758
3102.00,0.4767
3101.00,0.4776
3100.00,0.4786
3099.00,0.4796
3098.00,0.4807
3097.00,0.4819
3096.00,0.4832
3095.00,0.4847
3094.00,0.4864
3093.00,0.4881
3092.00,0.4900
3091.00,0.4920
3090.00,0.4942
3089.00,0.4966
3088.00,0.4991
3087.00,0.5017
3086.00,0.5043
3085.00,0.5069
3084.00,0.5096
3083.00,0.5124
3082.00,0.5155
3081.00,0.5188
3080.00,0.5224
3079.00,0.5261
3078.00,0.5299
3077.00,0.5339
3076.00,0.5380
3075.00,0.5423
3074.00,0.5466
3073.00,0.5509
3072.00,0.5553
3071.00,0.5597
3070.00,0.5641
3069.00,0.5686
3068.00,0.5730
3067.00,0.5773
3066.00,0.5816
3065.00,0.5857
3064.00,0.5896
3063.00,0.5932
3062.00,0.5966
3061.00,0.5996
3060.00,0.6024
3059.00,0.6050
3058.00,0.6076
3057.00,0.6102
3056.00,0.6130
3055.00,0.6160
3054.00,0.6191
3053.00,0.6225
3052.00,0.6261
3051.00,0.6298
3050.00,0.6338
3049.00,0.6379
3048.00,0.6422
3047.00,0.6466
3046.00,0.6512
3045.00,0.6559
3044.00,0.6606
3043.00,0.6653
3042.00,0.6699
3041.00,0.6746
3040.00,0.6792
3039.00,0.6839
3038.00,0.6888
3037.00,0.6939
3036.00,0.6994
3035.00,0.7052
3034.00,0.7115
3033.00,0.7183
3032.00,0.7255
3031.00,0.7331
3030.00,0.7411
3029.00,0.7495
3028.00,0.7582
3027.00,0.7673
3026.00,0.7768
3025.00,0.7866
3024.00,0.7969
3023.00,0.8073
3022.00,0.8181
3021.00,0.8291
3020.00,0.8405
3019.00,0.8523
3018.00,0.8643
3017.00,0.8765
3016.00,0.8887
3015.00,0.9009
3014.00,0.9133
3013.00,0.9258
3012.00,0.9385
3011.00,0.9516
3010.00,0.9652
3009.00,0.9794
3008.00,0.9944
3007.00,1.0101
3006.00,1.0265
3005.00,1.0436
3004.00,1.0612
3003.00,1.0791
3002.00,1.0975
3001.00,1.1163
3000.00,1.1360
2999.00,1.1571
2998.00,1.1797
2997.00,1.2041
2996.00,1.2308
2995.00,1.2603
2994.00,1.2931
2993.00,1.3300
2992.00,1.3716
2991.00,1.4184
2990.00,1.4707
2989.00,1.5288
2988.00,1.5929
2987.00,1.6638
2986.00,1.7429
2985.00,1.8309
2984.00,1.9285
2983.00,2.0368
2982.00,2.1568
2981.00,2.2887
2980.00,2.4319
2979.00,2.5871
2978.00,2.7592
2977.00,2.9562
2976.00,3.1862
2975.00,3.4455
2974.00,3.6717
2973.00,3.7934
2972.00,3.8822
2971.00,3.9677
2970.00,3.9502
2969.00,3.9732
2968.00,4.2160
2967.00,4.3368
2966.00,4.0678
2965.00,3.8680
2964.00,3.8791
2963.00,3.9496
2962.00,3.9480
2961.00,3.9906
2960.00,4.0788
2959.00,4.1535
2958.00,4.1217
2957.00,4.0780
2956.00,4.1786
2955.00,4.3173
2954.00,4.2807
2953.00,4.1260
2952.00,4.0067
2951.00,3.9117
2950.00,3.7939
2949.00,3.7083
2948.00,3.6844
2947.00,3.7342
2946.00,3.8844
2945.00,4.1155
2944.00,4.1635
2943.00,4.0345
2942.00,3.9883
2941.00,4.1797
2940.00,4.3967
2939.00,4.1501
2938.00,4.0195
2937.00,4.1784
2936.00,4.4823
2935.00,4.2238
2934.00,3.9694
2933.00,3.9175
2932.00,3.9992
2931.00,4.0753
2930.00,4.2848
2929.00,4.4232
2928.00,4.0273
2927.00,3.8032
2926.00,3.7706
2925.00,3.9433
2924.00,4.0932
2923.00,4.1649
2922.00,4.3193
2921.00,4.2207
2920.00,4.0329
2919.00,3.9802
2918.00,4.1256
2917.00,4.1399
2916.00,3.9594
2915.00,3.8416
2914.00,3.8207
2913.00,3.8365
2912.00,3.8997
2911.00,4.0075
2910.00,4.2207
2909.00,4.5075
2908.00,4.2071
2907.00,3.9546
2906.00,3.8488
2905.00,3.9069
2904.00,4.0333
2903.00,4.2596
2902.00,4.7536
2901.00,4.8075
2900.00,4.3804
2899.00,4.0765
2898.00,3.9368
2897.00,3.9338
2896.00,4.0701
2895.00,4.2727
2894.00,4.2151
2893.00,3.9563
2892.00,3.7709
2891.00,3.6965
2890.00,3.7539
2889.00,4.0103
2888.00,4.2610
2887.00,4.1826
2886.00,4.2018
2885.00,4.2862
2884.00,4.1011
2883.00,3.8506
2882.00,3.7948
2881.00,3.8142
2880.00,3.8018
2879.00,3.8566
2878.00,3.9768
2877.00,4.0659
2876.00,4.0715
2875.00,4.0848
2874.00,4.1977
2873.00,4.3796
2872.00,4.4313
2871.00,4.2955
2870.00,4.1267
2869.00,3.9509
2868.00,3.8102
2867.00,3.7531
2866.00,3.7961
2865.00,3.8975
2864.00,3.9353
2863.00,3.8675
2862.00,3.7747
2861.00,3.7103
2860.00,3.6933
2859.00,3.7255
2858.00,3.7860
2857.00,3.8406
2856.00,3.8819
2855.00,3.9258
2854.00,3.9667
2853.00,3.9749
2852.00,3.9755
2851.00,4.0300
2850.00,4.0998
2849.00,4.0304
2848.00,3.8573
2847.00,3.7434
2846.00,3.7197
2845.00,3.7385
2844.00,3.7612
2843.00,3.7668
2842.00,3.7236
2841.00,3.6618
2840.00,3.6214
2839.00,3.5535
2838.00,3.3802
2837.00,3.1464
2836.00,2.9261
2835.00,2.7339
2834.00,2.5624
2833.00,2.4056
2832.00,2.2613
2831.00,2.1299
2830.00,2.0116
2829.00,1.9055
2828.00,1.8108
2827.00,1.7263
2826.00,1.6503
2825.00,1.5812
2824.00,1.5179
2823.00,1.4597
2822.00,1.4064
2821.00,1.3577
2820.00,1.3128
2819.00,1.2714
2818.00,1.2332
2817.00,1.1977
2816.00,1.1647
2815.00,1.1338
2814.00,1.1049
2813.00,1.0777
2812.00,1.0520
2811.00,1.0278
2810.00,1.0048
2809.00,0.9830
2808.00,0.9624
2807.00,0.9431
2806.00,0.9248
2805.00,0.9072
2804.00,0.8904
2803.00,0.8743
2802.00,0.8591
2801.00,0.8447
2800.00,0.8310
2799.00,0.8180
2798.00,0.8056
2797.00,0.7937
2796.00,0.7822
2795.00,0.7711
2794.00,0.7603
2793.00,0.7498
2792.00,0.7396
2791.00,0.7296
2790.00,0.7198
2789.00,0.7103
2788.00,0.7009
2787.00,0.6918
2786.00,0.6830
2785.00,0.6743
2784.00,0.6659
2783.00,0.6577
2782.00,0.6497
2781.00,0.6422
2780.00,0.6349
2779.00,0.6279
2778.00,0.6212
2777.00,0.6149
2776.00,0.6090
2775.00,0.6035
2774.00,0.5985
2773.00,0.5937
2772.00,0.5891
2771.00,0.5848
2770.00,0.5809
2769.00,0.5772
2768.00,0.5739
2767.00,0.5709
2766.00,0.5682
2765.00,0.5659
2764.00,0.5639
2763.00,0.5621
2762.00,0.5605
2761.00,0.5591
2760.00,0.5579
2759.00,0.5567
2758.00,0.5556
2757.00,0.5545
2756.00,0.5534
2755.00,0.5524
2754.00,0.5515
2753.00,0.5508
2752.00,0.5504
2751.00,0.5501
2750.00,0.5500
2749.00,0.5501
2748.00,0.5505
2747.00,0.5510
2746.00,0.5517
2745.00,0.5527
2744.00,0.5540
2743.00,0.5556
2742.00,0.5576
2741.00,0.5600
2740.00,0.5627
2739.00,0.5659
2738.00,0.5696
2737.00,0.5738
2736.00,0.5785
2735.00,0.5836
2734.00,0.5888
2733.00,0.5940
2732.00,0.5987
2731.00,0.6028
2730.00,0.6059
2729.00,0.6079
2728.00,0.6088
2727.00,0.6088
2726.00,0.6080
2725.00,0.6066
2724.00,0.6048
2723.00,0.6025
2722.00,0.5999
2721.00,0.5970
2720.00,0.5939
2719.00,0.5904
2718.00,0.5865
2717.00,0.5824
2716.00,0.5780
2715.00,0.5735
2714.00,0.5690
2713.00,0.5646
2712.00,0.5604
2711.00,0.5565
2710.00,0.5530
2709.00,0.5499
2708.00,0.5474
2707.00,0.5452
2706.00,0.5435
2705.00,0.5419
2704.00,0.5407
2703.00,0.5398
2702.00,0.5391
2701.00,0.5387
2700.00,0.5385
2699.00,0.5384
2698.00,0.5386
2697.00,0.5390
2696.00,0.5395
2695.00,0.5401
2694.00,0.5409
2693.00,0.5417
2692.00,0.5426
2691.00,0.5436
2690.00,0.5446
2689.00,0.5455
2688.00,0.5463
2687.00,0.5471
2686.00,0.5478
2685.00,0.5484
2684.00,0.5490
2683.00,0.5495
2682.00,0.5500
2681.00,0.5504
2680.00,0.5507
2679.00,0.5510
2678.00,0.5513
2677.00,0.5516
2676.00,0.5519
2675.00,0.5523
2674.00,0.5527
2673.00,0.5531
2672.00,0.5533
2671.00,0.5533
2670.00,0.5531
2669.00,0.5527
2668.00,0.5519
2667.00,0.5508
2666.00,0.5495
2665.00,0.5480
2664.00,0.5462
2663.00,0.5443
2662.00,0.5424
2661.00,0.5403
2660.00,0.5383
2659.00,0.5362
2658.00,0.5341
2657.00,0.5321
2656.00,0.5301
2655.00,0.5282
2654.00,0.5265
2653.00,0.5249
2652.00,0.5233
2651.00,0.5218
2650.00,0.5203
2649.00,0.5188
2648.00,0.5174
2647.00,0.5160
2646.00,0.5147
2645.00,0.5134
2644.00,0.5121
2643.00,0.5109
2642.00,0.5099
2641.00,0.5089
2640.00,0.5079
2639.00,0.5070
2638.00,0.5060
2637.00,0.5050
2636.00,0.5040
2635.00,0.5031
2634.00,0.5022
2633.00,0.5014
2632.00,0.5006
2631.00,0.4999
2630.00,0.4991
2629.00,0.4982
2628.00,0.4973
2627.00,0.4965
2626.00,0.4956
2625.00,0.4948
2624.00,0.4941
2623.00,0.4933
2622.00,0.4925
2621.00,0.4917
2620.00,0.4909
2619.00,0.4901
2618.00,0.4892
2617.00,0.4884
2616.00,0.4875
2615.00,0.4867
2614.00,0.4859
2613.00,0.4850
2612.00,0.4841
2611.00,0.4831
2610.00,0.4821
2609.00,0.4811
2608.00,0.4801
2607.00,0.4791
2606.00,0.4780
2605.00,0.4770
2604.00,0.4759
2603.00,0.4747
2602.00,0.4735
2601.00,0.4723
2600.00,0.4712
2599.00,0.4700
2598.00,0.4687
2597.00,0.4673
2596.00,0.4659
2595.00,0.4643
2594.00,0.4628
2593.00,0.4612
2592.00,0.4597
2591.00,0.4582
2590.00,0.4567
2589.00,0.4552
2588.00,0.4538
2587.00,0.4523
2586.00,0.4508
2585.00,0.4492
2584.00,0.4476
2583.00,0.4460
2582.00,0.4444
2581.00,0.4427
2580.00,0.4411
2579.00,0.4394
2578.00,0.4376
2577.00,0.4359
2576.00,0.4343
2575.00,0.4326
2574.00,0.4310
2573.00,0.4295
2572.00,0.4279
2571.00,0.4263
2570.00,0.4247
2569.00,0.4232
2568.00,0.4216
2567.00,0.4201
2566.00,0.4186
2565.00,0.4171
2564.00,0.4157
2563.00,0.4142
2562.00,0.4128
2561.00,0.4115
2560.00,0.4102
2559.00,0.4090
2558.00,0.4079
2557.00,0.4068
2556.00,0.4057
2555.00,0.4046
2554.00,0.4035
2553.00,0.4025
2552.00,0.4014
2551.00,0.4004
2550.00,0.3995
2549.00,0.3986
2548.00,0.3978
2547.00,0.3970
2546.00,0.3962
2545.00,0.3954
2544.00,0.3947
2543.00,0.3939
2542.00,0.3931
2541.00,0.3923
2540.00,0.3915
2539.00,0.3907
2538.00,0.3899
2537.00,0.3892
2536.00,0.3885
2535.00,0.3879
2534.00,0.3872
2533.00,0.3864
2532.00,0.3855
2531.00,0.3846
2530.00,0.3837
2529.00,0.3828
2528.00,0.3819
2527.00,0.3809
2526.00,0.3799
2525.00,0.3790
2524.00,0.3780
2523.00,0.3770
2522.00,0.3761
2521.00,0.3753
2520.00,0.3744
2519.00,0.3736
2518.00,0.3728
2517.00,0.3720
2516.00,0.3712
2515.00,0.3705
2514.00,0.3698
2513.00,0.3692
2512.00,0.3685
2511.00,0.3680
2510.00,0.3674
2509.00,0.3668
2508.00,0.3662
2507.00,0.3656
2506.00,0.3650
2505.00,0.3645
2504.00,0.3639
2503.00,0.3634
2502.00,0.3628
2501.00,0.3622
2500.00,0.3617
2499.00,0.3613
2498.00,0.3608
2497.00,0.3603
2496.00,0.3597
2495.00,0.3592
2494.00,0.3587
2493.00,0.3582
2492.00,0.3577
2491.00,0.3571
2490.00,0.3567
2489.00,0.3562
2488.00,0.3558
2487.00,0.3554
2486.00,0.3550
2485.00,0.3547
2484.00,0.3544
2483.00,0.3541
2482.00,0.3538
2481.00,0.3536
2480.00,0.3534
2479.00,0.3531
2478.00,0.3529
2477.00,0.3526
2476.00,0.3524
2475.00,0.3521
2474.00,0.3519
2473.00,0.3517
2472.00,0.3515
2471.00,0.3513
2470.00,0.3511
2469.00,0.3509
2468.00,0.3507
2467.00,0.3504
2466.00,0.3501
2465.00,0.3499
2464.00,0.3496
2463.00,0.3493
2462.00,0.3490
2461.00,0.3486
2460.00,0.3483
2459.00,0.3480
2458.00,0.3477
2457.00,0.3474
2456.00,0.3472
2455.00,0.3470
2454.00,0.3468
2453.00,0.3466
2452.00,0.3465
2451.00,0.3464
2450.00,0.3462
2449.00,0.3461
2448.00,0.3460
2447.00,0.3460
2446.00,0.3460
2445.00,0.3460
2444.00,0.3461
2443.00,0.3462
2442.00,0.3463
2441.00,0.3464
2440.00,0.3465
2439.00,0.3465
2438.00,0.3466
2437.00,0.3467
2436.00,0.3468
2435.00,0.3469
2434.00,0.3470
2433.00,0.3471
2432.00,0.3472
2431.00,0.3473
2430.00,0.3474
2429.00,0.3474
2428.00,0.3474
2427.00,0.3474
2426.00,0.3474
2425.00,0.3474
2424.00,0.3475
2423.00,0.3475
2422.00,0.3475
2421.00,0.3474
2420.00,0.3474
2419.00,0.3474
2418.00,0.3474
2417.00,0.3474
2416.00,0.3475
2415.00,0.3474
2414.00,0.3474
2413.00,0.3475
2412.00,0.3475
2411.00,0.3475
2410.00,0.3475
2409.00,0.3474
2408.00,0.3474
2407.00,0.3473
2406.00,0.3473
2405.00,0.3472
2404.00,0.3472
2403.00,0.3472
2402.00,0.3472
2401.00,0.3472
2400.00,0.3472
2399.00,0.3471
2398.00,0.3470
2397.00,0.3469
2396.00,0.3467
2395.00,0.3466
2394.00,0.3465
2393.00,0.3464
2392.00,0.3463
2391.00,0.3461
2390.00,0.3460
2389.00,0.3458
2388.00,0.3457
2387.00,0.3456
2386.00,0.3455
2385.00,0.3454
2384.00,0.3453
2383.00,0.3453
2382.00,0.3452
2381.00,0.3452
2380.00,0.3451
2379.00,0.3451
2378.00,0.3451
2377.00,0.3452
2376.00,0.3452
2375.00,0.3452
2374.00,0.3451
2373.00,0.3450
2372.00,0.3449
2371.00,0.3447
2370.00,0.3445
2369.00,0.3443
2368.00,0.3442
2367.00,0.3441
2366.00,0.3441
2365.00,0.3442
2364.00,0.3442
2363.00,0.3443
2362.00,0.3443
2361.00,0.3442
2360.00,0.3441
2359.00,0.3440
2358.00,0.3438
2357.00,0.3437
2356.00,0.3437
2355.00,0.3437
2354.00,0.3437
2353.00,0.3436
2352.00,0.3435
2351.00,0.3434
2350.00,0.3433
2349.00,0.3432
2348.00,0.3431
2347.00,0.3429
2346.00,0.3427
2345.00,0.3426
2344.00,0.3426
2343.00,0.3426
2342.00,0.3425
2341.00,0.3425
2340.00,0.3424
2339.00,0.3423
2338.00,0.3423
2337.00,0.3422
2336.00,0.3421
2335.00,0.3418
2334.00,0.3416
2333.00,0.3414
2332.00,0.3412
2331.00,0.3410
2330.00,0.3408
2329.00,0.3407
2328.00,0.3405
2327.00,0.3404
2326.00,0.3402
2325.00,0.3401
2324.00,0.3399
2323.00,0.3397
2322.00,0.3396
2321.00,0.3395
2320.00,0.3394
2319.00,0.3392
2318.00,0.3390
2317.00,0.3387
2316.00,0.3385
2315.00,0.3382
2314.00,0.3380
2313.00,0.3378
2312.00,0.3375
2311.00,0.3373
2310.00,0.3369
2309.00,0.3365
2308.00,0.3362
2307.00,0.3358
2306.00,0.3355
2305.00,0.3352
2304.00,0.3349
2303.00,0.3345
2302.00,0.3342
2301.00,0.3339
2300.00,0.3335
2299.00,0.3332
2298.00,0.3329
2297.00,0.3326
2296.00,0.3322
2295.00,0.3319
2294.00,0.3315
2293.00,0.3311
2292.00,0.3308
2291.00,0.3305
2290.00,0.3302
2289.00,0.3300
2288.00,0.3297
2287.00,0.3295
2286.00,0.3292
2285.00,0.3289
2284.00,0.3287
2283.00,0.3285
2282.00,0.3283
2281.00,0.3281
2280.00,0.3278
2279.00,0.3275
2278.00,0.3272
2277.00,0.3269
2276.00,0.3267
2275.00,0.3264
2274.00,0.3262
2273.00,0.3260
2272.00,0.3258
2271.00,0.3256
2270.00,0.3254
2269.00,0.3253
2268.00,0.3252
2267.00,0.3250
2266.00,0.3248
2265.00,0.3246
2264.00,0.3244
2263.00,0.3241
2262.00,0.3238
2261.00,0.3235
2260.00,0.3231
2259.00,0.3228
2258.00,0.3225
2257.00,0.3221
2256.00,0.3218
2255.00,0.3215
2254.00,0.3212
2253.00,0.3209
2252.00,0.3207
2251.00,0.3204
2250.00,0.3202
2249.00,0.3200
2248.00,0.3198
2247.00,0.3196
2246.00,0.3194
2245.00,0.3193
2244.00,0.3191
2243.00,0.3190
2242.00,0.3189
2241.00,0.3189
2240.00,0.3189
2239.00,0.3188
2238.00,0.3187
2237.00,0.3186
2236.00,0.3185
2235.00,0.3185
2234.00,0.3185
2233.00,0.3185
2232.00,0.3185
2231.00,0.3184
2230.00,0.3182
2229.00,0.3180
2228.00,0.3179
2227.00,0.3177
2226.00,0.3175
2225.00,0.3173
2224.00,0.3172
2223.00,0.3170
2222.00,0.3168
2221.00,0.3166
2220.00,0.3164
2219.00,0.3163
2218.00,0.3161
2217.00,0.3160
2216.00,0.3159
2215.00,0.3158
2214.00,0.3156
2213.00,0.3155
2212.00,0.3154
2211.00,0.3153
2210.00,0.3153
2209.00,0.3153
2208.00,0.3153
2207.00,0.3154
2206.00,0.3154
2205.00,0.3154
2204.00,0.3155
2203.00,0.3155
2202.00,0.3156
2201.00,0.3157
2200.00,0.3158
2199.00,0.3159
2198.00,0.3159
2197.00,0.3160
2196.00,0.3160
2195.00,0.3161
2194.00,0.3161
2193.00,0.3161
2192.00,0.3162
2191.00,0.3162
2190.00,0.3162
2189.00,0.3162
2188.00,0.3161
2187.00,0.3160
2186.00,0.3159
2185.00,0.3157
2184.00,0.3156
2183.00,0.3155
2182.00,0.3153
2181.00,0.3151
2180.00,0.3150
2179.00,0.3148
2178.00,0.3146
2177.00,0.3144
2176.00,0.3142
2175.00,0.3141
2174.00,0.3139
2173.00,0.3138
2172.00,0.3136
2171.00,0.3136
2170.00,0.3135
2169.00,0.3135
2168.00,0.3134
2167.00,0.3133
2166.00,0.3132
2165.00,0.3132
2164.00,0.3131
2163.00,0.3130
2162.00,0.3130
2161.00,0.3130
2160.00,0.3130
2159.00,0.3130
2158.00,0.3129
2157.00,0.3128
2156.00,0.3127
2155.00,0.3125
2154.00,0.3123
2153.00,0.3121
2152.00,0.3119
2151.00,0.3116
2150.00,0.3113
2149.00,0.3110
2148.00,0.3107
2147.00,0.3104
2146.00,0.3099
2145.00,0.3094
2144.00,0.3089
2143.00,0.3084
2142.00,0.3078
2141.00,0.3073
2140.00,0.3069
2139.00,0.3064
2138.00,0.3060
2137.00,0.3056
2136.00,0.3054
2135.00,0.3052
2134.00,0.3050
2133.00,0.3049
2132.00,0.3048
2131.00,0.3046
2130.00,0.3045
2129.00,0.3044
2128.00,0.3044
2127.00,0.3044
2126.00,0.3043
2125.00,0.3043
2124.00,0.3043
2123.00,0.3043
2122.00,0.3042
2121.00,0.3042
2120.00,0.3042
2119.00,0.3041
2118.00,0.3041
2117.00,0.3040
2116.00,0.3039
2115.00,0.3038
2114.00,0.3037
2113.00,0.3035
2112.00,0.3034
2111.00,0.3032
2110.00,0.3029
2109.00,0.3027
2108.00,0.3025
2107.00,0.3023
2106.00,0.3022
2105.00,0.3020
2104.00,0.3019
2103.00,0.3017
2102.00,0.3016
2101.00,0.3015
2100.00,0.3014
2099.00,0.3013
2098.00,0.3012
2097.00,0.3011
2096.00,0.3011
2095.00,0.3011
2094.00,0.3011
2093.00,0.3011
2092.00,0.3011
2091.00,0.3011
2090.00,0.3011
2089.00,0.3012
2088.00,0.3014
2087.00,0.3015
2086.00,0.3015
2085.00,0.3016
2084.00,0.3016
2083.00,0.3017
2082.00,0.3017
2081.00,0.3017
2080.00,0.3018
2079.00,0.3018
2078.00,0.3018
2077.00,0.3018
2076.00,0.3018
2075.00,0.3018
2074.00,0.3018
2073.00,0.3018
2072.00,0.3018
2071.00,0.3018
2070.00,0.3017
2069.00,0.3017
2068.00,0.3018
2067.00,0.3017
2066.00,0.3017
2065.00,0.3017
2064.00,0.3018
2063.00,0.3020
2062.00,0.3021
2061.00,0.3022
2060.00,0.3022
2059.00,0.3023
2058.00,0.3024
2057.00,0.3025
2056.00,0.3027
2055.00,0.3029
2054.00,0.3030
2053.00,0.3032
2052.00,0.3034
2051.00,0.3035
2050.00,0.3037
2049.00,0.3039
2048.00,0.3042
2047.00,0.3044
2046.00,0.3046
2045.00,0.3049
2044.00,0.3050
2043.00,0.3051
2042.00,0.3051
2041.00,0.3052
2040.00,0.3054
2039.00,0.3056
2038.00,0.3057
2037.00,0.3058
2036.00,0.3059
2035.00,0.3059
2034.00,0.3059
2033.00,0.3059
2032.00,0.3059
2031.00,0.3059
2030.00,0.3058
2029.00,0.3057
2028.00,0.3056
2027.00,0.3055
2026.00,0.3053
2025.00,0.3051
2024.00,0.3049
2023.00,0.3046
2022.00,0.3044
2021.00,0.3041
2020.00,0.3037
2019.00,0.3031
2018.00,0.3025
2017.00,0.3020
2016.00,0.3016
2015.00,0.3012
2014.00,0.3008
2013.00,0.3004
2012.00,0.2999
2011.00,0.2994
2010.00,0.2989
2009.00,0.2985
2008.00,0.2982
2007.00,0.2980
2006.00,0.2977
2005.00,0.2975
2004.00,0.2973
2003.00,0.2971
2002.00,0.2969
2001.00,0.2967
2000.00,0.2966
1999.00,0.2965
1998.00,0.2964
1997.00,0.2963
1996.00,0.2963
1995.00,0.2961
1994.00,0.2958
1993.00,0.2955
1992.00,0.2953
1991.00,0.2953
1990.00,0.2953
1989.00,0.2952
1988.00,0.2952
1987.00,0.2952
1986.00,0.2951
1985.00,0.2951
1984.00,0.2950
1983.00,0.2949
1982.00,0.2948
1981.00,0.2948
1980.00,0.2947
1979.00,0.2947
1978.00,0.2947
1977.00,0.2947
1976.00,0.2947
1975.00,0.2947
1974.00,0.2946
1973.00,0.2946
1972.00,0.2946
1971.00,0.2946
1970.00,0.2946
1969.00,0.2945
1968.00,0.2944
1967.00,0.2944
1966.00,0.2946
1965.00,0.2949
1964.00,0.2952
1963.00,0.2953
1962.00,0.2954
1961.00,0.2955
1960.00,0.2956
1959.00,0.2958
1958.00,0.2959
1957.00,0.2960
1956.00,0.2962
1955.00,0.2963
1954.00,0.2965
1953.00,0.2967
1952.00,0.2968
1951.00,0.2968
1950.00,0.2968
1949.00,0.2968
1948.00,0.2968
1947.00,0.2969
1946.00,0.2970
1945.00,0.2971
1944.00,0.2973
1943.00,0.2976
1942.00,0.2981
1941.00,0.2988
1940.00,0.2995
1939.00,0.2999
1938.00,0.3000
1937.00,0.3001
1936.00,0.3001
1935.00,0.2999
1934.00,0.2997
1933.00,0.2996
1932.00,0.2996
1931.00,0.2996
1930.00,0.2997
1929.00,0.2998
1928.00,0.2999
1927.00,0.3000
1926.00,0.3000
1925.00,0.3000
1924.00,0.3001
1923.00,0.3003
1922.00,0.3008
1921.00,0.3014
1920.00,0.3021
1919.00,0.3025
1918.00,0.3030
1917.00,0.3034
1916.00,0.3038
1915.00,0.3040
1914.00,0.3041
1913.00,0.3041
1912.00,0.3041
1911.00,0.3040
1910.00,0.3039
1909.00,0.3038
1908.00,0.3039
1907.00,0.3041
1906.00,0.3041
1905.00,0.3042
1904.00,0.3042
1903.00,0.3042
1902.00,0.3042
1901.00,0.3042
1900.00,0.3043
1899.00,0.3043
1898.00,0.3043
1897.00,0.3043
1896.00,0.3044
1895.00,0.3046
1894.00,0.3049
1893.00,0.3052
1892.00,0.3053
1891.00,0.3054
1890.00,0.3055
1889.00,0.3057
1888.00,0.3061
1887.00,0.3063
1886.00,0.3063
1885.00,0.3063
1884.00,0.3064
1883.00,0.3065
1882.00,0.3065
1881.00,0.3066
1880.00,0.3066
1879.00,0.3065
1878.00,0.3063
1877.00,0.3062
1876.00,0.3061
1875.00,0.3060
1874.00,0.3058
1873.00,0.3055
1872.00,0.3053
1871.00,0.3050
1870.00,0.3045
1869.00,0.3042
1868.00,0.3040
1867.00,0.3039
1866.00,0.3038
1865.00,0.3037
1864.00,0.3035
1863.00,0.3032
1862.00,0.3028
1861.00,0.3025
1860.00,0.3022
1859.00,0.3019
1858.00,0.3017
1857.00,0.3016
1856.00,0.3015
1855.00,0.3013
1854.00,0.3010
1853.00,0.3009
1852.00,0.3008
1851.00,0.3007
1850.00,0.3005
1849.00,0.3003
1848.00,0.3003
1847.00,0.3003
1846.00,0.3003
1845.00,0.3003
1844.00,0.3004
1843.00,0.3005
1842.00,0.3005
1841.00,0.3004
1840.00,0.3003
1839.00,0.3001
1838.00,0.2999
1837.00,0.2998
1836.00,0.2998
1835.00,0.2998
1834.00,0.2997
1833.00,0.2997
1832.00,0.2997
1831.00,0.2995
1830.00,0.2993
1829.00,0.2993
1828.00,0.2994
1827.00,0.2992
1826.00,0.2990
1825.00,0.2988
1824.00,0.2988
1823.00,0.2988
1822.00,0.2988
1821.00,0.2987
1820.00,0.2987
1819.00,0.2986
1818.00,0.2985
1817.00,0.2986
1816.00,0.2988
1815.00,0.2989
1814.00,0.2989
1813.00,0.2989
1812.00,0.2989
1811.00,0.2991
1810.00,0.2994
1809.00,0.2998
1808.00,0.3002
1807.00,0.3006
1806.00,0.3010
1805.00,0.3014
1804.00,0.3017
1803.00,0.3020
1802.00,0.3024
1801.00,0.3031
1800.00,0.3040
1799.00,0.3047
1798.00,0.3051
1797.00,0.3054
1796.00,0.3058
1795.00,0.3062
1794.00,0.3067
1793.00,0.3071
1792.00,0.3076
1791.00,0.3081
1790.00,0.3085
1789.00,0.3089
1788.00,0.3091
1787.00,0.3092
1786.00,0.3092
1785.00,0.3094
1784.00,0.3098
1783.00,0.3101
1782.00,0.3103
1781.00,0.3105
1780.00,0.3109
1779.00,0.3114
1778.00,0.3119
1777.00,0.3124
1776.00,0.3129
1775.00,0.3134
1774.00,0.3139
1773.00,0.3147
1772.00,0.3159
1771.00,0.3171
1770.00,0.3179
1769.00,0.3185
1768.00,0.3192
1767.00,0.3201
1766.00,0.3212
1765.00,0.3222
1764.00,0.3233
1763.00,0.3244
1762.00,0.3259
1761.00,0.3278
1760.00,0.3298
1759.00,0.3317
1758.00,0.3336
1757.00,0.3361
1756.00,0.3391
1755.00,0.3420
1754.00,0.3445
1753.00,0.3470
1752.00,0.3498
1751.00,0.3529
1750.00,0.3561
1749.00,0.3593
1748.00,0.3622
1747.00,0.3646
1746.00,0.3664
1745.00,0.3679
1744.00,0.3691
1743.00,0.3702
1742.00,0.3712
1741.00,0.3719
1740.00,0.3722
1739.00,0.3719
1738.00,0.3713
1737.00,0.3705
1736.00,0.3694
1735.00,0.3679
1734.00,0.3665
1733.00,0.3658
1732.00,0.3654
1731.00,0.3649
1730.00,0.3647
1729.00,0.3648
1728.00,0.3655
1727.00,0.3663
1726.00,0.3673
1725.00,0.3686
1724.00,0.3705
1723.00,0.3731
1722.00,0.3762
1721.00,0.3797
1720.00,0.3838
1719.00,0.3888
1718.00,0.3956
1717.00,0.4047
1716.00,0.4154
1715.00,0.4270
1714.00,0.4392
1713.00,0.4515
1712.00,0.4634
1711.00,0.4746
1710.00,0.4847
1709.00,0.4928
1708.00,0.4978
1707.00,0.4994
1706.00,0.4977
1705.00,0.4929
1704.00,0.4863
1703.00,0.4791
1702.00,0.4707
1701.00,0.4593
1700.00,0.4455
1699.00,0.4330
1698.00,0.4231
1697.00,0.4143
1696.00,0.4058
1695.00,0.3985
1694.00,0.3930
1693.00,0.3886
1692.00,0.3846
1691.00,0.3805
1690.00,0.3769
1689.00,0.3739
1688.00,0.3716
1687.00,0.3696
1686.00,0.3677
1685.00,0.3660
1684.00,0.3646
1683.00,0.3638
1682.00,0.3628
1681.00,0.3615
1680.00,0.3602
1679.00,0.3595
1678.00,0.3593
1677.00,0.3593
1676.00,0.3591
1675.00,0.3587
1674.00,0.3581
1673.00,0.3574
1672.00,0.3568
1671.00,0.3564
1670.00,0.3562
1669.00,0.3563
1668.00,0.3562
1667.00,0.3559
1666.00,0.3556
1665.00,0.3555
1664.00,0.3556
1663.00,0.3557
1662.00,0.3558
1661.00,0.3560
1660.00,0.3561
1659.00,0.3562
1658.00,0.3564
1657.00,0.3569
1656.00,0.3573
1655.00,0.3576
1654.00,0.3581
1653.00,0.3596
1652.00,0.3614
1651.00,0.3621
1650.00,0.3625
1649.00,0.3629
1648.00,0.3632
1647.00,0.3641
1646.00,0.3657
1645.00,0.3673
1644.00,0.3685
1643.00,0.3693
1642.00,0.3702
1641.00,0.3714
1640.00,0.3730
1639.00,0.3746
1638.00,0.3763
1637.00,0.3785
1636.00,0.3813
1635.00,0.3842
1634.00,0.3864
1633.00,0.3879
1632.00,0.3892
1631.00,0.3908
1630.00,0.3928
1629.00,0.3954
1628.00,0.3984
1627.00,0.4013
1626.00,0.4043
1625.00,0.4075
1624.00,0.4114
1623.00,0.4157
1622.00,0.4203
1621.00,0.4254
1620.00,0.4307
1619.00,0.4366
1618.00,0.4441
1617.00,0.4541
1616.00,0.4657
1615.00,0.4767
1614.00,0.4862
1613.00,0.4953
1612.00,0.5048
1611.00,0.5144
1610.00,0.5240
1609.00,0.5335
1608.00,0.5428
1607.00,0.5510
1606.00,0.5578
1605.00,0.5639
1604.00,0.5697
1603.00,0.5750
1602.00,0.5800
1601.00,0.5854
1600.00,0.5917
1599.00,0.5983
1598.00,0.6059
1597.00,0.6155
1596.00,0.6284
1595.00,0.6448
1594.00,0.6654
1593.00,0.6919
1592.00,0.7259
1591.00,0.7687
1590.00,0.8224
1589.00,0.8908
1588.00,0.9788
1587.00,1.0894
1586.00,1.2252
1585.00,1.3903
1584.00,1.5869
1583.00,1.7957
1582.00,1.9485
1581.00,1.9725
1580.00,1.8822
1579.00,1.7274
1578.00,1.5425
1577.00,1.3577
1576.00,1.1996
1575.00,1.0824
1574.00,1.0023
1573.00,0.9470
1572.00,0.9058
1571.00,0.8734
1570.00,0.8500
1569.00,0.8391
1568.00,0.8422
1567.00,0.8584
1566.00,0.8886
1565.00,0.9353
1564.00,0.9965
1563.00,1.0624
1562.00,1.1214
1561.00,1.1644
1560.00,1.1686
1559.00,1.1061
1558.00,1.0111
1557.00,0.9291
1556.00,0.8618
1555.00,0.7994
1554.00,0.7424
1553.00,0.6962
1552.00,0.6612
1551.00,0.6331
1550.00,0.6093
1549.00,0.5902
1548.00,0.5758
1547.00,0.5645
1546.00,0.5546
1545.00,0.5459
1544.00,0.5392
1543.00,0.5340
1542.00,0.5295
1541.00,0.5251
1540.00,0.5209
1539.00,0.5170
1538.00,0.5133
1537.00,0.5101
1536.00,0.5074
1535.00,0.5045
1534.00,0.5017
1533.00,0.4998
1532.00,0.4992
1531.00,0.4993
1530.00,0.4996
1529.00,0.5004
1528.00,0.5013
1527.00,0.5018
1526.00,0.5019
1525.00,0.5021
1524.00,0.5024
1523.00,0.5027
1522.00,0.5035
1521.00,0.5060
1520.00,0.5097
1519.00,0.5133
1518.00,0.5167
1517.00,0.5204
1516.00,0.5241
1515.00,0.5268
1514.00,0.5282
1513.00,0.5289
1512.00,0.5296
1511.00,0.5305
1510.00,0.5320
1509.00,0.5349
1508.00,0.5406
1507.00,0.5507
1506.00,0.5647
1505.00,0.5779
1504.00,0.5879
1503.00,0.5960
1502.00,0.6034
1501.00,0.6110
1500.00,0.6186
1499.00,0.6256
1498.00,0.6328
1497.00,0.6417
1496.00,0.6524
1495.00,0.6633
1494.00,0.6739
1493.00,0.6850
1492.00,0.6972
1491.00,0.7108
1490.00,0.7262
1489.00,0.7441
1488.00,0.7639
1487.00,0.7849
1486.00,0.8082
1485.00,0.8350
1484.00,0.8657
1483.00,0.9010
1482.00,0.9428
1481.00,0.9927
1480.00,1.0490
1479.00,1.1105
1478.00,1.1804
1477.00,1.2635
1476.00,1.3608
1475.00,1.4720
1474.00,1.6072
1473.00,1.7874
1472.00,2.0245
1471.00,2.3032
1470.00,2.5996
1469.00,2.9072
1468.00,3.1824
1467.00,3.3229
1466.00,3.4329
1465.00,3.6684
1464.00,3.8021
1463.00,3.7460
1462.00,3.7310
1461.00,3.8709
1460.00,3.9758
1459.00,3.8006
1458.00,3.7584
1457.00,3.9542
1456.00,4.0448
1455.00,3.7141
1454.00,3.6313
1453.00,3.8490
1452.00,3.8908
1451.00,3.5640
1450.00,3.3819
1449.00,3.3254
1448.00,3.2113
1447.00,3.0288
1446.00,2.8859
1445.00,2.7741
1444.00,2.6407
1443.00,2.4892
1442.00,2.3512
1441.00,2.2317
1440.00,2.1198
1439.00,2.0094
1438.00,1.8971
1437.00,1.7794
1436.00,1.6625
1435.00,1.5580
1434.00,1.4666
1433.00,1.3807
1432.00,1.2959
1431.00,1.2148
1430.00,1.1416
1429.00,1.0787
1428.00,1.0269
1427.00,0.9858
1426.00,0.9524
1425.00,0.9239
1424.00,0.9000
1423.00,0.8816
1422.00,0.8680
1421.00,0.8565
1420.00,0.8454
1419.00,0.8349
1418.00,0.8259
1417.00,0.8186
1416.00,0.8125
1415.00,0.8077
1414.00,0.8040
1413.00,0.8011
1412.00,0.7990
1411.00,0.7975
1410.00,0.7960
1409.00,0.7932
1408.00,0.7885
1407.00,0.7816
1406.00,0.7723
1405.00,0.7609
1404.00,0.7486
1403.00,0.7372
1402.00,0.7271
1401.00,0.7178
1400.00,0.7095
1399.00,0.7031
1398.00,0.6990
1397.00,0.6973
1396.00,0.6983
1395.00,0.7032
1394.00,0.7124
1393.00,0.7260
1392.00,0.7453
1391.00,0.7726
1390.00,0.8104
1389.00,0.8616
1388.00,0.9305
1387.00,1.0180
1386.00,1.1190
1385.00,1.2254
1384.00,1.3348
1383.00,1.4507
1382.00,1.5777
1381.00,1.7201
1380.00,1.8804
1379.00,2.0478
1378.00,2.1801
1377.00,2.2230
1376.00,2.1651
1375.00,2.0354
1374.00,1.8749
1373.00,1.7210
1372.00,1.5924
1371.00,1.4915
1370.00,1.4166
1369.00,1.3660
1368.00,1.3352
1367.00,1.3135
1366.00,1.2854
1365.00,1.2399
1364.00,1.1763
1363.00,1.1049
1362.00,1.0385
1361.00,0.9847
1360.00,0.9441
1359.00,0.9139
1358.00,0.8918
1357.00,0.8759
1356.00,0.8651
1355.00,0.8583
1354.00,0.8542
1353.00,0.8517
1352.00,0.8497
1351.00,0.8475
1350.00,0.8447
1349.00,0.8413
1348.00,0.8379
1347.00,0.8347
1346.00,0.8319
1345.00,0.8295
1344.00,0.8273
1343.00,0.8250
1342.00,0.8220
1341.00,0.8173
1340.00,0.8105
1339.00,0.8016
1338.00,0.7909
1337.00,0.7787
1336.00,0.7652
1335.00,0.7514
1334.00,0.7378
1333.00,0.7253
1332.00,0.7141
1331.00,0.7047
1330.00,0.6970
1329.00,0.6911
1328.00,0.6867
1327.00,0.6838
1326.00,0.6821
1325.00,0.6814
1324.00,0.6814
1323.00,0.6819
1322.00,0.6825
1321.00,0.6831
1320.00,0.6837
1319.00,0.6848
1318.00,0.6864
1317.00,0.6886
1316.00,0.6911
1315.00,0.6939
1314.00,0.6970
1313.00,0.7007
1312.00,0.7047
1311.00,0.7087
1310.00,0.7123
1309.00,0.7153
1308.00,0.7177
1307.00,0.7195
1306.00,0.7207
1305.00,0.7207
1304.00,0.7193
1303.00,0.7165
1302.00,0.7125
1301.00,0.7079
1300.00,0.7028
1299.00,0.6974
1298.00,0.6917
1297.00,0.6859
1296.00,0.6804
1295.00,0.6754
1294.00,0.6710
1293.00,0.6669
1292.00,0.6631
1291.00,0.6594
1290.00,0.6559
1289.00,0.6524
1288.00,0.6489
1287.00,0.6455
1286.00,0.6420
1285.00,0.6383
1284.00,0.6344
1283.00,0.6307
1282.00,0.6274
1281.00,0.6246
1280.00,0.6220
1279.00,0.6198
1278.00,0.6176
1277.00,0.6154
1276.00,0.6131
1275.00,0.6109
1274.00,0.6089
1273.00,0.6070
1272.00,0.6054
1271.00,0.6042
1270.00,0.6035
1269.00,0.6027
1268.00,0.6014
1267.00,0.5990
1266.00,0.5956
1265.00,0.5916
1264.00,0.5877
1263.00,0.5846
1262.00,0.5821
1261.00,0.5801
1260.00,0.5783
1259.00,0.5768
1258.00,0.5753
1257.00,0.5735
1256.00,0.5715
1255.00,0.5695
1254.00,0.5677
1253.00,0.5662
1252.00,0.5649
1251.00,0.5638
1250.00,0.5629
1249.00,0.5617
1248.00,0.5602
1247.00,0.5583
1246.00,0.5561
1245.00,0.5534
1244.00,0.5502
1243.00,0.5469
1242.00,0.5436
1241.00,0.5403
1240.00,0.5372
1239.00,0.5344
1238.00,0.5321
1237.00,0.5302
1236.00,0.5285
1235.00,0.5272
1234.00,0.5264
1233.00,0.5261
1232.00,0.5262
1231.00,0.5266
1230.00,0.5271
1229.00,0.5269
1228.00,0.5259
1227.00,0.5240
1226.00,0.5215
1225.00,0.5186
1224.00,0.5157
1223.00,0.5131
1222.00,0.5109
1221.00,0.5092
1220.00,0.5080
1219.00,0.5073
1218.00,0.5073
1217.00,0.5077
1216.00,0.5083
1215.00,0.5092
1214.00,0.5101
1213.00,0.5107
1212.00,0.5106
1211.00,0.5102
1210.00,0.5093
1209.00,0.5082
1208.00,0.5068
1207.00,0.5053
1206.00,0.5037
1205.00,0.5020
1204.00,0.5003
1203.00,0.4987
1202.00,0.4974
1201.00,0.4963
1200.00,0.4955
1199.00,0.4950
1198.00,0.4947
1197.00,0.4942
1196.00,0.4936
1195.00,0.4928
1194.00,0.4921
1193.00,0.4913
1192.00,0.4907
1191.00,0.4902
1190.00,0.4898
1189.00,0.4894
1188.00,0.4890
1187.00,0.4886
1186.00,0.4883
1185.00,0.4880
1184.00,0.4878
1183.00,0.4879
1182.00,0.4880
1181.00,0.4883
1180.00,0.4887
1179.00,0.4894
1178.00,0.4906
1177.00,0.4922
1176.00,0.4943
1175.00,0.4972
1174.00,0.5010
1173.00,0.5055
1172.00,0.5103
1171.00,0.5147
1170.00,0.5181
1169.00,0.5198
1168.00,0.5197
1167.00,0.5186
1166.00,0.5171
1165.00,0.5158
1164.00,0.5151
1163.00,0.5150
1162.00,0.5155
1161.00,0.5165
1160.00,0.5179
1159.00,0.5195
1158.00,0.5209
1157.00,0.5219
1156.00,0.5223
1155.00,0.5220
1154.00,0.5211
1153.00,0.5195
1152.00,0.5174
1151.00,0.5151
1150.00,0.5125
1149.00,0.5098
1148.00,0.5072
1147.00,0.5048
1146.00,0.5028
1145.00,0.5013
1144.00,0.5002
1143.00,0.4999
1142.00,0.5005
1141.00,0.5022
1140.00,0.5049
1139.00,0.5087
1138.00,0.5136
1137.00,0.5195
1136.00,0.5264
1135.00,0.5337
1134.00,0.5403
1133.00,0.5443
1132.00,0.5444
1131.00,0.5404
1130.00,0.5337
1129.00,0.5260
1128.00,0.5189
1127.00,0.5133
1126.00,0.5093
1125.00,0.5067
1124.00,0.5048
1123.00,0.5033
1122.00,0.5017
1121.00,0.5000
1120.00,0.4987
1119.00,0.4983
1118.00,0.4991
1117.00,0.5011
1116.00,0.5040
1115.00,0.5070
1114.00,0.5088
1113.00,0.5082
1112.00,0.5048
1111.00,0.4995
1110.00,0.4935
1109.00,0.4881
1108.00,0.4838
1107.00,0.4809
1106.00,0.4791
1105.00,0.4781
1104.00,0.4776
1103.00,0.4772
1102.00,0.4768
1101.00,0.4762
1100.00,0.4754
1099.00,0.4744
1098.00,0.4734
1097.00,0.4724
1096.00,0.4716
1095.00,0.4713
1094.00,0.4714
1093.00,0.4718
1092.00,0.4723
1091.00,0.4732
1090.00,0.4744
1089.00,0.4759
1088.00,0.4779
1087.00,0.4805
1086.00,0.4839
1085.00,0.4881
1084.00,0.4930
1083.00,0.4986
1082.00,0.5051
1081.00,0.5121
1080.00,0.5194
1079.00,0.5261
1078.00,0.5313
1077.00,0.5341
1076.00,0.5340
1075.00,0.5313
1074.00,0.5266
1073.00,0.5210
1072.00,0.5152
1071.00,0.5100
1070.00,0.5059
1069.00,0.5027
1068.00,0.5004
1067.00,0.4987
1066.00,0.4975
1065.00,0.4966
1064.00,0.4961
1063.00,0.4961
1062.00,0.4966
1061.00,0.4974
1060.00,0.4980
1059.00,0.4982
1058.00,0.4981
1057.00,0.4976
1056.00,0.4970
1055.00,0.4965
1054.00,0.4962
1053.00,0.4960
1052.00,0.4963
1051.00,0.4972
1050.00,0.4985
1049.00,0.5002
1048.00,0.5021
1047.00,0.5038
1046.00,0.5051
1045.00,0.5058
1044.00,0.5060
1043.00,0.5058
1042.00,0.5055
1041.00,0.5052
1040.00,0.5049
1039.00,0.5045
1038.00,0.5042
1037.00,0.5037
1036.00,0.5033
1035.00,0.5033
1034.00,0.5040
1033.00,0.5052
1032.00,0.5068
1031.00,0.5086
1030.00,0.5101
1029.00,0.5108
1028.00,0.5104
1027.00,0.5086
1026.00,0.5053
1025.00,0.5009
1024.00,0.4957
1023.00,0.4905
1022.00,0.4856
1021.00,0.4811
1020.00,0.4770
1019.00,0.4734
1018.00,0.4702
1017.00,0.4675
1016.00,0.4651
1015.00,0.4630
1014.00,0.4610
1013.00,0.4592
1012.00,0.4577
1011.00,0.4565
1010.00,0.4557
1009.00,0.4553
1008.00,0.4553
1007.00,0.4560
1006.00,0.4572
1005.00,0.4587
1004.00,0.4603
1003.00,0.4619
1002.00,0.4634
1001.00,0.4647
1000.00,0.4657
999.00,0.4664
998.00,0.4666
997.00,0.4662
996.00,0.4650
995.00,0.4631
994.00,0.4608
993.00,0.4581
992.00,0.4553
991.00,0.4526
990.00,0.4501
989.00,0.4480
988.00,0.4463
987.00,0.4453
986.00,0.4451
985.00,0.4457
984.00,0.4469
983.00,0.4487
982.00,0.4510
981.00,0.4534
980.00,0.4560
979.00,0.4584
978.00,0.4608
977.00,0.4629
976.00,0.4646
975.00,0.4660
974.00,0.4669
973.00,0.4673
972.00,0.4675
971.00,0.4677
970.00,0.4678
969.00,0.4677
968.00,0.4675
967.00,0.4671
966.00,0.4666
965.00,0.4659
964.00,0.4649
963.00,0.4637
962.00,0.4625
961.00,0.4612
960.00,0.4600
959.00,0.4589
958.00,0.4580
957.00,0.4574
956.00,0.4571
955.00,0.4567
954.00,0.4562
953.00,0.4553
952.00,0.4543
951.00,0.4534
950.00,0.4528
949.00,0.4526
948.00,0.4528
947.00,0.4534
946.00,0.4543
945.00,0.4555
944.00,0.4568
943.00,0.4583
942.00,0.4598
941.00,0.4612
940.00,0.4625
939.00,0.4634
938.00,0.4639
937.00,0.4635
936.00,0.4626
935.00,0.4611
934.00,0.4594
933.00,0.4573
932.00,0.4547
931.00,0.4521
930.00,0.4499
929.00,0.4482
928.00,0.4472
927.00,0.4472
926.00,0.4484
925.00,0.4509
924.00,0.4547
923.00,0.4593
922.00,0.4638
921.00,0.4666
920.00,0.4665
919.00,0.4630
918.00,0.4568
917.00,0.4490
916.00,0.4411
915.00,0.4339
914.00,0.4278
913.00,0.4230
912.00,0.4193
911.00,0.4166
910.00,0.4146
909.00,0.4129
908.00,0.4115
907.00,0.4105
906.00,0.4098
905.00,0.4096
904.00,0.4097
903.00,0.4105
902.00,0.4117
901.00,0.4135
900.00,0.4157
899.00,0.4186
898.00,0.4220
897.00,0.4256
896.00,0.4293
895.00,0.4331
894.00,0.4370
893.00,0.4408
892.00,0.4446
891.00,0.4481
890.00,0.4507
889.00,0.4521
888.00,0.4520
887.00,0.4508
886.00,0.4490
885.00,0.4470
884.00,0.4455
883.00,0.4447
882.00,0.4450
881.00,0.4460
880.00,0.4475
879.00,0.4491
878.00,0.4500
877.00,0.4500
876.00,0.4494
875.00,0.4489
874.00,0.4487
873.00,0.4487
872.00,0.4487
871.00,0.4491
870.00,0.4498
869.00,0.4510
868.00,0.4527
867.00,0.4550
866.00,0.4578
865.00,0.4613
864.00,0.4649
863.00,0.4678
862.00,0.4687
861.00,0.4667
860.00,0.4619
859.00,0.4555
858.00,0.4491
857.00,0.4437
856.00,0.4398
855.00,0.4371
854.00,0.4354
853.00,0.4341
852.00,0.4330
851.00,0.4318
850.00,0.4303
849.00,0.4285
848.00,0.4264
847.00,0.4240
846.00,0.4214
845.00,0.4187
844.00,0.4160
843.00,0.4138
842.00,0.4125
841.00,0.4128
840.00,0.4151
839.00,0.4194
838.00,0.4251
837.00,0.4309
836.00,0.4349
835.00,0.4361
834.00,0.4343
833.00,0.4307
832.00,0.4272
831.00,0.4252
830.00,0.4252
829.00,0.4268
828.00,0.4296
827.00,0.4335
826.00,0.4385
825.00,0.4444
824.00,0.4511
823.00,0.4582
822.00,0.4656
821.00,0.4728
820.00,0.4796
819.00,0.4860
818.00,0.4915
817.00,0.4957
816.00,0.4982
815.00,0.4988
814.00,0.4973
813.00,0.4936
812.00,0.4882
811.00,0.4819
810.00,0.4756
809.00,0.4697
808.00,0.4642
807.00,0.4592
806.00,0.4544
805.00,0.4495
804.00,0.4444
803.00,0.4386
802.00,0.4325
801.00,0.4263
800.00,0.4208
799.00,0.4164
798.00,0.4133
797.00,0.4111
796.00,0.4094
795.00,0.4083
794.00,0.4078
793.00,0.4082
792.00,0.4094
791.00,0.4113
790.00,0.4138
789.00,0.4165
788.00,0.4194
787.00,0.4227
786.00,0.4264
785.00,0.4307
784.00,0.4353
783.00,0.4398
782.00,0.4437
781.00,0.4465
780.00,0.4486
779.00,0.4502
778.00,0.4520
777.00,0.4539
776.00,0.4558
775.00,0.4578
774.00,0.4599
773.00,0.4619
772.00,0.4639
771.00,0.4663
770.00,0.4692
769.00,0.4724
768.00,0.4755
767.00,0.4782
766.00,0.4803
765.00,0.4819
764.00,0.4833
763.00,0.4851
762.00,0.4876
761.00,0.4908
760.00,0.4944
759.00,0.4983
758.00,0.5020
757.00,0.5053
756.00,0.5083
755.00,0.5111
754.00,0.5142
753.00,0.5178
752.00,0.5219
751.00,0.5264
750.00,0.5311
749.00,0.5355
748.00,0.5395
747.00,0.5431
746.00,0.5467
745.00,0.5505
744.00,0.5548
743.00,0.5594
742.00,0.5644
741.00,0.5693
740.00,0.5739
739.00,0.5780
738.00,0.5818
737.00,0.5853
736.00,0.5887
735.00,0.5926
734.00,0.5975
733.00,0.6035
732.00,0.6109
731.00,0.6203
730.00,0.6322
729.00,0.6470
728.00,0.6647
727.00,0.6859
726.00,0.7105
725.00,0.7378
724.00,0.7657
723.00,0.7893
722.00,0.8009
721.00,0.7931
720.00,0.7648
719.00,0.7228
718.00,0.6770
717.00,0.6346
716.00,0.5987
715.00,0.5698
714.00,0.5470
713.00,0.5287
712.00,0.5136
711.00,0.5012
710.00,0.4912
709.00,0.4828
708.00,0.4758
707.00,0.4701
706.00,0.4656
705.00,0.4617
704.00,0.4583
703.00,0.4556
702.00,0.4541
701.00,0.4532
700.00,0.4513
699.00,0.4463
698.00,0.4369
697.00,0.4235
696.00,0.4081
695.00,0.3936
694.00,0.3817
693.00,0.3726
692.00,0.3661
691.00,0.3616
690.00,0.3584
689.00,0.3558
688.00,0.3535
687.00,0.3515
686.00,0.3500
685.00,0.3488
684.00,0.3477
683.00,0.3469
682.00,0.3464
681.00,0.3461
680.00,0.3461
679.00,0.3462
678.00,0.3462
677.00,0.3462
676.00,0.3459
675.00,0.3457
674.00,0.3456
673.00,0.3456
672.00,0.3458
671.00,0.3464
670.00,0.3474
669.00,0.3483
668.00,0.3484
667.00,0.3479
666.00,0.3479
665.00,0.3485
664.00,0.3495
663.00,0.3506
662.00,0.3517
661.00,0.3526
660.00,0.3534
659.00,0.3541
658.00,0.3550
657.00,0.3560
656.00,0.3572
655.00,0.3584
654.00,0.3594
653.00,0.3601
652.00,0.3607
651.00,0.3617
650.00,0.3631
649.00,0.3645
648.00,0.3657
647.00,0.3666
646.00,0.3675
645.00,0.3687
644.00,0.3701
643.00,0.3716
642.00,0.3732
641.00,0.3746
640.00,0.3759
639.00,0.3768
638.00,0.3775
637.00,0.3779
636.00,0.3781
635.00,0.3785
634.00,0.3790
633.00,0.3796
632.00,0.3805
631.00,0.3816
630.00,0.3829
629.00,0.3841
628.00,0.3854
627.00,0.3872
626.00,0.3894
625.00,0.3919
624.00,0.3946
623.00,0.3973
622.00,0.3998
621.00,0.4019
620.00,0.4035
619.00,0.4048
618.00,0.4057
617.00,0.4062
616.00,0.4061
615.00,0.4057
614.00,0.4051
613.00,0.4042
612.00,0.4030
611.00,0.4017
610.00,0.4005
609.00,0.3994
608.00,0.3983
607.00,0.3974
606.00,0.3964
605.00,0.3953
604.00,0.3943
603.00,0.3937
602.00,0.3934
601.00,0.3933
600.00,0.3933
599.00,0.3933
598.00,0.3936
597.00,0.3942
596.00,0.3952
595.00,0.3965
594.00,0.3981
593.00,0.4000
592.00,0.4022
591.00,0.4045
590.00,0.4067
589.00,0.4083
588.00,0.4097
587.00,0.4111
586.00,0.4127
585.00,0.4147
584.00,0.4172
583.00,0.4204
582.00,0.4239
581.00,0.4272
580.00,0.4303
579.00,0.4331
578.00,0.4354
577.00,0.4371
576.00,0.4384
575.00,0.4398
574.00,0.4412
573.00,0.4425
572.00,0.4439
571.00,0.4456
570.00,0.4478
569.00,0.4501
568.00,0.4521
567.00,0.4539
566.00,0.4556
565.00,0.4569
564.00,0.4577
563.00,0.4582
562.00,0.4586
561.00,0.4589
560.00,0.4592
559.00,0.4600
558.00,0.4613
557.00,0.4626
556.00,0.4634
555.00,0.4636
554.00,0.4637
553.00,0.4644
552.00,0.4659
551.00,0.4681
550.00,0.4703
