Created as New Dataset,
cm-1,A
4000.00,0.3685
3999.00,0.3682
3998.00,0.3679
3997.00,0.3675
3996.00,0.3671
3995.00,0.3666
3994.00,0.3663
3993.00,0.3659
3992.00,0.3656
3991.00,0.3653
3990.00,0.3650
3989.00,0.3646
3988.00,0.3643
3987.00,0.3640
3986.00,0.3637
3985.00,0.3633
3984.00,0.3629
3983.00,0.3626
3982.00,0.3622
3981.00,0.3620
3980.00,0.3617
3979.00,0.3614
3978.00,0.3611
3977.00,0.3608
3976.00,0.3605
3975.00,0.3602
3974.00,0.3600
3973.00,0.3598
3972.00,0.3595
3971.00,0.3592
3970.00,0.3589
3969.00,0.3587
3968.00,0.3585
3967.00,0.3584
3966.00,0.3582
3965.00,0.3580
3964.00,0.3578
3963.00,0.3576
3962.00,0.3574
3961.00,0.3573
3960.00,0.3571
3959.00,0.3569
3958.00,0.3567
3957.00,0.3565
3956.00,0.3564
3955.00,0.3564
3954.00,0.3563
3953.00,0.3562
3952.00,0.3560
3951.00,0.3558
3950.00,0.3556
3949.00,0.3554
3948.00,0.3551
3947.00,0.3549
3946.00,0.3547
3945.00,0.3546
3944.00,0.3546
3943.00,0.3546
3942.00,0.3545
3941.00,0.3544
3940.00,0.3542
3939.00,0.3540
3938.00,0.3539
3937.00,0.3539
3936.00,0.3539
3935.00,0.3539
3934.00,0.3539
3933.00,0.3538
3932.00,0.3538
3931.00,0.3538
3930.00,0.3537
3929.00,0.3537
3928.00,0.3537
3927.00,0.3537
3926.00,0.3538
3925.00,0.3538
3924.00,0.3538
3923.00,0.3537
3922.00,0.3536
3921.00,0.3535
3920.00,0.3535
3919.00,0.3534
3918.00,0.3534
3917.00,0.3533
3916.00,0.3532
3915.00,0.3531
3914.00,0.3530
3913.00,0.3530
3912.00,0.3529
3911.00,0.3529
3910.00,0.3529
3909.00,0.3528
3908.00,0.3528
3907.00,0.3528
3906.00,0.3528
3905.00,0.3529
3904.00,0.3529
3903.00,0.3530
3902.00,0.3531
3901.00,0.3530
3900.00,0.3530
3899.00,0.3530
3898.00,0.3529
3897.00,0.3528
3896.00,0.3527
3895.00,0.3525
3894.00,0.3524
3893.00,0.3522
3892.00,0.3521
3891.00,0.3521
3890.00,0.3520
3889.00,0.3519
3888.00,0.3518
3887.00,0.3518
3886.00,0.3518
3885.00,0.3519
3884.00,0.3519
3883.00,0.3518
3882.00,0.3516
3881.00,0.3515
3880.00,0.3514
3879.00,0.3513
3878.00,0.3512
3877.00,0.3511
3876.00,0.3510
3875.00,0.3509
3874.00,0.3508
3873.00,0.3507
3872.00,0.3505
3871.00,0.3503
3870.00,0.3502
3869.00,0.3503
3868.00,0.3503
3867.00,0.3502
3866.00,0.3501
3865.00,0.3500
3864.00,0.3498
3863.00,0.3497
3862.00,0.3495
3861.00,0.3493
3860.00,0.3492
3859.00,0.3491
3858.00,0.3492
3857.00,0.3493
3856.00,0.3495
3855.00,0.3496
3854.00,0.3496
3853.00,0.3497
3852.00,0.3498
3851.00,0.3496
3850.00,0.3494
3849.00,0.3491
3848.00,0.3489
3847.00,0.3487
3846.00,0.3485
3845.00,0.3484
3844.00,0.3483
3843.00,0.3484
3842.00,0.3484
3841.00,0.3484
3840.00,0.3484
3839.00,0.3483
3838.00,0.3483
3837.00,0.3483
3836.00,0.3482
3835.00,0.3481
3834.00,0.3479
3833.00,0.3477
3832.00,0.3474
3831.00,0.3472
3830.00,0.3470
3829.00,0.3468
3828.00,0.3466
3827.00,0.3465
3826.00,0.3465
3825.00,0.3465
3824.00,0.3466
3823.00,0.3466
3822.00,0.3467
3821.00,0.3469
3820.00,0.3469
3819.00,0.3468
3818.00,0.3465
3817.00,0.3462
3816.00,0.3461
3815.00,0.3459
3814.00,0.3456
3813.00,0.3453
3812.00,0.3450
3811.00,0.3448
3810.00,0.3446
3809.00,0.3444
3808.00,0.3441
3807.00,0.3439
3806.00,0.3438
3805.00,0.3437
3804.00,0.3436
3803.00,0.3434
3802.00,0.3434
3801.00,0.3433
3800.00,0.3432
3799.00,0.3429
3798.00,0.3425
3797.00,0.3422
3796.00,0.3419
3795.00,0.3417
3794.00,0.3415
3793.00,0.3412
3792.00,0.3410
3791.00,0.3408
3790.00,0.3406
3789.00,0.3404
3788.00,0.3402
3787.00,0.3400
3786.00,0.3399
3785.00,0.3398
3784.00,0.3397
3783.00,0.3397
3782.00,0.3396
3781.00,0.3395
3780.00,0.3393
3779.00,0.3392
3778.00,0.3390
3777.00,0.3388
3776.00,0.3387
3775.00,0.3386
3774.00,0.3384
3773.00,0.3383
3772.00,0.3381
3771.00,0.3379
3770.00,0.3377
3769.00,0.3376
3768.00,0.3375
3767.00,0.3373
3766.00,0.3372
3765.00,0.3370
3764.00,0.3368
3763.00,0.3366
3762.00,0.3364
3761.00,0.3363
3760.00,0.3361
3759.00,0.3359
3758.00,0.3357
3757.00,0.3356
3756.00,0.3355
3755.00,0.3355
3754.00,0.3355
3753.00,0.3355
3752.00,0.3355
3751.00,0.3355
3750.00,0.3355
3749.00,0.3356
3748.00,0.3356
3747.00,0.3356
3746.00,0.3356
3745.00,0.3355
3744.00,0.3354
3743.00,0.3352
3742.00,0.3349
3741.00,0.3346
3740.00,0.3344
3739.00,0.3343
3738.00,0.3341
3737.00,0.3340
3736.00,0.3338
3735.00,0.3338
3734.00,0.3337
3733.00,0.3337
3732.00,0.3336
3731.00,0.3335
3730.00,0.3333
3729.00,0.3330
3728.00,0.3326
3727.00,0.3323
3726.00,0.3320
3725.00,0.3317
3724.00,0.3314
3723.00,0.3311
3722.00,0.3309
3721.00,0.3307
3720.00,0.3304
3719.00,0.3303
3718.00,0.3302
3717.00,0.3301
3716.00,0.3301
3715.00,0.3300
3714.00,0.3300
3713.00,0.3301
3712.00,0.3301
3711.00,0.3302
3710.00,0.3301
3709.00,0.3300
3708.00,0.3300
3707.00,0.3300
3706.00,0.3299
3705.00,0.3299
3704.00,0.3298
3703.00,0.3297
3702.00,0.3295
3701.00,0.3294
3700.00,0.3294
3699.00,0.3294
3698.00,0.3294
3697.00,0.3295
3696.00,0.3295
3695.00,0.3295
3694.00,0.3295
3693.00,0.3296
3692.00,0.3297
3691.00,0.3297
3690.00,0.3297
3689.00,0.3297
3688.00,0.3297
3687.00,0.3296
3686.00,0.3295
3685.00,0.3293
3684.00,0.3292
3683.00,0.3289
3682.00,0.3287
3681.00,0.3285
3680.00,0.3284
3679.00,0.3284
3678.00,0.3285
3677.00,0.3286
3676.00,0.3288
3675.00,0.3291
3674.00,0.3292
3673.00,0.3292
3672.00,0.3292
3671.00,0.3291
3670.00,0.3291
3669.00,0.3291
3668.00,0.3289
3667.00,0.3287
3666.00,0.3285
3665.00,0.3284
3664.00,0.3283
3663.00,0.3282
3662.00,0.3282
3661.00,0.3282
3660.00,0.3283
3659.00,0.3284
3658.00,0.3285
3657.00,0.3286
3656.00,0.3288
3655.00,0.3290
3654.00,0.3292
3653.00,0.3294
3652.00,0.3296
3651.00,0.3298
3650.00,0.3299
3649.00,0.3300
3648.00,0.3302
3647.00,0.3304
3646.00,0.3304
3645.00,0.3304
3644.00,0.3303
3643.00,0.3303
3642.00,0.3303
3641.00,0.3303
3640.00,0.3303
3639.00,0.3304
3638.00,0.3305
3637.00,0.3307
3636.00,0.3309
3635.00,0.3312
3634.00,0.3315
3633.00,0.3318
3632.00,0.3321
3631.00,0.3325
3630.00,0.3329
3629.00,0.3334
3628.00,0.3339
3627.00,0.3344
3626.00,0.3347
3625.00,0.3350
3624.00,0.3353
3623.00,0.3356
3622.00,0.3356
3621.00,0.3356
3620.00,0.3354
3619.00,0.3351
3618.00,0.3350
3617.00,0.3349
3616.00,0.3348
3615.00,0.3347
3614.00,0.3346
3613.00,0.3345
3612.00,0.3345
3611.00,0.3345
3610.00,0.3345
3609.00,0.3345
3608.00,0.3345
3607.00,0.3345
3606.00,0.3345
3605.00,0.3344
3604.00,0.3343
3603.00,0.3341
3602.00,0.3337
3601.00,0.3333
3600.00,0.3328
3599.00,0.3323
3598.00,0.3318
3597.00,0.3313
3596.00,0.3308
3595.00,0.3302
3594.00,0.3297
3593.00,0.3293
3592.00,0.3289
3591.00,0.3285
3590.00,0.3282
3589.00,0.3279
3588.00,0.3277
3587.00,0.3275
3586.00,0.3274
3585.00,0.3272
3584.00,0.3271
3583.00,0.3269
3582.00,0.3267
3581.00,0.3265
3580.00,0.3263
3579.00,0.3263
3578.00,0.3262
3577.00,0.3262
3576.00,0.3263
3575.00,0.3263
3574.00,0.3263
3573.00,0.3265
3572.00,0.3266
3571.00,0.3269
3570.00,0.3271
3569.00,0.3273
3568.00,0.3275
3567.00,0.3278
3566.00,0.3280
3565.00,0.3282
3564.00,0.3284
3563.00,0.3286
3562.00,0.3287
3561.00,0.3289
3560.00,0.3291
3559.00,0.3293
3558.00,0.3296
3557.00,0.3299
3556.00,0.3302
3555.00,0.3305
3554.00,0.3308
3553.00,0.3310
3552.00,0.3313
3551.00,0.3316
3550.00,0.3319
3549.00,0.3322
3548.00,0.3326
3547.00,0.3330
3546.00,0.3333
3545.00,0.3337
3544.00,0.3340
3543.00,0.3343
3542.00,0.3347
3541.00,0.3350
3540.00,0.3354
3539.00,0.3357
3538.00,0.3360
3537.00,0.3363
3536.00,0.3366
3535.00,0.3369
3534.00,0.3372
3533.00,0.3375
3532.00,0.3379
3531.00,0.3382
3530.00,0.3386
3529.00,0.3390
3528.00,0.3392
3527.00,0.3395
3526.00,0.3398
3525.00,0.3401
3524.00,0.3405
3523.00,0.3409
3522.00,0.3412
3521.00,0.3416
3520.00,0.3419
3519.00,0.3421
3518.00,0.3425
3517.00,0.3428
3516.00,0.3431
3515.00,0.3434
3514.00,0.3439
3513.00,0.3443
3512.00,0.3448
3511.00,0.3453
3510.00,0.3458
3509.00,0.3463
3508.00,0.3467
3507.00,0.3472
3506.00,0.3476
3505.00,0.3481
3504.00,0.3486
3503.00,0.3491
3502.00,0.3496
3501.00,0.3501
3500.00,0.3506
3499.00,0.3511
3498.00,0.3516
3497.00,0.3522
3496.00,0.3527
3495.00,0.3533
3494.00,0.3540
3493.00,0.3546
3492.00,0.3553
3491.00,0.3559
3490.00,0.3566
3489.00,0.3573
3488.00,0.3581
3487.00,0.3588
3486.00,0.3595
3485.00,0.3601
3484.00,0.3606
3483.00,0.3611
3482.00,0.3616
3481.00,0.3621
3480.00,0.3627
3479.00,0.3632
3478.00,0.3637
3477.00,0.3641
3476.00,0.3644
3475.00,0.3648
3474.00,0.3651
3473.00,0.3656
3472.00,0.3661
3471.00,0.3667
3470.00,0.3673
3469.00,0.3679
3468.00,0.3685
3467.00,0.3690
3466.00,0.3696
3465.00,0.3701
3464.00,0.3708
3463.00,0.3714
3462.00,0.3720
3461.00,0.3726
3460.00,0.3732
3459.00,0.3738
3458.00,0.3745
3457.00,0.3752
3456.00,0.3759
3455.00,0.3765
3454.00,0.3772
3453.00,0.3778
3452.00,0.3785
3451.00,0.3791
3450.00,0.3798
3449.00,0.3804
3448.00,0.3810
3447.00,0.3817
3446.00,0.3823
3445.00,0.3830
3444.00,0.3837
3443.00,0.3845
3442.00,0.3852
3441.00,0.3859
3440.00,0.3866
3439.00,0.3872
3438.00,0.3879
3437.00,0.3887
3436.00,0.3894
3435.00,0.3901
3434.00,0.3908
3433.00,0.3915
3432.00,0.3921
3431.00,0.3928
3430.00,0.3935
3429.00,0.3943
3428.00,0.3951
3427.00,0.3959
3426.00,0.3968
3425.00,0.3976
3424.00,0.3985
3423.00,0.3993
3422.00,0.4002
3421.00,0.4011
3420.00,0.4021
3419.00,0.4030
3418.00,0.4038
3417.00,0.4047
3416.00,0.4055
3415.00,0.4064
3414.00,0.4073
3413.00,0.4082
3412.00,0.4091
3411.00,0.4101
3410.00,0.4110
3409.00,0.4120
3408.00,0.4130
3407.00,0.4139
3406.00,0.4147
3405.00,0.4156
3404.00,0.4165
3403.00,0.4175
3402.00,0.4184
3401.00,0.4194
3400.00,0.4204
3399.00,0.4215
3398.00,0.4226
3397.00,0.4236
3396.00,0.4247
3395.00,0.4257
3394.00,0.4267
3393.00,0.4278
3392.00,0.4288
3391.00,0.4298
3390.00,0.4308
3389.00,0.4319
3388.00,0.4330
3387.00,0.4341
3386.00,0.4353
3385.00,0.4364
3384.00,0.4375
3383.00,0.4386
3382.00,0.4397
3381.00,0.4408
3380.00,0.4419
3379.00,0.4430
3378.00,0.4441
3377.00,0.4452
3376.00,0.4463
3375.00,0.4474
3374.00,0.4486
3373.00,0.4499
3372.00,0.4512
3371.00,0.4525
3370.00,0.4538
3369.00,0.4551
3368.00,0.4563
3367.00,0.4576
3366.00,0.4589
3365.00,0.4604
3364.00,0.4619
3363.00,0.4634
3362.00,0.4649
3361.00,0.4664
3360.00,0.4680
3359.00,0.4696
3358.00,0.4712
3357.00,0.4728
3356.00,0.4744
3355.00,0.4759
3354.00,0.4775
3353.00,0.4791
3352.00,0.4807
3351.00,0.4823
3350.00,0.4839
3349.00,0.4854
3348.00,0.4869
3347.00,0.4884
3346.00,0.4898
3345.00,0.4912
3344.00,0.4925
3343.00,0.4938
3342.00,0.4952
3341.00,0.4965
3340.00,0.4978
3339.00,0.4990
3338.00,0.5000
3337.00,0.5010
3336.00,0.5019
3335.00,0.5028
3334.00,0.5036
3333.00,0.5043
3332.00,0.5050
3331.00,0.5056
3330.00,0.5060
3329.00,0.5064
3328.00,0.5068
3327.00,0.5072
3326.00,0.5074
3325.00,0.5076
3324.00,0.5077
3323.00,0.5076
3322.00,0.5074
3321.00,0.5071
3320.00,0.5067
3319.00,0.5063
3318.00,0.5059
3317.00,0.5054
3316.00,0.5049
3315.00,0.5043
3314.00,0.5036
3313.00,0.5029
3312.00,0.5021
3311.00,0.5013
3310.00,0.5005
3309.00,0.4998
3308.00,0.4990
3307.00,0.4981
3306.00,0.4973
3305.00,0.4965
3304.00,0.4957
3303.00,0.4949
3302.00,0.4941
3301.00,0.4932
3300.00,0.4923
3299.00,0.4915
3298.00,0.4908
3297.00,0.4902
3296.00,0.4896
3295.00,0.4890
3294.00,0.4885
3293.00,0.4879
3292.00,0.4874
3291.00,0.4870
3290.00,0.4866
3289.00,0.4863
3288.00,0.4860
3287.00,0.4858
3286.00,0.4856
3285.00,0.4855
3284.00,0.4855
3283.00,0.4855
3282.00,0.4856
3281.00,0.4856
3280.00,0.4857
3279.00,0.4858
3278.00,0.4860
3277.00,0.4862
3276.00,0.4864
3275.00,0.4865
3274.00,0.4867
3273.00,0.4869
3272.00,0.4871
3271.00,0.4874
3270.00,0.4878
3269.00,0.4883
3268.00,0.4888
3267.00,0.4892
3266.00,0.4895
3265.00,0.4899
3264.00,0.4902
3263.00,0.4906
3262.00,0.4911
3261.00,0.4916
3260.00,0.4922
3259.00,0.4927
3258.00,0.4932
3257.00,0.4937
3256.00,0.4943
3255.00,0.4949
3254.00,0.4955
3253.00,0.4960
3252.00,0.4965
3251.00,0.4969
3250.00,0.4974
3249.00,0.4979
3248.00,0.4984
3247.00,0.4989
3246.00,0.4993
3245.00,0.4998
3244.00,0.5002
3243.00,0.5005
3242.00,0.5008
3241.00,0.5010
3240.00,0.5012
3239.00,0.5013
3238.00,0.5014
3237.00,0.5016
3236.00,0.5018
3235.00,0.5019
3234.00,0.5020
3233.00,0.5021
3232.00,0.5021
3231.00,0.5020
3230.00,0.5019
3229.00,0.5018
3228.00,0.5017
3227.00,0.5016
3226.00,0.5015
3225.00,0.5014
3224.00,0.5013
3223.00,0.5012
3222.00,0.5010
3221.00,0.5009
3220.00,0.5008
3219.00,0.5007
3218.00,0.5006
3217.00,0.5004
3216.00,0.5002
3215.00,0.5000
3214.00,0.4999
3213.00,0.4997
3212.00,0.4994
3211.00,0.4992
3210.00,0.4989
3209.00,0.4987
3208.00,0.4984
3207.00,0.4981
3206.00,0.4978
3205.00,0.4975
3204.00,0.4973
3203.00,0.4970
3202.00,0.4967
3201.00,0.4964
3200.00,0.4960
3199.00,0.4956
3198.00,0.4952
3197.00,0.4949
3196.00,0.4946
3195.00,0.4942
3194.00,0.4937
3193.00,0.4932
3192.00,0.4927
3191.00,0.4922
3190.00,0.4916
3189.00,0.4911
3188.00,0.4907
3187.00,0.4901
3186.00,0.4896
3185.00,0.4890
3184.00,0.4884
3183.00,0.4878
3182.00,0.4873
3181.00,0.4868
3180.00,0.4863
3179.00,0.4857
3178.00,0.4849
3177.00,0.4842
3176.00,0.4834
3175.00,0.4827
3174.00,0.4820
3173.00,0.4813
3172.00,0.4805
3171.00,0.4798
3170.00,0.4790
3169.00,0.4783
3168.00,0.4775
3167.00,0.4767
3166.00,0.4759
3165.00,0.4750
3164.00,0.4742
3163.00,0.4733
3162.00,0.4723
3161.00,0.4714
3160.00,0.4706
3159.00,0.4698
3158.00,0.4691
3157.00,0.4683
3156.00,0.4674
3155.00,0.4666
3154.00,0.4658
3153.00,0.4650
3152.00,0.4643
3151.00,0.4636
3150.00,0.4630
3149.00,0.4623
3148.00,0.4616
3147.00,0.4610
3146.00,0.4604
3145.00,0.4599
3144.00,0.4594
3143.00,0.4589
3142.00,0.4583
3141.00,0.4578
3140.00,0.4572
3139.00,0.4567
3138.00,0.4563
3137.00,0.4558
3136.00,0.4554
3135.00,0.4550
3134.00,0.4546
3133.00,0.4542
3132.00,0.4538
3131.00,0.4535
3130.00,0.4533
3129.00,0.4531
3128.00,0.4530
3127.00,0.4528
3126.00,0.4527
3125.00,0.4527
3124.00,0.4528
3123.00,0.4528
3122.00,0.4530
3121.00,0.4532
3120.00,0.4534
3119.00,0.4537
3118.00,0.4540
3117.00,0.4543
3116.00,0.4546
3115.00,0.4551
3114.00,0.4555
3113.00,0.4560
3112.00,0.4565
3111.00,0.4571
3110.00,0.4577
3109.00,0.4584
3108.00,0.4592
3107.00,0.4601
3106.00,0.4609
3105.00,0.4618
3104.00,0.4626
3103.00,0.4633
3102.00,0.4640
3101.00,0.4647
3100.00,0.4656
3099.00,0.4665
3098.00,0.4675
3097.00,0.4685
3096.00,0.4696
3095.00,0.4709
3094.00,0.4724
3093.00,0.4740
3092.00,0.4758
3091.00,0.4778
3090.00,0.4801
3089.00,0.4825
3088.00,0.4851
3087.00,0.4878
3086.00,0.4905
3085.00,0.4933
3084.00,0.4962
3083.00,0.4992
3082.00,0.5023
3081.00,0.5056
3080.00,0.5092
3079.00,0.5129
3078.00,0.5168
3077.00,0.5209
3076.00,0.5250
3075.00,0.5292
3074.00,0.5335
3073.00,0.5379
3072.00,0.5422
3071.00,0.5465
3070.00,0.5508
3069.00,0.5551
3068.00,0.5595
3067.00,0.5637
3066.00,0.5678
3065.00,0.5719
3064.00,0.5757
3063.00,0.5793
3062.00,0.5827
3061.00,0.5857
3060.00,0.5886
3059.00,0.5913
3058.00,0.5940
3057.00,0.5967
3056.00,0.5995
3055.00,0.6025
3054.00,0.6057
3053.00,0.6091
3052.00,0.6127
3051.00,0.6164
3050.00,0.6203
3049.00,0.6244
3048.00,0.6287
3047.00,0.6332
3046.00,0.6379
3045.00,0.6427
3044.00,0.6473
3043.00,0.6519
3042.00,0.6565
3041.00,0.6611
3040.00,0.6656
3039.00,0.6702
3038.00,0.6750
3037.00,0.6800
3036.00,0.6854
3035.00,0.6913
3034.00,0.6977
3033.00,0.7045
3032.00,0.7118
3031.00,0.7194
3030.00,0.7274
3029.00,0.7358
3028.00,0.7446
3027.00,0.7538
3026.00,0.7635
3025.00,0.7735
3024.00,0.7838
3023.00,0.7944
3022.00,0.8053
3021.00,0.8163
3020.00,0.8274
3019.00,0.8388
3018.00,0.8504
3017.00,0.8623
3016.00,0.8742
3015.00,0.8862
3014.00,0.8984
3013.00,0.9109
3012.00,0.9237
3011.00,0.9370
3010.00,0.9508
3009.00,0.9652
3008.00,0.9801
3007.00,0.9956
3006.00,1.0117
3005.00,1.0285
3004.00,1.0459
3003.00,1.0639
3002.00,1.0826
3001.00,1.1018
3000.00,1.1218
2999.00,1.1428
2998.00,1.1653
2997.00,1.1898
2996.00,1.2167
2995.00,1.2464
2994.00,1.2794
2993.00,1.3163
2992.00,1.3575
2991.00,1.4037
2990.00,1.4556
2989.00,1.5140
2988.00,1.5793
2987.00,1.6520
2986.00,1.7328
2985.00,1.8220
2984.00,1.9195
2983.00,2.0261
2982.00,2.1427
2981.00,2.2708
2980.00,2.4108
2979.00,2.5621
2978.00,2.7240
2977.00,2.8968
2976.00,3.0860
2975.00,3.3065
2974.00,3.5841
2973.00,3.9470
2972.00,4.2334
2971.00,4.1427
2970.00,4.0471
2969.00,4.0403
2968.00,4.0033
2967.00,3.9317
2966.00,3.9087
2965.00,3.9090
2964.00,3.8467
2963.00,3.7929
2962.00,3.8369
2961.00,3.9492
2960.00,4.0667
2959.00,4.2783
2958.00,4.3363
2957.00,4.0142
2956.00,3.7529
2955.00,3.6488
2954.00,3.7016
2953.00,3.8580
2952.00,4.1186
2951.00,4.2235
2950.00,4.0101
2949.00,3.8520
2948.00,3.8325
2947.00,3.9640
2946.00,4.1944
2945.00,4.5226
2944.00,4.6716
2943.00,4.3619
2942.00,4.1968
2941.00,4.0891
2940.00,4.0572
2939.00,4.1207
2938.00,4.2702
2937.00,4.2882
2936.00,4.1098
2935.00,4.0160
2934.00,4.0386
2933.00,4.2078
2932.00,4.5074
2931.00,4.2935
2930.00,4.0284
2929.00,3.8761
2928.00,3.8923
2927.00,3.9513
2926.00,4.0782
2925.00,4.3787
2924.00,4.4167
2923.00,4.3635
2922.00,4.4912
2921.00,4.5585
2920.00,4.2759
2919.00,4.0997
2918.00,4.1543
2917.00,4.1742
2916.00,4.0291
2915.00,3.9674
2914.00,4.0930
2913.00,4.2796
2912.00,4.1410
2911.00,3.9249
2910.00,3.7784
2909.00,3.6920
2908.00,3.6271
2907.00,3.6212
2906.00,3.6832
2905.00,3.7607
2904.00,3.8237
2903.00,3.8659
2902.00,3.9056
2901.00,3.9573
2900.00,3.9909
2899.00,3.9924
2898.00,3.9828
2897.00,3.9972
2896.00,4.0699
2895.00,4.1905
2894.00,4.2760
2893.00,4.1815
2892.00,4.0421
2891.00,4.0402
2890.00,4.1840
2889.00,4.3434
2888.00,4.3203
2887.00,4.2937
2886.00,4.3669
2885.00,4.4036
2884.00,4.3553
2883.00,4.2665
2882.00,4.2096
2881.00,4.1700
2880.00,4.1234
2879.00,4.1397
2878.00,4.2215
2877.00,4.2626
2876.00,4.2887
2875.00,4.2566
2874.00,4.2303
2873.00,4.1931
2872.00,4.0953
2871.00,3.9829
2870.00,3.9814
2869.00,4.2170
2868.00,4.2267
2867.00,4.0019
2866.00,3.8940
2865.00,3.9706
2864.00,4.0009
2863.00,3.9007
2862.00,3.8732
2861.00,3.8975
2860.00,3.9197
2859.00,3.8656
2858.00,3.7862
2857.00,3.7691
2856.00,3.8657
2855.00,4.1054
2854.00,4.3328
2853.00,4.3695
2852.00,4.2769
2851.00,4.1251
2850.00,3.9192
2849.00,3.7561
2848.00,3.6990
2847.00,3.7227
2846.00,3.8164
2845.00,3.9438
2844.00,4.0387
2843.00,4.0629
2842.00,3.9799
2841.00,3.8260
2840.00,3.6816
2839.00,3.5650
2838.00,3.4189
2837.00,3.2061
2836.00,2.9721
2835.00,2.7586
2834.00,2.5722
2833.00,2.4069
2832.00,2.2590
2831.00,2.1269
2830.00,2.0085
2829.00,1.9016
2828.00,1.8052
2827.00,1.7187
2826.00,1.6406
2825.00,1.5698
2824.00,1.5053
2823.00,1.4468
2822.00,1.3937
2821.00,1.3452
2820.00,1.3008
2819.00,1.2599
2818.00,1.2219
2817.00,1.1864
2816.00,1.1530
2815.00,1.1217
2814.00,1.0927
2813.00,1.0656
2812.00,1.0400
2811.00,1.0159
2810.00,0.9929
2809.00,0.9711
2808.00,0.9504
2807.00,0.9307
2806.00,0.9121
2805.00,0.8944
2804.00,0.8776
2803.00,0.8616
2802.00,0.8463
2801.00,0.8317
2800.00,0.8178
2799.00,0.8046
2798.00,0.7921
2797.00,0.7800
2796.00,0.7684
2795.00,0.7571
2794.00,0.7463
2793.00,0.7359
2792.00,0.7257
2791.00,0.7158
2790.00,0.7060
2789.00,0.6964
2788.00,0.6871
2787.00,0.6780
2786.00,0.6691
2785.00,0.6605
2784.00,0.6521
2783.00,0.6439
2782.00,0.6359
2781.00,0.6282
2780.00,0.6208
2779.00,0.6138
2778.00,0.6072
2777.00,0.6010
2776.00,0.5951
2775.00,0.5895
2774.00,0.5842
2773.00,0.5792
2772.00,0.5745
2771.00,0.5702
2770.00,0.5664
2769.00,0.5628
2768.00,0.5596
2767.00,0.5567
2766.00,0.5540
2765.00,0.5517
2764.00,0.5497
2763.00,0.5480
2762.00,0.5465
2761.00,0.5452
2760.00,0.5439
2759.00,0.5427
2758.00,0.5415
2757.00,0.5403
2756.00,0.5393
2755.00,0.5383
2754.00,0.5374
2753.00,0.5367
2752.00,0.5361
2751.00,0.5357
2750.00,0.5355
2749.00,0.5356
2748.00,0.5358
2747.00,0.5363
2746.00,0.5370
2745.00,0.5380
2744.00,0.5393
2743.00,0.5409
2742.00,0.5429
2741.00,0.5453
2740.00,0.5480
2739.00,0.5513
2738.00,0.5550
2737.00,0.5594
2736.00,0.5642
2735.00,0.5693
2734.00,0.5746
2733.00,0.5797
2732.00,0.5844
2731.00,0.5884
2730.00,0.5914
2729.00,0.5934
2728.00,0.5942
2727.00,0.5941
2726.00,0.5933
2725.00,0.5918
2724.00,0.5899
2723.00,0.5876
2722.00,0.5849
2721.00,0.5819
2720.00,0.5786
2719.00,0.5751
2718.00,0.5713
2717.00,0.5672
2716.00,0.5628
2715.00,0.5583
2714.00,0.5538
2713.00,0.5493
2712.00,0.5451
2711.00,0.5412
2710.00,0.5378
2709.00,0.5348
2708.00,0.5322
2707.00,0.5300
2706.00,0.5282
2705.00,0.5267
2704.00,0.5256
2703.00,0.5247
2702.00,0.5240
2701.00,0.5236
2700.00,0.5235
2699.00,0.5236
2698.00,0.5238
2697.00,0.5240
2696.00,0.5244
2695.00,0.5250
2694.00,0.5258
2693.00,0.5266
2692.00,0.5275
2691.00,0.5284
2690.00,0.5293
2689.00,0.5301
2688.00,0.5309
2687.00,0.5315
2686.00,0.5322
2685.00,0.5327
2684.00,0.5332
2683.00,0.5335
2682.00,0.5338
2681.00,0.5340
2680.00,0.5343
2679.00,0.5346
2678.00,0.5350
2677.00,0.5355
2676.00,0.5361
2675.00,0.5366
2674.00,0.5371
2673.00,0.5375
2672.00,0.5376
2671.00,0.5376
2670.00,0.5373
2669.00,0.5369
2668.00,0.5362
2667.00,0.5352
2666.00,0.5339
2665.00,0.5324
2664.00,0.5308
2663.00,0.5291
2662.00,0.5271
2661.00,0.5250
2660.00,0.5229
2659.00,0.5207
2658.00,0.5185
2657.00,0.5164
2656.00,0.5144
2655.00,0.5125
2654.00,0.5106
2653.00,0.5089
2652.00,0.5072
2651.00,0.5056
2650.00,0.5040
2649.00,0.5026
2648.00,0.5012
2647.00,0.4998
2646.00,0.4985
2645.00,0.4973
2644.00,0.4962
2643.00,0.4952
2642.00,0.4942
2641.00,0.4933
2640.00,0.4923
2639.00,0.4913
2638.00,0.4904
2637.00,0.4894
2636.00,0.4886
2635.00,0.4878
2634.00,0.4871
2633.00,0.4863
2632.00,0.4855
2631.00,0.4847
2630.00,0.4839
2629.00,0.4830
2628.00,0.4821
2627.00,0.4812
2626.00,0.4802
2625.00,0.4793
2624.00,0.4784
2623.00,0.4775
2622.00,0.4766
2621.00,0.4757
2620.00,0.4747
2619.00,0.4738
2618.00,0.4729
2617.00,0.4719
2616.00,0.4710
2615.00,0.4700
2614.00,0.4690
2613.00,0.4681
2612.00,0.4673
2611.00,0.4664
2610.00,0.4655
2609.00,0.4646
2608.00,0.4638
2607.00,0.4629
2606.00,0.4619
2605.00,0.4609
2604.00,0.4599
2603.00,0.4589
2602.00,0.4580
2601.00,0.4570
2600.00,0.4560
2599.00,0.4548
2598.00,0.4535
2597.00,0.4522
2596.00,0.4509
2595.00,0.4494
2594.00,0.4479
2593.00,0.4463
2592.00,0.4448
2591.00,0.4432
2590.00,0.4416
2589.00,0.4399
2588.00,0.4382
2587.00,0.4364
2586.00,0.4346
2585.00,0.4329
2584.00,0.4312
2583.00,0.4294
2582.00,0.4277
2581.00,0.4260
2580.00,0.4243
2579.00,0.4225
2578.00,0.4208
2577.00,0.4191
2576.00,0.4174
2575.00,0.4158
2574.00,0.4143
2573.00,0.4128
2572.00,0.4113
2571.00,0.4099
2570.00,0.4085
2569.00,0.4071
2568.00,0.4058
2567.00,0.4044
2566.00,0.4031
2565.00,0.4018
2564.00,0.4005
2563.00,0.3992
2562.00,0.3979
2561.00,0.3966
2560.00,0.3953
2559.00,0.3941
2558.00,0.3928
2557.00,0.3916
2556.00,0.3904
2555.00,0.3892
2554.00,0.3881
2553.00,0.3869
2552.00,0.3857
2551.00,0.3845
2550.00,0.3834
2549.00,0.3824
2548.00,0.3813
2547.00,0.3803
2546.00,0.3793
2545.00,0.3784
2544.00,0.3776
2543.00,0.3768
2542.00,0.3760
2541.00,0.3753
2540.00,0.3745
2539.00,0.3739
2538.00,0.3733
2537.00,0.3728
2536.00,0.3722
2535.00,0.3717
2534.00,0.3711
2533.00,0.3706
2532.00,0.3700
2531.00,0.3694
2530.00,0.3687
2529.00,0.3679
2528.00,0.3670
2527.00,0.3662
2526.00,0.3652
2525.00,0.3643
2524.00,0.3633
2523.00,0.3623
2522.00,0.3613
2521.00,0.3603
2520.00,0.3593
2519.00,0.3583
2518.00,0.3573
2517.00,0.3563
2516.00,0.3554
2515.00,0.3546
2514.00,0.3537
2513.00,0.3528
2512.00,0.3520
2511.00,0.3512
2510.00,0.3505
2509.00,0.3499
2508.00,0.3493
2507.00,0.3487
2506.00,0.3481
2505.00,0.3475
2504.00,0.3470
2503.00,0.3466
2502.00,0.3462
2501.00,0.3458
2500.00,0.3454
2499.00,0.3451
2498.00,0.3447
2497.00,0.3444
2496.00,0.3442
2495.00,0.3439
2494.00,0.3436
2493.00,0.3433
2492.00,0.3430
2491.00,0.3425
2490.00,0.3421
2489.00,0.3417
2488.00,0.3413
2487.00,0.3408
2486.00,0.3404
2485.00,0.3399
2484.00,0.3395
2483.00,0.3390
2482.00,0.3385
2481.00,0.3380
2480.00,0.3375
2479.00,0.3370
2478.00,0.3365
2477.00,0.3361
2476.00,0.3357
2475.00,0.3354
2474.00,0.3351
2473.00,0.3349
2472.00,0.3346
2471.00,0.3343
2470.00,0.3340
2469.00,0.3338
2468.00,0.3336
2467.00,0.3335
2466.00,0.3333
2465.00,0.3331
2464.00,0.3329
2463.00,0.3327
2462.00,0.3326
2461.00,0.3325
2460.00,0.3323
2459.00,0.3321
2458.00,0.3319
2457.00,0.3318
2456.00,0.3316
2455.00,0.3316
2454.00,0.3315
2453.00,0.3314
2452.00,0.3313
2451.00,0.3311
2450.00,0.3310
2449.00,0.3309
2448.00,0.3308
2447.00,0.3306
2446.00,0.3305
2445.00,0.3303
2444.00,0.3301
2443.00,0.3300
2442.00,0.3299
2441.00,0.3298
2440.00,0.3298
2439.00,0.3297
2438.00,0.3297
2437.00,0.3297
2436.00,0.3297
2435.00,0.3298
2434.00,0.3299
2433.00,0.3300
2432.00,0.3301
2431.00,0.3303
2430.00,0.3305
2429.00,0.3306
2428.00,0.3308
2427.00,0.3309
2426.00,0.3310
2425.00,0.3311
2424.00,0.3313
2423.00,0.3314
2422.00,0.3315
2421.00,0.3316
2420.00,0.3317
2419.00,0.3317
2418.00,0.3317
2417.00,0.3318
2416.00,0.3318
2415.00,0.3318
2414.00,0.3318
2413.00,0.3317
2412.00,0.3316
2411.00,0.3316
2410.00,0.3315
2409.00,0.3315
2408.00,0.3314
2407.00,0.3313
2406.00,0.3311
2405.00,0.3310
2404.00,0.3309
2403.00,0.3308
2402.00,0.3306
2401.00,0.3304
2400.00,0.3303
2399.00,0.3302
2398.00,0.3301
2397.00,0.3300
2396.00,0.3298
2395.00,0.3297
2394.00,0.3295
2393.00,0.3294
2392.00,0.3293
2391.00,0.3293
2390.00,0.3292
2389.00,0.3292
2388.00,0.3293
2387.00,0.3294
2386.00,0.3294
2385.00,0.3295
2384.00,0.3296
2383.00,0.3297
2382.00,0.3298
2381.00,0.3300
2380.00,0.3301
2379.00,0.3302
2378.00,0.3302
2377.00,0.3303
2376.00,0.3303
2375.00,0.3302
2374.00,0.3301
2373.00,0.3300
2372.00,0.3299
2371.00,0.3298
2370.00,0.3298
2369.00,0.3298
2368.00,0.3299
2367.00,0.3299
2366.00,0.3299
2365.00,0.3299
2364.00,0.3299
2363.00,0.3299
2362.00,0.3298
2361.00,0.3298
2360.00,0.3297
2359.00,0.3296
2358.00,0.3295
2357.00,0.3295
2356.00,0.3295
2355.00,0.3293
2354.00,0.3292
2353.00,0.3291
2352.00,0.3290
2351.00,0.3289
2350.00,0.3288
2349.00,0.3287
2348.00,0.3285
2347.00,0.3284
2346.00,0.3283
2345.00,0.3282
2344.00,0.3280
2343.00,0.3279
2342.00,0.3279
2341.00,0.3278
2340.00,0.3278
2339.00,0.3277
2338.00,0.3275
2337.00,0.3273
2336.00,0.3271
2335.00,0.3268
2334.00,0.3266
2333.00,0.3265
2332.00,0.3264
2331.00,0.3262
2330.00,0.3259
2329.00,0.3256
2328.00,0.3253
2327.00,0.3250
2326.00,0.3248
2325.00,0.3247
2324.00,0.3245
2323.00,0.3243
2322.00,0.3240
2321.00,0.3237
2320.00,0.3233
2319.00,0.3230
2318.00,0.3227
2317.00,0.3224
2316.00,0.3222
2315.00,0.3220
2314.00,0.3218
2313.00,0.3216
2312.00,0.3213
2311.00,0.3209
2310.00,0.3205
2309.00,0.3201
2308.00,0.3197
2307.00,0.3194
2306.00,0.3190
2305.00,0.3187
2304.00,0.3184
2303.00,0.3181
2302.00,0.3178
2301.00,0.3175
2300.00,0.3172
2299.00,0.3169
2298.00,0.3165
2297.00,0.3162
2296.00,0.3159
2295.00,0.3156
2294.00,0.3153
2293.00,0.3151
2292.00,0.3148
2291.00,0.3144
2290.00,0.3141
2289.00,0.3138
2288.00,0.3135
2287.00,0.3132
2286.00,0.3130
2285.00,0.3128
2284.00,0.3125
2283.00,0.3123
2282.00,0.3119
2281.00,0.3116
2280.00,0.3112
2279.00,0.3108
2278.00,0.3104
2277.00,0.3101
2276.00,0.3098
2275.00,0.3095
2274.00,0.3092
2273.00,0.3090
2272.00,0.3088
2271.00,0.3087
2270.00,0.3085
2269.00,0.3084
2268.00,0.3083
2267.00,0.3081
2266.00,0.3079
2265.00,0.3077
2264.00,0.3076
2263.00,0.3074
2262.00,0.3072
2261.00,0.3070
2260.00,0.3068
2259.00,0.3066
2258.00,0.3064
2257.00,0.3061
2256.00,0.3058
2255.00,0.3055
2254.00,0.3053
2253.00,0.3051
2252.00,0.3049
2251.00,0.3046
2250.00,0.3043
2249.00,0.3041
2248.00,0.3038
2247.00,0.3035
2246.00,0.3032
2245.00,0.3029
2244.00,0.3027
2243.00,0.3024
2242.00,0.3022
2241.00,0.3020
2240.00,0.3018
2239.00,0.3017
2238.00,0.3015
2237.00,0.3013
2236.00,0.3012
2235.00,0.3010
2234.00,0.3009
2233.00,0.3009
2232.00,0.3009
2231.00,0.3008
2230.00,0.3007
2229.00,0.3007
2228.00,0.3006
2227.00,0.3006
2226.00,0.3005
2225.00,0.3005
2224.00,0.3004
2223.00,0.3003
2222.00,0.3002
2221.00,0.3002
2220.00,0.3001
2219.00,0.3000
2218.00,0.3000
2217.00,0.3000
2216.00,0.3000
2215.00,0.2999
2214.00,0.2998
2213.00,0.2998
2212.00,0.2996
2211.00,0.2995
2210.00,0.2993
2209.00,0.2992
2208.00,0.2991
2207.00,0.2990
2206.00,0.2989
2205.00,0.2988
2204.00,0.2987
2203.00,0.2986
2202.00,0.2985
2201.00,0.2984
2200.00,0.2983
2199.00,0.2983
2198.00,0.2983
2197.00,0.2983
2196.00,0.2984
2195.00,0.2984
2194.00,0.2985
2193.00,0.2986
2192.00,0.2987
2191.00,0.2987
2190.00,0.2988
2189.00,0.2989
2188.00,0.2990
2187.00,0.2990
2186.00,0.2990
2185.00,0.2990
2184.00,0.2991
2183.00,0.2991
2182.00,0.2990
2181.00,0.2990
2180.00,0.2990
2179.00,0.2989
2178.00,0.2987
2177.00,0.2985
2176.00,0.2984
2175.00,0.2982
2174.00,0.2980
2173.00,0.2979
2172.00,0.2977
2171.00,0.2975
2170.00,0.2972
2169.00,0.2971
2168.00,0.2969
2167.00,0.2967
2166.00,0.2965
2165.00,0.2962
2164.00,0.2960
2163.00,0.2958
2162.00,0.2956
2161.00,0.2955
2160.00,0.2954
2159.00,0.2953
2158.00,0.2952
2157.00,0.2951
2156.00,0.2950
2155.00,0.2949
2154.00,0.2949
2153.00,0.2948
2152.00,0.2948
2151.00,0.2947
2150.00,0.2946
2149.00,0.2944
2148.00,0.2943
2147.00,0.2940
2146.00,0.2937
2145.00,0.2933
2144.00,0.2929
2143.00,0.2925
2142.00,0.2920
2141.00,0.2915
2140.00,0.2910
2139.00,0.2905
2138.00,0.2901
2137.00,0.2898
2136.00,0.2895
2135.00,0.2892
2134.00,0.2889
2133.00,0.2886
2132.00,0.2883
2131.00,0.2881
2130.00,0.2878
2129.00,0.2877
2128.00,0.2875
2127.00,0.2873
2126.00,0.2871
2125.00,0.2870
2124.00,0.2869
2123.00,0.2868
2122.00,0.2867
2121.00,0.2866
2120.00,0.2866
2119.00,0.2865
2118.00,0.2864
2117.00,0.2863
2116.00,0.2862
2115.00,0.2862
2114.00,0.2862
2113.00,0.2862
2112.00,0.2863
2111.00,0.2863
2110.00,0.2862
2109.00,0.2862
2108.00,0.2862
2107.00,0.2861
2106.00,0.2860
2105.00,0.2859
2104.00,0.2858
2103.00,0.2857
2102.00,0.2856
2101.00,0.2855
2100.00,0.2855
2099.00,0.2854
2098.00,0.2853
2097.00,0.2852
2096.00,0.2850
2095.00,0.2849
2094.00,0.2848
2093.00,0.2848
2092.00,0.2847
2091.00,0.2847
2090.00,0.2846
2089.00,0.2845
2088.00,0.2845
2087.00,0.2844
2086.00,0.2844
2085.00,0.2843
2084.00,0.2843
2083.00,0.2843
2082.00,0.2843
2081.00,0.2843
2080.00,0.2844
2079.00,0.2844
2078.00,0.2845
2077.00,0.2846
2076.00,0.2847
2075.00,0.2847
2074.00,0.2848
2073.00,0.2849
2072.00,0.2850
2071.00,0.2851
2070.00,0.2851
2069.00,0.2852
2068.00,0.2853
2067.00,0.2854
2066.00,0.2854
2065.00,0.2855
2064.00,0.2857
2063.00,0.2858
2062.00,0.2858
2061.00,0.2859
2060.00,0.2860
2059.00,0.2860
2058.00,0.2861
2057.00,0.2862
2056.00,0.2863
2055.00,0.2863
2054.00,0.2864
2053.00,0.2866
2052.00,0.2867
2051.00,0.2868
2050.00,0.2868
2049.00,0.2870
2048.00,0.2871
2047.00,0.2873
2046.00,0.2875
2045.00,0.2877
2044.00,0.2878
2043.00,0.2879
2042.00,0.2880
2041.00,0.2882
2040.00,0.2884
2039.00,0.2885
2038.00,0.2886
2037.00,0.2888
2036.00,0.2889
2035.00,0.2890
2034.00,0.2891
2033.00,0.2892
2032.00,0.2892
2031.00,0.2892
2030.00,0.2891
2029.00,0.2891
2028.00,0.2890
2027.00,0.2889
2026.00,0.2888
2025.00,0.2886
2024.00,0.2885
2023.00,0.2883
2022.00,0.2880
2021.00,0.2876
2020.00,0.2872
2019.00,0.2866
2018.00,0.2860
2017.00,0.2854
2016.00,0.2850
2015.00,0.2845
2014.00,0.2841
2013.00,0.2835
2012.00,0.2830
2011.00,0.2825
2010.00,0.2820
2009.00,0.2817
2008.00,0.2813
2007.00,0.2810
2006.00,0.2807
2005.00,0.2804
2004.00,0.2802
2003.00,0.2800
2002.00,0.2798
2001.00,0.2798
2000.00,0.2797
1999.00,0.2796
1998.00,0.2795
1997.00,0.2794
1996.00,0.2794
1995.00,0.2793
1994.00,0.2791
1993.00,0.2789
1992.00,0.2788
1991.00,0.2787
1990.00,0.2787
1989.00,0.2787
1988.00,0.2787
1987.00,0.2786
1986.00,0.2786
1985.00,0.2785
1984.00,0.2785
1983.00,0.2784
1982.00,0.2783
1981.00,0.2783
1980.00,0.2782
1979.00,0.2782
1978.00,0.2782
1977.00,0.2781
1976.00,0.2781
1975.00,0.2780
1974.00,0.2780
1973.00,0.2780
1972.00,0.2780
1971.00,0.2780
1970.00,0.2779
1969.00,0.2778
1968.00,0.2778
1967.00,0.2777
1966.00,0.2778
1965.00,0.2779
1964.00,0.2781
1963.00,0.2781
1962.00,0.2781
1961.00,0.2782
1960.00,0.2783
1959.00,0.2785
1958.00,0.2786
1957.00,0.2788
1956.00,0.2790
1955.00,0.2792
1954.00,0.2794
1953.00,0.2795
1952.00,0.2796
1951.00,0.2796
1950.00,0.2796
1949.00,0.2797
1948.00,0.2799
1947.00,0.2801
1946.00,0.2803
1945.00,0.2805
1944.00,0.2808
1943.00,0.2811
1942.00,0.2816
1941.00,0.2823
1940.00,0.2829
1939.00,0.2834
1938.00,0.2836
1937.00,0.2836
1936.00,0.2836
1935.00,0.2834
1934.00,0.2832
1933.00,0.2830
1932.00,0.2830
1931.00,0.2830
1930.00,0.2830
1929.00,0.2831
1928.00,0.2832
1927.00,0.2833
1926.00,0.2833
1925.00,0.2833
1924.00,0.2834
1923.00,0.2835
1922.00,0.2839
1921.00,0.2845
1920.00,0.2851
1919.00,0.2854
1918.00,0.2857
1917.00,0.2861
1916.00,0.2865
1915.00,0.2867
1914.00,0.2867
1913.00,0.2868
1912.00,0.2868
1911.00,0.2868
1910.00,0.2868
1909.00,0.2870
1908.00,0.2872
1907.00,0.2874
1906.00,0.2875
1905.00,0.2876
1904.00,0.2876
1903.00,0.2876
1902.00,0.2876
1901.00,0.2876
1900.00,0.2877
1899.00,0.2878
1898.00,0.2879
1897.00,0.2880
1896.00,0.2881
1895.00,0.2882
1894.00,0.2884
1893.00,0.2886
1892.00,0.2888
1891.00,0.2888
1890.00,0.2886
1889.00,0.2887
1888.00,0.2889
1887.00,0.2890
1886.00,0.2891
1885.00,0.2891
1884.00,0.2892
1883.00,0.2892
1882.00,0.2892
1881.00,0.2892
1880.00,0.2891
1879.00,0.2891
1878.00,0.2890
1877.00,0.2889
1876.00,0.2888
1875.00,0.2886
1874.00,0.2884
1873.00,0.2883
1872.00,0.2882
1871.00,0.2880
1870.00,0.2877
1869.00,0.2874
1868.00,0.2873
1867.00,0.2872
1866.00,0.2872
1865.00,0.2870
1864.00,0.2868
1863.00,0.2866
1862.00,0.2863
1861.00,0.2861
1860.00,0.2858
1859.00,0.2856
1858.00,0.2853
1857.00,0.2851
1856.00,0.2850
1855.00,0.2848
1854.00,0.2845
1853.00,0.2844
1852.00,0.2842
1851.00,0.2840
1850.00,0.2837
1849.00,0.2834
1848.00,0.2833
1847.00,0.2832
1846.00,0.2831
1845.00,0.2829
1844.00,0.2829
1843.00,0.2829
1842.00,0.2830
1841.00,0.2829
1840.00,0.2828
1839.00,0.2826
1838.00,0.2824
1837.00,0.2824
1836.00,0.2824
1835.00,0.2825
1834.00,0.2825
1833.00,0.2826
1832.00,0.2827
1831.00,0.2827
1830.00,0.2827
1829.00,0.2828
1828.00,0.2829
1827.00,0.2828
1826.00,0.2824
1825.00,0.2822
1824.00,0.2822
1823.00,0.2824
1822.00,0.2825
1821.00,0.2826
1820.00,0.2826
1819.00,0.2825
1818.00,0.2823
1817.00,0.2823
1816.00,0.2825
1815.00,0.2826
1814.00,0.2827
1813.00,0.2827
1812.00,0.2827
1811.00,0.2828
1810.00,0.2829
1809.00,0.2832
1808.00,0.2835
1807.00,0.2838
1806.00,0.2842
1805.00,0.2845
1804.00,0.2848
1803.00,0.2850
1802.00,0.2853
1801.00,0.2859
1800.00,0.2868
1799.00,0.2876
1798.00,0.2882
1797.00,0.2887
1796.00,0.2892
1795.00,0.2897
1794.00,0.2900
1793.00,0.2904
1792.00,0.2908
1791.00,0.2914
1790.00,0.2920
1789.00,0.2926
1788.00,0.2931
1787.00,0.2933
1786.00,0.2934
1785.00,0.2937
1784.00,0.2941
1783.00,0.2946
1782.00,0.2949
1781.00,0.2952
1780.00,0.2957
1779.00,0.2962
1778.00,0.2968
1777.00,0.2973
1776.00,0.2980
1775.00,0.2986
1774.00,0.2993
1773.00,0.3000
1772.00,0.3009
1771.00,0.3018
1770.00,0.3024
1769.00,0.3029
1768.00,0.3035
1767.00,0.3045
1766.00,0.3057
1765.00,0.3069
1764.00,0.3081
1763.00,0.3093
1762.00,0.3107
1761.00,0.3126
1760.00,0.3148
1759.00,0.3169
1758.00,0.3190
1757.00,0.3215
1756.00,0.3246
1755.00,0.3278
1754.00,0.3307
1753.00,0.3337
1752.00,0.3369
1751.00,0.3406
1750.00,0.3446
1749.00,0.3484
1748.00,0.3518
1747.00,0.3547
1746.00,0.3570
1745.00,0.3589
1744.00,0.3606
1743.00,0.3622
1742.00,0.3635
1741.00,0.3645
1740.00,0.3651
1739.00,0.3651
1738.00,0.3649
1737.00,0.3646
1736.00,0.3639
1735.00,0.3626
1734.00,0.3612
1733.00,0.3605
1732.00,0.3603
1731.00,0.3599
1730.00,0.3596
1729.00,0.3595
1728.00,0.3600
1727.00,0.3607
1726.00,0.3616
1725.00,0.3629
1724.00,0.3647
1723.00,0.3671
1722.00,0.3701
1721.00,0.3735
1720.00,0.3774
1719.00,0.3821
1718.00,0.3882
1717.00,0.3961
1716.00,0.4050
1715.00,0.4145
1714.00,0.4244
1713.00,0.4346
1712.00,0.4445
1711.00,0.4537
1710.00,0.4618
1709.00,0.4681
1708.00,0.4717
1707.00,0.4721
1706.00,0.4694
1705.00,0.4642
1704.00,0.4579
1703.00,0.4512
1702.00,0.4433
1701.00,0.4325
1700.00,0.4202
1699.00,0.4100
1698.00,0.4025
1697.00,0.3955
1696.00,0.3881
1695.00,0.3816
1694.00,0.3768
1693.00,0.3734
1692.00,0.3702
1691.00,0.3670
1690.00,0.3641
1689.00,0.3619
1688.00,0.3603
1687.00,0.3591
1686.00,0.3578
1685.00,0.3563
1684.00,0.3549
1683.00,0.3539
1682.00,0.3532
1681.00,0.3522
1680.00,0.3511
1679.00,0.3504
1678.00,0.3501
1677.00,0.3499
1676.00,0.3496
1675.00,0.3491
1674.00,0.3489
1673.00,0.3488
1672.00,0.3487
1671.00,0.3484
1670.00,0.3481
1669.00,0.3479
1668.00,0.3477
1667.00,0.3475
1666.00,0.3474
1665.00,0.3473
1664.00,0.3473
1663.00,0.3472
1662.00,0.3473
1661.00,0.3474
1660.00,0.3476
1659.00,0.3476
1658.00,0.3478
1657.00,0.3482
1656.00,0.3489
1655.00,0.3494
1654.00,0.3498
1653.00,0.3510
1652.00,0.3525
1651.00,0.3534
1650.00,0.3538
1649.00,0.3542
1648.00,0.3547
1647.00,0.3555
1646.00,0.3568
1645.00,0.3583
1644.00,0.3597
1643.00,0.3608
1642.00,0.3618
1641.00,0.3632
1640.00,0.3650
1639.00,0.3668
1638.00,0.3687
1637.00,0.3708
1636.00,0.3736
1635.00,0.3764
1634.00,0.3788
1633.00,0.3807
1632.00,0.3825
1631.00,0.3842
1630.00,0.3863
1629.00,0.3888
1628.00,0.3917
1627.00,0.3946
1626.00,0.3975
1625.00,0.4007
1624.00,0.4046
1623.00,0.4091
1622.00,0.4140
1621.00,0.4193
1620.00,0.4251
1619.00,0.4315
1618.00,0.4394
1617.00,0.4496
1616.00,0.4613
1615.00,0.4724
1614.00,0.4821
1613.00,0.4916
1612.00,0.5015
1611.00,0.5116
1610.00,0.5217
1609.00,0.5318
1608.00,0.5416
1607.00,0.5503
1606.00,0.5577
1605.00,0.5644
1604.00,0.5709
1603.00,0.5771
1602.00,0.5830
1601.00,0.5895
1600.00,0.5968
1599.00,0.6048
1598.00,0.6138
1597.00,0.6252
1596.00,0.6402
1595.00,0.6591
1594.00,0.6826
1593.00,0.7127
1592.00,0.7511
1591.00,0.7994
1590.00,0.8600
1589.00,0.9373
1588.00,1.0369
1587.00,1.1624
1586.00,1.3164
1585.00,1.5042
1584.00,1.7315
1583.00,1.9798
1582.00,2.1656
1581.00,2.1999
1580.00,2.1041
1579.00,1.9239
1578.00,1.6987
1577.00,1.4753
1576.00,1.2877
1575.00,1.1500
1574.00,1.0562
1573.00,0.9915
1572.00,0.9434
1571.00,0.9054
1570.00,0.8778
1569.00,0.8648
1568.00,0.8680
1567.00,0.8863
1566.00,0.9204
1565.00,0.9732
1564.00,1.0429
1563.00,1.1193
1562.00,1.1894
1561.00,1.2429
1560.00,1.2525
1559.00,1.1818
1558.00,1.0715
1557.00,0.9780
1556.00,0.9018
1555.00,0.8306
1554.00,0.7657
1553.00,0.7133
1552.00,0.6739
1551.00,0.6425
1550.00,0.6159
1549.00,0.5945
1548.00,0.5785
1547.00,0.5659
1546.00,0.5548
1545.00,0.5452
1544.00,0.5378
1543.00,0.5322
1542.00,0.5275
1541.00,0.5229
1540.00,0.5180
1539.00,0.5130
1538.00,0.5085
1537.00,0.5051
1536.00,0.5023
1535.00,0.4992
1534.00,0.4960
1533.00,0.4939
1532.00,0.4934
1531.00,0.4936
1530.00,0.4943
1529.00,0.4953
1528.00,0.4963
1527.00,0.4968
1526.00,0.4967
1525.00,0.4965
1524.00,0.4966
1523.00,0.4967
1522.00,0.4970
1521.00,0.4988
1520.00,0.5018
1519.00,0.5050
1518.00,0.5081
1517.00,0.5116
1516.00,0.5151
1515.00,0.5178
1514.00,0.5193
1513.00,0.5202
1512.00,0.5211
1511.00,0.5222
1510.00,0.5241
1509.00,0.5274
1508.00,0.5334
1507.00,0.5432
1506.00,0.5560
1505.00,0.5684
1504.00,0.5782
1503.00,0.5861
1502.00,0.5933
1501.00,0.6008
1500.00,0.6083
1499.00,0.6155
1498.00,0.6229
1497.00,0.6321
1496.00,0.6430
1495.00,0.6539
1494.00,0.6645
1493.00,0.6755
1492.00,0.6878
1491.00,0.7013
1490.00,0.7170
1489.00,0.7352
1488.00,0.7552
1487.00,0.7761
1486.00,0.7991
1485.00,0.8259
1484.00,0.8568
1483.00,0.8924
1482.00,0.9346
1481.00,0.9849
1480.00,1.0415
1479.00,1.1032
1478.00,1.1733
1477.00,1.2574
1476.00,1.3566
1475.00,1.4701
1474.00,1.6071
1473.00,1.7884
1472.00,2.0258
1471.00,2.3058
1470.00,2.6163
1469.00,2.9936
1468.00,3.4808
1467.00,4.0024
1466.00,4.3940
1465.00,4.5015
1464.00,4.1458
1463.00,3.6200
1462.00,3.4521
1461.00,3.5735
1460.00,3.8930
1459.00,3.9358
1458.00,3.9354
1457.00,4.1147
1456.00,4.1161
1455.00,4.0776
1454.00,3.7318
1453.00,3.6916
1452.00,3.6748
1451.00,3.4544
1450.00,3.3282
1449.00,3.3025
1448.00,3.2278
1447.00,3.0727
1446.00,2.9516
1445.00,2.8535
1444.00,2.7133
1443.00,2.5428
1442.00,2.3895
1441.00,2.2609
1440.00,2.1427
1439.00,2.0263
1438.00,1.9085
1437.00,1.7865
1436.00,1.6668
1435.00,1.5606
1434.00,1.4682
1433.00,1.3816
1432.00,1.2964
1431.00,1.2150
1430.00,1.1416
1429.00,1.0787
1428.00,1.0270
1427.00,0.9859
1426.00,0.9528
1425.00,0.9249
1424.00,0.9016
1423.00,0.8839
1422.00,0.8707
1421.00,0.8597
1420.00,0.8492
1419.00,0.8396
1418.00,0.8314
1417.00,0.8246
1416.00,0.8189
1415.00,0.8144
1414.00,0.8111
1413.00,0.8086
1412.00,0.8070
1411.00,0.8060
1410.00,0.8050
1409.00,0.8024
1408.00,0.7977
1407.00,0.7904
1406.00,0.7803
1405.00,0.7677
1404.00,0.7541
1403.00,0.7414
1402.00,0.7301
1401.00,0.7197
1400.00,0.7105
1399.00,0.7034
1398.00,0.6988
1397.00,0.6966
1396.00,0.6971
1395.00,0.7014
1394.00,0.7098
1393.00,0.7228
1392.00,0.7417
1391.00,0.7685
1390.00,0.8057
1389.00,0.8564
1388.00,0.9249
1387.00,1.0122
1386.00,1.1127
1385.00,1.2187
1384.00,1.3281
1383.00,1.4442
1382.00,1.5712
1381.00,1.7133
1380.00,1.8731
1379.00,2.0393
1378.00,2.1692
1377.00,2.2118
1376.00,2.1560
1375.00,2.0266
1374.00,1.8641
1373.00,1.7088
1372.00,1.5804
1371.00,1.4803
1370.00,1.4060
1369.00,1.3559
1368.00,1.3257
1367.00,1.3044
1366.00,1.2768
1365.00,1.2312
1364.00,1.1672
1363.00,1.0952
1362.00,1.0283
1361.00,0.9743
1360.00,0.9338
1359.00,0.9040
1358.00,0.8822
1357.00,0.8666
1356.00,0.8562
1355.00,0.8499
1354.00,0.8463
1353.00,0.8443
1352.00,0.8428
1351.00,0.8408
1350.00,0.8381
1349.00,0.8348
1348.00,0.8313
1347.00,0.8280
1346.00,0.8253
1345.00,0.8230
1344.00,0.8212
1343.00,0.8192
1342.00,0.8163
1341.00,0.8114
1340.00,0.8042
1339.00,0.7949
1338.00,0.7836
1337.00,0.7707
1336.00,0.7568
1335.00,0.7425
1334.00,0.7286
1333.00,0.7156
1332.00,0.7042
1331.00,0.6945
1330.00,0.6868
1329.00,0.6808
1328.00,0.6765
1327.00,0.6736
1326.00,0.6720
1325.00,0.6713
1324.00,0.6712
1323.00,0.6716
1322.00,0.6720
1321.00,0.6724
1320.00,0.6727
1319.00,0.6735
1318.00,0.6749
1317.00,0.6768
1316.00,0.6792
1315.00,0.6820
1314.00,0.6853
1313.00,0.6891
1312.00,0.6932
1311.00,0.6972
1310.00,0.7009
1309.00,0.7039
1308.00,0.7063
1307.00,0.7081
1306.00,0.7090
1305.00,0.7088
1304.00,0.7071
1303.00,0.7042
1302.00,0.7003
1301.00,0.6957
1300.00,0.6905
1299.00,0.6850
1298.00,0.6792
1297.00,0.6734
1296.00,0.6677
1295.00,0.6626
1294.00,0.6581
1293.00,0.6542
1292.00,0.6504
1291.00,0.6466
1290.00,0.6430
1289.00,0.6395
1288.00,0.6363
1287.00,0.6330
1286.00,0.6296
1285.00,0.6258
1284.00,0.6218
1283.00,0.6180
1282.00,0.6148
1281.00,0.6121
1280.00,0.6097
1279.00,0.6076
1278.00,0.6055
1277.00,0.6033
1276.00,0.6010
1275.00,0.5988
1274.00,0.5968
1273.00,0.5951
1272.00,0.5938
1271.00,0.5931
1270.00,0.5927
1269.00,0.5923
1268.00,0.5911
1267.00,0.5886
1266.00,0.5849
1265.00,0.5805
1264.00,0.5762
1263.00,0.5726
1262.00,0.5699
1261.00,0.5677
1260.00,0.5659
1259.00,0.5643
1258.00,0.5628
1257.00,0.5611
1256.00,0.5592
1255.00,0.5574
1254.00,0.5558
1253.00,0.5545
1252.00,0.5535
1251.00,0.5524
1250.00,0.5513
1249.00,0.5499
1248.00,0.5482
1247.00,0.5463
1246.00,0.5442
1245.00,0.5419
1244.00,0.5392
1243.00,0.5361
1242.00,0.5328
1241.00,0.5294
1240.00,0.5261
1239.00,0.5233
1238.00,0.5210
1237.00,0.5190
1236.00,0.5175
1235.00,0.5164
1234.00,0.5157
1233.00,0.5154
1232.00,0.5157
1231.00,0.5163
1230.00,0.5169
1229.00,0.5169
1228.00,0.5159
1227.00,0.5139
1226.00,0.5112
1225.00,0.5079
1224.00,0.5046
1223.00,0.5017
1222.00,0.4994
1221.00,0.4976
1220.00,0.4964
1219.00,0.4958
1218.00,0.4956
1217.00,0.4959
1216.00,0.4966
1215.00,0.4977
1214.00,0.4989
1213.00,0.4996
1212.00,0.4996
1211.00,0.4990
1210.00,0.4979
1209.00,0.4965
1208.00,0.4951
1207.00,0.4938
1206.00,0.4926
1205.00,0.4913
1204.00,0.4899
1203.00,0.4884
1202.00,0.4872
1201.00,0.4862
1200.00,0.4856
1199.00,0.4853
1198.00,0.4851
1197.00,0.4846
1196.00,0.4839
1195.00,0.4832
1194.00,0.4824
1193.00,0.4815
1192.00,0.4807
1191.00,0.4800
1190.00,0.4795
1189.00,0.4791
1188.00,0.4786
1187.00,0.4781
1186.00,0.4777
1185.00,0.4771
1184.00,0.4767
1183.00,0.4766
1182.00,0.4767
1181.00,0.4769
1180.00,0.4773
1179.00,0.4782
1178.00,0.4794
1177.00,0.4810
1176.00,0.4831
1175.00,0.4861
1174.00,0.4900
1173.00,0.4946
1172.00,0.4995
1171.00,0.5041
1170.00,0.5074
1169.00,0.5091
1168.00,0.5092
1167.00,0.5081
1166.00,0.5066
1165.00,0.5050
1164.00,0.5040
1163.00,0.5039
1162.00,0.5046
1161.00,0.5059
1160.00,0.5073
1159.00,0.5088
1158.00,0.5102
1157.00,0.5110
1156.00,0.5114
1155.00,0.5111
1154.00,0.5103
1153.00,0.5089
1152.00,0.5069
1151.00,0.5044
1150.00,0.5018
1149.00,0.4991
1148.00,0.4965
1147.00,0.4942
1146.00,0.4924
1145.00,0.4911
1144.00,0.4903
1143.00,0.4902
1142.00,0.4911
1141.00,0.4930
1140.00,0.4961
1139.00,0.5004
1138.00,0.5060
1137.00,0.5128
1136.00,0.5206
1135.00,0.5287
1134.00,0.5358
1133.00,0.5398
1132.00,0.5394
1131.00,0.5348
1130.00,0.5273
1129.00,0.5191
1128.00,0.5118
1127.00,0.5062
1126.00,0.5024
1125.00,0.4998
1124.00,0.4978
1123.00,0.4962
1122.00,0.4947
1121.00,0.4932
1120.00,0.4920
1119.00,0.4917
1118.00,0.4927
1117.00,0.4951
1116.00,0.4985
1115.00,0.5019
1114.00,0.5038
1113.00,0.5030
1112.00,0.4991
1111.00,0.4931
1110.00,0.4864
1109.00,0.4804
1108.00,0.4757
1107.00,0.4724
1106.00,0.4703
1105.00,0.4691
1104.00,0.4684
1103.00,0.4679
1102.00,0.4675
1101.00,0.4669
1100.00,0.4660
1099.00,0.4650
1098.00,0.4638
1097.00,0.4626
1096.00,0.4617
1095.00,0.4612
1094.00,0.4613
1093.00,0.4617
1092.00,0.4623
1091.00,0.4633
1090.00,0.4647
1089.00,0.4665
1088.00,0.4689
1087.00,0.4720
1086.00,0.4759
1085.00,0.4806
1084.00,0.4862
1083.00,0.4928
1082.00,0.5001
1081.00,0.5078
1080.00,0.5155
1079.00,0.5224
1078.00,0.5277
1077.00,0.5304
1076.00,0.5300
1075.00,0.5267
1074.00,0.5212
1073.00,0.5147
1072.00,0.5084
1071.00,0.5030
1070.00,0.4989
1069.00,0.4958
1068.00,0.4935
1067.00,0.4918
1066.00,0.4906
1065.00,0.4897
1064.00,0.4892
1063.00,0.4893
1062.00,0.4897
1061.00,0.4905
1060.00,0.4912
1059.00,0.4918
1058.00,0.4919
1057.00,0.4914
1056.00,0.4906
1055.00,0.4898
1054.00,0.4892
1053.00,0.4890
1052.00,0.4893
1051.00,0.4904
1050.00,0.4922
1049.00,0.4943
1048.00,0.4964
1047.00,0.4981
1046.00,0.4993
1045.00,0.4999
1044.00,0.5000
1043.00,0.4998
1042.00,0.4995
1041.00,0.4992
1040.00,0.4989
1039.00,0.4985
1038.00,0.4980
1037.00,0.4974
1036.00,0.4972
1035.00,0.4975
1034.00,0.4986
1033.00,0.5003
1032.00,0.5025
1031.00,0.5047
1030.00,0.5065
1029.00,0.5074
1028.00,0.5070
1027.00,0.5053
1026.00,0.5021
1025.00,0.4976
1024.00,0.4922
1023.00,0.4866
1022.00,0.4812
1021.00,0.4761
1020.00,0.4716
1019.00,0.4677
1018.00,0.4645
1017.00,0.4616
1016.00,0.4591
1015.00,0.4568
1014.00,0.4550
1013.00,0.4535
1012.00,0.4524
1011.00,0.4516
1010.00,0.4511
1009.00,0.4510
1008.00,0.4513
1007.00,0.4520
1006.00,0.4531
1005.00,0.4542
1004.00,0.4554
1003.00,0.4568
1002.00,0.4584
1001.00,0.4600
1000.00,0.4616
999.00,0.4627
998.00,0.4630
997.00,0.4623
996.00,0.4607
995.00,0.4583
994.00,0.4556
993.00,0.4525
992.00,0.4492
991.00,0.4459
990.00,0.4428
989.00,0.4401
988.00,0.4379
987.00,0.4365
986.00,0.4359
985.00,0.4360
984.00,0.4369
983.00,0.4385
982.00,0.4406
981.00,0.4429
980.00,0.4453
979.00,0.4477
978.00,0.4501
977.00,0.4522
976.00,0.4539
975.00,0.4552
974.00,0.4559
973.00,0.4562
972.00,0.4563
971.00,0.4563
970.00,0.4562
969.00,0.4560
968.00,0.4556
967.00,0.4552
966.00,0.4548
965.00,0.4543
964.00,0.4534
963.00,0.4521
962.00,0.4506
961.00,0.4490
960.00,0.4477
959.00,0.4467
958.00,0.4462
957.00,0.4457
956.00,0.4452
955.00,0.4446
954.00,0.4437
953.00,0.4426
952.00,0.4414
951.00,0.4402
950.00,0.4393
949.00,0.4389
948.00,0.4391
947.00,0.4397
946.00,0.4408
945.00,0.4419
944.00,0.4433
943.00,0.4447
942.00,0.4463
941.00,0.4477
940.00,0.4488
939.00,0.4496
938.00,0.4500
937.00,0.4499
936.00,0.4491
935.00,0.4476
934.00,0.4457
933.00,0.4434
932.00,0.4409
931.00,0.4385
930.00,0.4364
929.00,0.4349
928.00,0.4341
927.00,0.4343
926.00,0.4357
925.00,0.4386
924.00,0.4429
923.00,0.4482
922.00,0.4533
921.00,0.4566
920.00,0.4566
919.00,0.4531
918.00,0.4467
917.00,0.4386
916.00,0.4302
915.00,0.4224
914.00,0.4159
913.00,0.4107
912.00,0.4066
911.00,0.4035
910.00,0.4010
909.00,0.3990
908.00,0.3975
907.00,0.3965
906.00,0.3959
905.00,0.3956
904.00,0.3957
903.00,0.3962
902.00,0.3974
901.00,0.3991
900.00,0.4013
899.00,0.4041
898.00,0.4074
897.00,0.4111
896.00,0.4150
895.00,0.4190
894.00,0.4232
893.00,0.4275
892.00,0.4317
891.00,0.4354
890.00,0.4383
889.00,0.4399
888.00,0.4400
887.00,0.4387
886.00,0.4367
885.00,0.4345
884.00,0.4327
883.00,0.4316
882.00,0.4317
881.00,0.4326
880.00,0.4339
879.00,0.4352
878.00,0.4360
877.00,0.4363
876.00,0.4363
875.00,0.4363
874.00,0.4363
873.00,0.4363
872.00,0.4365
871.00,0.4370
870.00,0.4379
869.00,0.4392
868.00,0.4408
867.00,0.4430
866.00,0.4461
865.00,0.4501
864.00,0.4543
863.00,0.4578
862.00,0.4593
861.00,0.4576
860.00,0.4528
859.00,0.4461
858.00,0.4391
857.00,0.4330
856.00,0.4282
855.00,0.4248
854.00,0.4224
853.00,0.4205
852.00,0.4188
851.00,0.4172
850.00,0.4156
849.00,0.4136
848.00,0.4114
847.00,0.4089
846.00,0.4064
845.00,0.4039
844.00,0.4016
843.00,0.3997
842.00,0.3989
841.00,0.3998
840.00,0.4026
839.00,0.4074
838.00,0.4136
837.00,0.4200
836.00,0.4246
835.00,0.4260
834.00,0.4240
833.00,0.4197
832.00,0.4152
831.00,0.4120
830.00,0.4108
829.00,0.4118
828.00,0.4147
827.00,0.4190
826.00,0.4241
825.00,0.4295
824.00,0.4354
823.00,0.4418
822.00,0.4488
821.00,0.4560
820.00,0.4629
819.00,0.4693
818.00,0.4748
817.00,0.4788
816.00,0.4809
815.00,0.4812
814.00,0.4795
813.00,0.4761
812.00,0.4714
811.00,0.4660
810.00,0.4604
809.00,0.4549
808.00,0.4496
807.00,0.4445
806.00,0.4395
805.00,0.4345
804.00,0.4292
803.00,0.4235
802.00,0.4176
801.00,0.4119
800.00,0.4068
799.00,0.4027
798.00,0.3997
797.00,0.3975
796.00,0.3960
795.00,0.3953
794.00,0.3951
793.00,0.3953
792.00,0.3961
791.00,0.3975
790.00,0.3994
789.00,0.4016
788.00,0.4042
787.00,0.4074
786.00,0.4113
785.00,0.4160
784.00,0.4209
783.00,0.4255
782.00,0.4295
781.00,0.4326
780.00,0.4349
779.00,0.4368
778.00,0.4385
777.00,0.4401
776.00,0.4419
775.00,0.4438
774.00,0.4459
773.00,0.4480
772.00,0.4501
771.00,0.4527
770.00,0.4558
769.00,0.4592
768.00,0.4627
767.00,0.4657
766.00,0.4682
765.00,0.4701
764.00,0.4716
763.00,0.4735
762.00,0.4761
761.00,0.4797
760.00,0.4838
759.00,0.4881
758.00,0.4919
757.00,0.4949
756.00,0.4974
755.00,0.4997
754.00,0.5024
753.00,0.5057
752.00,0.5098
751.00,0.5145
750.00,0.5195
749.00,0.5240
748.00,0.5279
747.00,0.5314
746.00,0.5351
745.00,0.5393
744.00,0.5440
743.00,0.5492
742.00,0.5547
741.00,0.5600
740.00,0.5648
739.00,0.5692
738.00,0.5731
737.00,0.5768
736.00,0.5807
735.00,0.5854
734.00,0.5912
733.00,0.5978
732.00,0.6053
731.00,0.6144
730.00,0.6263
729.00,0.6415
728.00,0.6602
727.00,0.6826
726.00,0.7090
725.00,0.7383
724.00,0.7681
723.00,0.7927
722.00,0.8041
721.00,0.7948
720.00,0.7643
719.00,0.7205
718.00,0.6736
717.00,0.6306
716.00,0.5943
715.00,0.5650
714.00,0.5419
713.00,0.5235
712.00,0.5088
711.00,0.4967
710.00,0.4869
709.00,0.4787
708.00,0.4719
707.00,0.4662
706.00,0.4614
705.00,0.4572
704.00,0.4535
703.00,0.4507
702.00,0.4488
701.00,0.4476
700.00,0.4457
699.00,0.4407
698.00,0.4312
697.00,0.4172
696.00,0.4012
695.00,0.3861
694.00,0.3738
693.00,0.3646
692.00,0.3579
691.00,0.3531
690.00,0.3496
689.00,0.3468
688.00,0.3445
687.00,0.3428
686.00,0.3415
685.00,0.3404
684.00,0.3395
683.00,0.3387
682.00,0.3381
681.00,0.3376
680.00,0.3373
679.00,0.3372
678.00,0.3374
677.00,0.3376
676.00,0.3377
675.00,0.3378
674.00,0.3381
673.00,0.3385
672.00,0.3388
671.00,0.3392
670.00,0.3395
669.00,0.3398
668.00,0.3396
667.00,0.3392
666.00,0.3395
665.00,0.3402
664.00,0.3407
663.00,0.3415
662.00,0.3426
661.00,0.3439
660.00,0.3451
659.00,0.3462
658.00,0.3474
657.00,0.3486
656.00,0.3496
655.00,0.3504
654.00,0.3513
653.00,0.3523
652.00,0.3534
651.00,0.3547
650.00,0.3558
649.00,0.3568
648.00,0.3579
647.00,0.3592
646.00,0.3607
645.00,0.3621
644.00,0.3634
643.00,0.3648
642.00,0.3663
641.00,0.3676
640.00,0.3686
639.00,0.3694
638.00,0.3703
637.00,0.3711
636.00,0.3716
635.00,0.3720
634.00,0.3724
633.00,0.3728
632.00,0.3733
631.00,0.3743
630.00,0.3756
629.00,0.3770
628.00,0.3784
627.00,0.3801
626.00,0.3823
625.00,0.3851
624.00,0.3879
623.00,0.3904
622.00,0.3921
621.00,0.3932
620.00,0.3941
619.00,0.3954
618.00,0.3970
617.00,0.3985
616.00,0.3993
615.00,0.3995
614.00,0.3989
613.00,0.3976
612.00,0.3959
611.00,0.3945
610.00,0.3936
609.00,0.3929
608.00,0.3921
607.00,0.3911
606.00,0.3902
605.00,0.3895
604.00,0.3888
603.00,0.3883
602.00,0.3880
601.00,0.3879
600.00,0.3880
599.00,0.3882
598.00,0.3889
597.00,0.3898
596.00,0.3907
595.00,0.3917
594.00,0.3928
593.00,0.3943
592.00,0.3961
591.00,0.3980
590.00,0.3998
589.00,0.4015
588.00,0.4033
587.00,0.4053
586.00,0.4075
585.00,0.4099
584.00,0.4125
583.00,0.4154
582.00,0.4182
581.00,0.4209
580.00,0.4235
579.00,0.4259
578.00,0.4283
577.00,0.4304
576.00,0.4325
575.00,0.4347
574.00,0.4369
573.00,0.4388
572.00,0.4409
571.00,0.4435
570.00,0.4464
569.00,0.4491
568.00,0.4508
567.00,0.4518
566.00,0.4523
565.00,0.4525
564.00,0.4528
563.00,0.4533
562.00,0.4541
561.00,0.4554
560.00,0.4569
559.00,0.4581
558.00,0.4586
557.00,0.4586
556.00,0.4587
555.00,0.4597
554.00,0.4613
553.00,0.4629
552.00,0.4642
551.00,0.4656
550.00,0.4673
