Created as New Dataset,
cm-1,A
4000.00,0.3640
3999.00,0.3636
3998.00,0.3632
3997.00,0.3628
3996.00,0.3624
3995.00,0.3620
3994.00,0.3616
3993.00,0.3612
3992.00,0.3608
3991.00,0.3604
3990.00,0.3600
3989.00,0.3597
3988.00,0.3594
3987.00,0.3591
3986.00,0.3588
3985.00,0.3584
3984.00,0.3581
3983.00,0.3577
3982.00,0.3574
3981.00,0.3572
3980.00,0.3570
3979.00,0.3569
3978.00,0.3566
3977.00,0.3563
3976.00,0.3561
3975.00,0.3558
3974.00,0.3556
3973.00,0.3555
3972.00,0.3553
3971.00,0.3551
3970.00,0.3548
3969.00,0.3545
3968.00,0.3542
3967.00,0.3540
3966.00,0.3539
3965.00,0.3537
3964.00,0.3536
3963.00,0.3533
3962.00,0.3530
3961.00,0.3527
3960.00,0.3525
3959.00,0.3523
3958.00,0.3521
3957.00,0.3519
3956.00,0.3518
3955.00,0.3516
3954.00,0.3513
3953.00,0.3511
3952.00,0.3509
3951.00,0.3508
3950.00,0.3507
3949.00,0.3506
3948.00,0.3505
3947.00,0.3504
3946.00,0.3503
3945.00,0.3502
3944.00,0.3501
3943.00,0.3500
3942.00,0.3500
3941.00,0.3499
3940.00,0.3498
3939.00,0.3498
3938.00,0.3497
3937.00,0.3497
3936.00,0.3496
3935.00,0.3496
3934.00,0.3496
3933.00,0.3496
3932.00,0.3497
3931.00,0.3496
3930.00,0.3496
3929.00,0.3495
3928.00,0.3495
3927.00,0.3494
3926.00,0.3493
3925.00,0.3493
3924.00,0.3492
3923.00,0.3491
3922.00,0.3491
3921.00,0.3490
3920.00,0.3489
3919.00,0.3488
3918.00,0.3487
3917.00,0.3487
3916.00,0.3487
3915.00,0.3486
3914.00,0.3484
3913.00,0.3482
3912.00,0.3481
3911.00,0.3480
3910.00,0.3479
3909.00,0.3479
3908.00,0.3479
3907.00,0.3480
3906.00,0.3482
3905.00,0.3483
3904.00,0.3483
3903.00,0.3484
3902.00,0.3485
3901.00,0.3487
3900.00,0.3488
3899.00,0.3488
3898.00,0.3487
3897.00,0.3486
3896.00,0.3484
3895.00,0.3482
3894.00,0.3480
3893.00,0.3479
3892.00,0.3478
3891.00,0.3477
3890.00,0.3475
3889.00,0.3474
3888.00,0.3474
3887.00,0.3474
3886.00,0.3474
3885.00,0.3473
3884.00,0.3472
3883.00,0.3472
3882.00,0.3472
3881.00,0.3471
3880.00,0.3469
3879.00,0.3467
3878.00,0.3464
3877.00,0.3462
3876.00,0.3461
3875.00,0.3460
3874.00,0.3459
3873.00,0.3459
3872.00,0.3458
3871.00,0.3459
3870.00,0.3459
3869.00,0.3460
3868.00,0.3460
3867.00,0.3461
3866.00,0.3461
3865.00,0.3460
3864.00,0.3459
3863.00,0.3456
3862.00,0.3454
3861.00,0.3452
3860.00,0.3451
3859.00,0.3450
3858.00,0.3450
3857.00,0.3451
3856.00,0.3452
3855.00,0.3453
3854.00,0.3454
3853.00,0.3454
3852.00,0.3455
3851.00,0.3455
3850.00,0.3454
3849.00,0.3452
3848.00,0.3449
3847.00,0.3446
3846.00,0.3442
3845.00,0.3440
3844.00,0.3438
3843.00,0.3437
3842.00,0.3436
3841.00,0.3435
3840.00,0.3435
3839.00,0.3436
3838.00,0.3437
3837.00,0.3438
3836.00,0.3438
3835.00,0.3438
3834.00,0.3437
3833.00,0.3436
3832.00,0.3433
3831.00,0.3431
3830.00,0.3428
3829.00,0.3426
3828.00,0.3425
3827.00,0.3424
3826.00,0.3424
3825.00,0.3424
3824.00,0.3424
3823.00,0.3424
3822.00,0.3425
3821.00,0.3426
3820.00,0.3425
3819.00,0.3425
3818.00,0.3423
3817.00,0.3422
3816.00,0.3420
3815.00,0.3417
3814.00,0.3414
3813.00,0.3411
3812.00,0.3408
3811.00,0.3405
3810.00,0.3402
3809.00,0.3400
3808.00,0.3397
3807.00,0.3395
3806.00,0.3393
3805.00,0.3391
3804.00,0.3390
3803.00,0.3390
3802.00,0.3389
3801.00,0.3388
3800.00,0.3386
3799.00,0.3385
3798.00,0.3384
3797.00,0.3382
3796.00,0.3380
3795.00,0.3377
3794.00,0.3374
3793.00,0.3371
3792.00,0.3369
3791.00,0.3367
3790.00,0.3365
3789.00,0.3363
3788.00,0.3361
3787.00,0.3360
3786.00,0.3359
3785.00,0.3357
3784.00,0.3356
3783.00,0.3355
3782.00,0.3354
3781.00,0.3354
3780.00,0.3352
3779.00,0.3351
3778.00,0.3349
3777.00,0.3347
3776.00,0.3346
3775.00,0.3344
3774.00,0.3342
3773.00,0.3340
3772.00,0.3338
3771.00,0.3336
3770.00,0.3335
3769.00,0.3333
3768.00,0.3333
3767.00,0.3332
3766.00,0.3331
3765.00,0.3330
3764.00,0.3329
3763.00,0.3328
3762.00,0.3326
3761.00,0.3324
3760.00,0.3321
3759.00,0.3319
3758.00,0.3317
3757.00,0.3315
3756.00,0.3315
3755.00,0.3314
3754.00,0.3314
3753.00,0.3314
3752.00,0.3315
3751.00,0.3315
3750.00,0.3317
3749.00,0.3317
3748.00,0.3318
3747.00,0.3319
3746.00,0.3320
3745.00,0.3319
3744.00,0.3316
3743.00,0.3312
3742.00,0.3309
3741.00,0.3306
3740.00,0.3304
3739.00,0.3302
3738.00,0.3300
3737.00,0.3298
3736.00,0.3297
3735.00,0.3296
3734.00,0.3296
3733.00,0.3295
3732.00,0.3294
3731.00,0.3292
3730.00,0.3289
3729.00,0.3286
3728.00,0.3283
3727.00,0.3280
3726.00,0.3278
3725.00,0.3275
3724.00,0.3273
3723.00,0.3271
3722.00,0.3269
3721.00,0.3266
3720.00,0.3264
3719.00,0.3263
3718.00,0.3262
3717.00,0.3261
3716.00,0.3260
3715.00,0.3259
3714.00,0.3259
3713.00,0.3260
3712.00,0.3261
3711.00,0.3262
3710.00,0.3263
3709.00,0.3263
3708.00,0.3262
3707.00,0.3261
3706.00,0.3259
3705.00,0.3257
3704.00,0.3256
3703.00,0.3256
3702.00,0.3256
3701.00,0.3255
3700.00,0.3254
3699.00,0.3253
3698.00,0.3252
3697.00,0.3251
3696.00,0.3249
3695.00,0.3248
3694.00,0.3248
3693.00,0.3249
3692.00,0.3251
3691.00,0.3253
3690.00,0.3256
3689.00,0.3257
3688.00,0.3258
3687.00,0.3257
3686.00,0.3257
3685.00,0.3255
3684.00,0.3254
3683.00,0.3252
3682.00,0.3249
3681.00,0.3247
3680.00,0.3246
3679.00,0.3246
3678.00,0.3246
3677.00,0.3248
3676.00,0.3249
3675.00,0.3251
3674.00,0.3251
3673.00,0.3252
3672.00,0.3253
3671.00,0.3254
3670.00,0.3254
3669.00,0.3252
3668.00,0.3250
3667.00,0.3248
3666.00,0.3246
3665.00,0.3245
3664.00,0.3242
3663.00,0.3240
3662.00,0.3239
3661.00,0.3239
3660.00,0.3239
3659.00,0.3240
3658.00,0.3242
3657.00,0.3244
3656.00,0.3246
3655.00,0.3248
3654.00,0.3250
3653.00,0.3253
3652.00,0.3257
3651.00,0.3260
3650.00,0.3263
3649.00,0.3265
3648.00,0.3267
3647.00,0.3269
3646.00,0.3270
3645.00,0.3269
3644.00,0.3268
3643.00,0.3267
3642.00,0.3266
3641.00,0.3265
3640.00,0.3265
3639.00,0.3266
3638.00,0.3267
3637.00,0.3269
3636.00,0.3271
3635.00,0.3273
3634.00,0.3274
3633.00,0.3277
3632.00,0.3279
3631.00,0.3283
3630.00,0.3287
3629.00,0.3293
3628.00,0.3298
3627.00,0.3303
3626.00,0.3307
3625.00,0.3311
3624.00,0.3313
3623.00,0.3314
3622.00,0.3314
3621.00,0.3313
3620.00,0.3311
3619.00,0.3308
3618.00,0.3305
3617.00,0.3303
3616.00,0.3302
3615.00,0.3302
3614.00,0.3302
3613.00,0.3302
3612.00,0.3302
3611.00,0.3302
3610.00,0.3302
3609.00,0.3302
3608.00,0.3303
3607.00,0.3303
3606.00,0.3302
3605.00,0.3300
3604.00,0.3298
3603.00,0.3294
3602.00,0.3290
3601.00,0.3286
3600.00,0.3281
3599.00,0.3276
3598.00,0.3271
3597.00,0.3266
3596.00,0.3260
3595.00,0.3254
3594.00,0.3250
3593.00,0.3246
3592.00,0.3242
3591.00,0.3238
3590.00,0.3235
3589.00,0.3232
3588.00,0.3231
3587.00,0.3229
3586.00,0.3228
3585.00,0.3227
3584.00,0.3226
3583.00,0.3225
3582.00,0.3224
3581.00,0.3224
3580.00,0.3223
3579.00,0.3223
3578.00,0.3223
3577.00,0.3224
3576.00,0.3224
3575.00,0.3225
3574.00,0.3226
3573.00,0.3227
3572.00,0.3228
3571.00,0.3229
3570.00,0.3231
3569.00,0.3233
3568.00,0.3236
3567.00,0.3238
3566.00,0.3240
3565.00,0.3241
3564.00,0.3243
3563.00,0.3245
3562.00,0.3247
3561.00,0.3247
3560.00,0.3248
3559.00,0.3248
3558.00,0.3250
3557.00,0.3252
3556.00,0.3255
3555.00,0.3258
3554.00,0.3261
3553.00,0.3264
3552.00,0.3267
3551.00,0.3271
3550.00,0.3275
3549.00,0.3279
3548.00,0.3284
3547.00,0.3289
3546.00,0.3293
3545.00,0.3297
3544.00,0.3301
3543.00,0.3305
3542.00,0.3308
3541.00,0.3312
3540.00,0.3316
3539.00,0.3320
3538.00,0.3323
3537.00,0.3326
3536.00,0.3329
3535.00,0.3331
3534.00,0.3334
3533.00,0.3336
3532.00,0.3339
3531.00,0.3341
3530.00,0.3344
3529.00,0.3347
3528.00,0.3350
3527.00,0.3352
3526.00,0.3355
3525.00,0.3358
3524.00,0.3361
3523.00,0.3363
3522.00,0.3366
3521.00,0.3369
3520.00,0.3373
3519.00,0.3376
3518.00,0.3380
3517.00,0.3384
3516.00,0.3388
3515.00,0.3392
3514.00,0.3396
3513.00,0.3400
3512.00,0.3404
3511.00,0.3408
3510.00,0.3413
3509.00,0.3419
3508.00,0.3425
3507.00,0.3431
3506.00,0.3436
3505.00,0.3441
3504.00,0.3446
3503.00,0.3450
3502.00,0.3455
3501.00,0.3460
3500.00,0.3466
3499.00,0.3472
3498.00,0.3478
3497.00,0.3484
3496.00,0.3490
3495.00,0.3496
3494.00,0.3502
3493.00,0.3508
3492.00,0.3514
3491.00,0.3520
3490.00,0.3526
3489.00,0.3532
3488.00,0.3539
3487.00,0.3546
3486.00,0.3552
3485.00,0.3558
3484.00,0.3563
3483.00,0.3568
3482.00,0.3573
3481.00,0.3578
3480.00,0.3583
3479.00,0.3588
3478.00,0.3593
3477.00,0.3598
3476.00,0.3603
3475.00,0.3607
3474.00,0.3612
3473.00,0.3618
3472.00,0.3623
3471.00,0.3628
3470.00,0.3634
3469.00,0.3639
3468.00,0.3644
3467.00,0.3650
3466.00,0.3655
3465.00,0.3662
3464.00,0.3668
3463.00,0.3675
3462.00,0.3681
3461.00,0.3688
3460.00,0.3694
3459.00,0.3699
3458.00,0.3705
3457.00,0.3710
3456.00,0.3716
3455.00,0.3722
3454.00,0.3727
3453.00,0.3734
3452.00,0.3740
3451.00,0.3747
3450.00,0.3753
3449.00,0.3760
3448.00,0.3767
3447.00,0.3774
3446.00,0.3781
3445.00,0.3787
3444.00,0.3793
3443.00,0.3800
3442.00,0.3807
3441.00,0.3815
3440.00,0.3823
3439.00,0.3831
3438.00,0.3839
3437.00,0.3846
3436.00,0.3854
3435.00,0.3862
3434.00,0.3870
3433.00,0.3877
3432.00,0.3884
3431.00,0.3892
3430.00,0.3899
3429.00,0.3907
3428.00,0.3914
3427.00,0.3922
3426.00,0.3930
3425.00,0.3938
3424.00,0.3946
3423.00,0.3953
3422.00,0.3961
3421.00,0.3969
3420.00,0.3978
3419.00,0.3986
3418.00,0.3995
3417.00,0.4004
3416.00,0.4012
3415.00,0.4021
3414.00,0.4030
3413.00,0.4039
3412.00,0.4048
3411.00,0.4057
3410.00,0.4066
3409.00,0.4075
3408.00,0.4084
3407.00,0.4094
3406.00,0.4104
3405.00,0.4114
3404.00,0.4124
3403.00,0.4134
3402.00,0.4145
3401.00,0.4155
3400.00,0.4166
3399.00,0.4176
3398.00,0.4186
3397.00,0.4197
3396.00,0.4208
3395.00,0.4219
3394.00,0.4230
3393.00,0.4241
3392.00,0.4251
3391.00,0.4260
3390.00,0.4270
3389.00,0.4281
3388.00,0.4292
3387.00,0.4303
3386.00,0.4314
3385.00,0.4325
3384.00,0.4336
3383.00,0.4347
3382.00,0.4358
3381.00,0.4368
3380.00,0.4379
3379.00,0.4391
3378.00,0.4403
3377.00,0.4415
3376.00,0.4428
3375.00,0.4441
3374.00,0.4453
3373.00,0.4465
3372.00,0.4477
3371.00,0.4490
3370.00,0.4504
3369.00,0.4518
3368.00,0.4532
3367.00,0.4546
3366.00,0.4561
3365.00,0.4575
3364.00,0.4591
3363.00,0.4606
3362.00,0.4621
3361.00,0.4636
3360.00,0.4651
3359.00,0.4666
3358.00,0.4681
3357.00,0.4696
3356.00,0.4712
3355.00,0.4728
3354.00,0.4744
3353.00,0.4761
3352.00,0.4778
3351.00,0.4794
3350.00,0.4810
3349.00,0.4826
3348.00,0.4841
3347.00,0.4855
3346.00,0.4868
3345.00,0.4881
3344.00,0.4894
3343.00,0.4907
3342.00,0.4920
3341.00,0.4933
3340.00,0.4945
3339.00,0.4957
3338.00,0.4968
3337.00,0.4979
3336.00,0.4988
3335.00,0.4997
3334.00,0.5005
3333.00,0.5013
3332.00,0.5021
3331.00,0.5027
3330.00,0.5032
3329.00,0.5036
3328.00,0.5039
3327.00,0.5041
3326.00,0.5042
3325.00,0.5042
3324.00,0.5042
3323.00,0.5041
3322.00,0.5039
3321.00,0.5038
3320.00,0.5036
3319.00,0.5033
3318.00,0.5028
3317.00,0.5023
3316.00,0.5017
3315.00,0.5011
3314.00,0.5005
3313.00,0.4997
3312.00,0.4990
3311.00,0.4981
3310.00,0.4973
3309.00,0.4964
3308.00,0.4956
3307.00,0.4948
3306.00,0.4940
3305.00,0.4932
3304.00,0.4924
3303.00,0.4916
3302.00,0.4907
3301.00,0.4899
3300.00,0.4891
3299.00,0.4885
3298.00,0.4878
3297.00,0.4871
3296.00,0.4864
3295.00,0.4858
3294.00,0.4852
3293.00,0.4847
3292.00,0.4844
3291.00,0.4840
3290.00,0.4838
3289.00,0.4835
3288.00,0.4832
3287.00,0.4829
3286.00,0.4827
3285.00,0.4826
3284.00,0.4825
3283.00,0.4825
3282.00,0.4825
3281.00,0.4826
3280.00,0.4827
3279.00,0.4829
3278.00,0.4831
3277.00,0.4832
3276.00,0.4835
3275.00,0.4837
3274.00,0.4839
3273.00,0.4842
3272.00,0.4846
3271.00,0.4851
3270.00,0.4855
3269.00,0.4859
3268.00,0.4862
3267.00,0.4866
3266.00,0.4869
3265.00,0.4874
3264.00,0.4878
3263.00,0.4884
3262.00,0.4890
3261.00,0.4895
3260.00,0.4901
3259.00,0.4906
3258.00,0.4911
3257.00,0.4917
3256.00,0.4923
3255.00,0.4929
3254.00,0.4934
3253.00,0.4938
3252.00,0.4943
3251.00,0.4947
3250.00,0.4952
3249.00,0.4957
3248.00,0.4962
3247.00,0.4967
3246.00,0.4971
3245.00,0.4974
3244.00,0.4978
3243.00,0.4981
3242.00,0.4985
3241.00,0.4988
3240.00,0.4990
3239.00,0.4992
3238.00,0.4994
3237.00,0.4995
3236.00,0.4997
3235.00,0.4998
3234.00,0.4999
3233.00,0.4999
3232.00,0.5000
3231.00,0.5000
3230.00,0.4999
3229.00,0.4998
3228.00,0.4997
3227.00,0.4996
3226.00,0.4995
3225.00,0.4994
3224.00,0.4994
3223.00,0.4993
3222.00,0.4991
3221.00,0.4990
3220.00,0.4988
3219.00,0.4986
3218.00,0.4984
3217.00,0.4982
3216.00,0.4980
3215.00,0.4978
3214.00,0.4975
3213.00,0.4973
3212.00,0.4971
3211.00,0.4969
3210.00,0.4968
3209.00,0.4966
3208.00,0.4964
3207.00,0.4961
3206.00,0.4958
3205.00,0.4954
3204.00,0.4950
3203.00,0.4947
3202.00,0.4943
3201.00,0.4941
3200.00,0.4938
3199.00,0.4935
3198.00,0.4932
3197.00,0.4928
3196.00,0.4923
3195.00,0.4918
3194.00,0.4913
3193.00,0.4909
3192.00,0.4905
3191.00,0.4900
3190.00,0.4895
3189.00,0.4890
3188.00,0.4885
3187.00,0.4880
3186.00,0.4875
3185.00,0.4870
3184.00,0.4864
3183.00,0.4859
3182.00,0.4853
3181.00,0.4848
3180.00,0.4842
3179.00,0.4836
3178.00,0.4830
3177.00,0.4823
3176.00,0.4815
3175.00,0.4807
3174.00,0.4799
3173.00,0.4792
3172.00,0.4786
3171.00,0.4780
3170.00,0.4773
3169.00,0.4765
3168.00,0.4757
3167.00,0.4748
3166.00,0.4740
3165.00,0.4732
3164.00,0.4724
3163.00,0.4716
3162.00,0.4708
3161.00,0.4700
3160.00,0.4691
3159.00,0.4682
3158.00,0.4674
3157.00,0.4666
3156.00,0.4659
3155.00,0.4651
3154.00,0.4644
3153.00,0.4637
3152.00,0.4629
3151.00,0.4622
3150.00,0.4615
3149.00,0.4609
3148.00,0.4602
3147.00,0.4595
3146.00,0.4589
3145.00,0.4583
3144.00,0.4577
3143.00,0.4572
3142.00,0.4567
3141.00,0.4562
3140.00,0.4558
3139.00,0.4554
3138.00,0.4549
3137.00,0.4545
3136.00,0.4541
3135.00,0.4536
3134.00,0.4532
3133.00,0.4527
3132.00,0.4525
3131.00,0.4523
3130.00,0.4522
3129.00,0.4521
3128.00,0.4519
3127.00,0.4518
3126.00,0.4517
3125.00,0.4517
3124.00,0.4517
3123.00,0.4518
3122.00,0.4519
3121.00,0.4521
3120.00,0.4523
3119.00,0.4526
3118.00,0.4529
3117.00,0.4533
3116.00,0.4537
3115.00,0.4541
3114.00,0.4546
3113.00,0.4551
3112.00,0.4556
3111.00,0.4562
3110.00,0.4568
3109.00,0.4574
3108.00,0.4582
3107.00,0.4590
3106.00,0.4598
3105.00,0.4606
3104.00,0.4615
3103.00,0.4623
3102.00,0.4631
3101.00,0.4639
3100.00,0.4647
3099.00,0.4656
3098.00,0.4666
3097.00,0.4677
3096.00,0.4689
3095.00,0.4702
3094.00,0.4717
3093.00,0.4734
3092.00,0.4753
3091.00,0.4773
3090.00,0.4794
3089.00,0.4818
3088.00,0.4843
3087.00,0.4869
3086.00,0.4896
3085.00,0.4925
3084.00,0.4955
3083.00,0.4986
3082.00,0.5017
3081.00,0.5049
3080.00,0.5084
3079.00,0.5120
3078.00,0.5159
3077.00,0.5199
3076.00,0.5241
3075.00,0.5284
3074.00,0.5327
3073.00,0.5370
3072.00,0.5413
3071.00,0.5457
3070.00,0.5500
3069.00,0.5544
3068.00,0.5588
3067.00,0.5632
3066.00,0.5675
3065.00,0.5715
3064.00,0.5754
3063.00,0.5789
3062.00,0.5822
3061.00,0.5852
3060.00,0.5881
3059.00,0.5909
3058.00,0.5938
3057.00,0.5966
3056.00,0.5994
3055.00,0.6022
3054.00,0.6053
3053.00,0.6086
3052.00,0.6123
3051.00,0.6161
3050.00,0.6202
3049.00,0.6245
3048.00,0.6289
3047.00,0.6335
3046.00,0.6381
3045.00,0.6427
3044.00,0.6473
3043.00,0.6519
3042.00,0.6564
3041.00,0.6609
3040.00,0.6654
3039.00,0.6701
3038.00,0.6750
3037.00,0.6801
3036.00,0.6855
3035.00,0.6913
3034.00,0.6975
3033.00,0.7043
3032.00,0.7116
3031.00,0.7193
3030.00,0.7275
3029.00,0.7362
3028.00,0.7451
3027.00,0.7543
3026.00,0.7639
3025.00,0.7739
3024.00,0.7842
3023.00,0.7946
3022.00,0.8053
3021.00,0.8164
3020.00,0.8278
3019.00,0.8395
3018.00,0.8515
3017.00,0.8636
3016.00,0.8757
3015.00,0.8878
3014.00,0.9000
3013.00,0.9123
3012.00,0.9249
3011.00,0.9380
3010.00,0.9517
3009.00,0.9661
3008.00,0.9812
3007.00,0.9968
3006.00,1.0130
3005.00,1.0301
3004.00,1.0478
3003.00,1.0661
3002.00,1.0846
3001.00,1.1035
3000.00,1.1232
2999.00,1.1442
2998.00,1.1669
2997.00,1.1915
2996.00,1.2184
2995.00,1.2483
2994.00,1.2817
2993.00,1.3192
2992.00,1.3610
2991.00,1.4075
2990.00,1.4594
2989.00,1.5169
2988.00,1.5806
2987.00,1.6512
2986.00,1.7300
2985.00,1.8183
2984.00,1.9172
2983.00,2.0278
2982.00,2.1504
2981.00,2.2843
2980.00,2.4281
2979.00,2.5816
2978.00,2.7466
2977.00,2.9229
2976.00,3.1069
2975.00,3.2916
2974.00,3.4565
2973.00,3.5544
2972.00,3.5733
2971.00,3.5905
2970.00,3.6670
2969.00,3.7821
2968.00,3.8275
2967.00,3.7689
2966.00,3.7282
2965.00,3.7817
2964.00,3.9469
2963.00,4.1247
2962.00,4.1317
2961.00,4.1149
2960.00,4.2354
2959.00,4.3051
2958.00,4.0917
2957.00,3.9237
2956.00,3.9114
2955.00,4.0608
2954.00,4.3334
2953.00,4.5039
2952.00,4.4940
2951.00,4.3962
2950.00,4.5553
2949.00,4.7820
2948.00,4.3194
2947.00,4.0414
2946.00,3.9272
2945.00,3.9860
2944.00,4.1015
2943.00,4.1449
2942.00,4.1002
2941.00,3.9912
2940.00,3.9128
2939.00,3.9022
2938.00,3.9664
2937.00,4.0454
2936.00,4.0647
2935.00,4.0241
2934.00,4.0705
2933.00,4.2321
2932.00,4.2315
2931.00,4.1378
2930.00,4.1701
2929.00,4.4034
2928.00,4.4541
2927.00,4.2703
2926.00,4.0946
2925.00,3.9940
2924.00,3.9607
2923.00,4.0200
2922.00,4.1322
2921.00,4.1722
2920.00,4.2288
2919.00,4.3459
2918.00,4.3937
2917.00,4.2394
2916.00,4.0531
2915.00,3.9636
2914.00,4.0567
2913.00,4.4103
2912.00,4.6381
2911.00,4.4124
2910.00,4.1403
2909.00,4.0837
2908.00,4.0867
2907.00,4.1822
2906.00,4.5162
2905.00,4.7785
2904.00,4.5230
2903.00,4.1237
2902.00,4.0031
2901.00,4.0993
2900.00,4.1947
2899.00,4.0823
2898.00,4.0294
2897.00,4.1872
2896.00,4.2162
2895.00,4.0288
2894.00,3.9575
2893.00,4.0623
2892.00,4.2374
2891.00,4.3696
2890.00,4.3009
2889.00,4.1330
2888.00,4.0090
2887.00,3.9428
2886.00,3.9493
2885.00,4.1147
2884.00,4.3679
2883.00,4.3441
2882.00,4.1835
2881.00,4.0572
2880.00,3.9167
2879.00,3.7732
2878.00,3.7217
2877.00,3.7584
2876.00,3.8391
2875.00,3.9235
2874.00,3.9691
2873.00,4.1512
2872.00,4.5505
2871.00,4.4873
2870.00,4.3843
2869.00,4.3552
2868.00,4.4206
2867.00,4.2551
2866.00,4.1034
2865.00,4.0992
2864.00,4.1142
2863.00,3.9993
2862.00,3.8142
2861.00,3.7253
2860.00,3.7595
2859.00,3.8172
2858.00,3.8481
2857.00,3.9292
2856.00,4.0724
2855.00,4.1511
2854.00,4.2166
2853.00,4.4701
2852.00,4.6570
2851.00,4.4384
2850.00,4.2291
2849.00,4.1836
2848.00,4.1346
2847.00,4.0382
2846.00,4.0087
2845.00,4.0251
2844.00,4.0782
2843.00,4.1652
2842.00,4.2052
2841.00,4.1911
2840.00,4.1162
2839.00,3.8564
2838.00,3.5144
2837.00,3.2109
2836.00,2.9651
2835.00,2.7586
2834.00,2.5772
2833.00,2.4129
2832.00,2.2624
2831.00,2.1264
2830.00,2.0052
2829.00,1.8980
2828.00,1.8026
2827.00,1.7175
2826.00,1.6408
2825.00,1.5714
2824.00,1.5082
2823.00,1.4504
2822.00,1.3972
2821.00,1.3483
2820.00,1.3033
2819.00,1.2617
2818.00,1.2232
2817.00,1.1876
2816.00,1.1544
2815.00,1.1234
2814.00,1.0943
2813.00,1.0670
2812.00,1.0413
2811.00,1.0170
2810.00,0.9939
2809.00,0.9719
2808.00,0.9510
2807.00,0.9313
2806.00,0.9126
2805.00,0.8948
2804.00,0.8779
2803.00,0.8619
2802.00,0.8467
2801.00,0.8324
2800.00,0.8186
2799.00,0.8054
2798.00,0.7927
2797.00,0.7805
2796.00,0.7688
2795.00,0.7576
2794.00,0.7468
2793.00,0.7362
2792.00,0.7259
2791.00,0.7158
2790.00,0.7060
2789.00,0.6965
2788.00,0.6872
2787.00,0.6781
2786.00,0.6692
2785.00,0.6605
2784.00,0.6521
2783.00,0.6439
2782.00,0.6359
2781.00,0.6282
2780.00,0.6208
2779.00,0.6137
2778.00,0.6070
2777.00,0.6007
2776.00,0.5946
2775.00,0.5890
2774.00,0.5837
2773.00,0.5788
2772.00,0.5742
2771.00,0.5699
2770.00,0.5659
2769.00,0.5624
2768.00,0.5592
2767.00,0.5563
2766.00,0.5538
2765.00,0.5516
2764.00,0.5496
2763.00,0.5479
2762.00,0.5464
2761.00,0.5449
2760.00,0.5436
2759.00,0.5423
2758.00,0.5410
2757.00,0.5398
2756.00,0.5386
2755.00,0.5376
2754.00,0.5368
2753.00,0.5362
2752.00,0.5357
2751.00,0.5353
2750.00,0.5351
2749.00,0.5351
2748.00,0.5353
2747.00,0.5358
2746.00,0.5365
2745.00,0.5376
2744.00,0.5389
2743.00,0.5405
2742.00,0.5426
2741.00,0.5450
2740.00,0.5478
2739.00,0.5511
2738.00,0.5550
2737.00,0.5593
2736.00,0.5641
2735.00,0.5692
2734.00,0.5745
2733.00,0.5798
2732.00,0.5846
2731.00,0.5887
2730.00,0.5918
2729.00,0.5938
2728.00,0.5946
2727.00,0.5944
2726.00,0.5935
2725.00,0.5920
2724.00,0.5901
2723.00,0.5878
2722.00,0.5850
2721.00,0.5819
2720.00,0.5785
2719.00,0.5749
2718.00,0.5709
2717.00,0.5668
2716.00,0.5625
2715.00,0.5580
2714.00,0.5535
2713.00,0.5491
2712.00,0.5449
2711.00,0.5411
2710.00,0.5377
2709.00,0.5348
2708.00,0.5323
2707.00,0.5302
2706.00,0.5284
2705.00,0.5269
2704.00,0.5257
2703.00,0.5247
2702.00,0.5241
2701.00,0.5236
2700.00,0.5234
2699.00,0.5234
2698.00,0.5236
2697.00,0.5239
2696.00,0.5244
2695.00,0.5249
2694.00,0.5256
2693.00,0.5263
2692.00,0.5272
2691.00,0.5281
2690.00,0.5290
2689.00,0.5298
2688.00,0.5305
2687.00,0.5312
2686.00,0.5318
2685.00,0.5324
2684.00,0.5329
2683.00,0.5334
2682.00,0.5337
2681.00,0.5341
2680.00,0.5345
2679.00,0.5350
2678.00,0.5355
2677.00,0.5360
2676.00,0.5365
2675.00,0.5369
2674.00,0.5373
2673.00,0.5376
2672.00,0.5379
2671.00,0.5380
2670.00,0.5378
2669.00,0.5374
2668.00,0.5366
2667.00,0.5354
2666.00,0.5339
2665.00,0.5323
2664.00,0.5307
2663.00,0.5289
2662.00,0.5270
2661.00,0.5250
2660.00,0.5228
2659.00,0.5207
2658.00,0.5185
2657.00,0.5164
2656.00,0.5143
2655.00,0.5123
2654.00,0.5103
2653.00,0.5085
2652.00,0.5067
2651.00,0.5051
2650.00,0.5036
2649.00,0.5023
2648.00,0.5010
2647.00,0.4997
2646.00,0.4984
2645.00,0.4973
2644.00,0.4961
2643.00,0.4951
2642.00,0.4940
2641.00,0.4930
2640.00,0.4920
2639.00,0.4911
2638.00,0.4902
2637.00,0.4895
2636.00,0.4888
2635.00,0.4881
2634.00,0.4873
2633.00,0.4864
2632.00,0.4855
2631.00,0.4845
2630.00,0.4836
2629.00,0.4827
2628.00,0.4818
2627.00,0.4808
2626.00,0.4797
2625.00,0.4786
2624.00,0.4776
2623.00,0.4766
2622.00,0.4758
2621.00,0.4750
2620.00,0.4743
2619.00,0.4734
2618.00,0.4725
2617.00,0.4717
2616.00,0.4708
2615.00,0.4699
2614.00,0.4691
2613.00,0.4682
2612.00,0.4673
2611.00,0.4664
2610.00,0.4656
2609.00,0.4647
2608.00,0.4639
2607.00,0.4630
2606.00,0.4621
2605.00,0.4611
2604.00,0.4602
2603.00,0.4591
2602.00,0.4581
2601.00,0.4570
2600.00,0.4558
2599.00,0.4546
2598.00,0.4533
2597.00,0.4519
2596.00,0.4505
2595.00,0.4490
2594.00,0.4474
2593.00,0.4458
2592.00,0.4441
2591.00,0.4424
2590.00,0.4406
2589.00,0.4389
2588.00,0.4372
2587.00,0.4356
2586.00,0.4339
2585.00,0.4323
2584.00,0.4306
2583.00,0.4290
2582.00,0.4273
2581.00,0.4257
2580.00,0.4240
2579.00,0.4224
2578.00,0.4207
2577.00,0.4191
2576.00,0.4176
2575.00,0.4160
2574.00,0.4145
2573.00,0.4130
2572.00,0.4116
2571.00,0.4102
2570.00,0.4088
2569.00,0.4074
2568.00,0.4060
2567.00,0.4046
2566.00,0.4033
2565.00,0.4019
2564.00,0.4005
2563.00,0.3991
2562.00,0.3977
2561.00,0.3963
2560.00,0.3949
2559.00,0.3936
2558.00,0.3922
2557.00,0.3909
2556.00,0.3895
2555.00,0.3883
2554.00,0.3871
2553.00,0.3859
2552.00,0.3848
2551.00,0.3836
2550.00,0.3825
2549.00,0.3815
2548.00,0.3806
2547.00,0.3798
2546.00,0.3790
2545.00,0.3781
2544.00,0.3773
2543.00,0.3766
2542.00,0.3758
2541.00,0.3752
2540.00,0.3745
2539.00,0.3738
2538.00,0.3732
2537.00,0.3726
2536.00,0.3720
2535.00,0.3714
2534.00,0.3708
2533.00,0.3702
2532.00,0.3696
2531.00,0.3689
2530.00,0.3681
2529.00,0.3672
2528.00,0.3663
2527.00,0.3653
2526.00,0.3644
2525.00,0.3634
2524.00,0.3623
2523.00,0.3613
2522.00,0.3603
2521.00,0.3593
2520.00,0.3582
2519.00,0.3572
2518.00,0.3562
2517.00,0.3552
2516.00,0.3543
2515.00,0.3534
2514.00,0.3526
2513.00,0.3519
2512.00,0.3512
2511.00,0.3505
2510.00,0.3498
2509.00,0.3492
2508.00,0.3486
2507.00,0.3480
2506.00,0.3475
2505.00,0.3470
2504.00,0.3466
2503.00,0.3462
2502.00,0.3458
2501.00,0.3455
2500.00,0.3453
2499.00,0.3450
2498.00,0.3446
2497.00,0.3442
2496.00,0.3437
2495.00,0.3433
2494.00,0.3429
2493.00,0.3425
2492.00,0.3421
2491.00,0.3417
2490.00,0.3412
2489.00,0.3408
2488.00,0.3403
2487.00,0.3398
2486.00,0.3393
2485.00,0.3388
2484.00,0.3383
2483.00,0.3378
2482.00,0.3373
2481.00,0.3368
2480.00,0.3364
2479.00,0.3359
2478.00,0.3355
2477.00,0.3352
2476.00,0.3350
2475.00,0.3348
2474.00,0.3346
2473.00,0.3344
2472.00,0.3341
2471.00,0.3338
2470.00,0.3336
2469.00,0.3333
2468.00,0.3331
2467.00,0.3330
2466.00,0.3329
2465.00,0.3327
2464.00,0.3325
2463.00,0.3324
2462.00,0.3322
2461.00,0.3320
2460.00,0.3318
2459.00,0.3316
2458.00,0.3314
2457.00,0.3312
2456.00,0.3310
2455.00,0.3308
2454.00,0.3306
2453.00,0.3303
2452.00,0.3301
2451.00,0.3300
2450.00,0.3298
2449.00,0.3297
2448.00,0.3295
2447.00,0.3294
2446.00,0.3293
2445.00,0.3292
2444.00,0.3291
2443.00,0.3290
2442.00,0.3290
2441.00,0.3290
2440.00,0.3291
2439.00,0.3291
2438.00,0.3292
2437.00,0.3292
2436.00,0.3293
2435.00,0.3293
2434.00,0.3295
2433.00,0.3296
2432.00,0.3297
2431.00,0.3298
2430.00,0.3299
2429.00,0.3300
2428.00,0.3301
2427.00,0.3303
2426.00,0.3304
2425.00,0.3305
2424.00,0.3306
2423.00,0.3307
2422.00,0.3308
2421.00,0.3308
2420.00,0.3309
2419.00,0.3309
2418.00,0.3309
2417.00,0.3308
2416.00,0.3308
2415.00,0.3307
2414.00,0.3307
2413.00,0.3307
2412.00,0.3307
2411.00,0.3307
2410.00,0.3306
2409.00,0.3306
2408.00,0.3305
2407.00,0.3303
2406.00,0.3302
2405.00,0.3301
2404.00,0.3300
2403.00,0.3299
2402.00,0.3298
2401.00,0.3298
2400.00,0.3297
2399.00,0.3296
2398.00,0.3295
2397.00,0.3294
2396.00,0.3293
2395.00,0.3292
2394.00,0.3291
2393.00,0.3290
2392.00,0.3289
2391.00,0.3288
2390.00,0.3287
2389.00,0.3287
2388.00,0.3286
2387.00,0.3286
2386.00,0.3286
2385.00,0.3286
2384.00,0.3286
2383.00,0.3285
2382.00,0.3285
2381.00,0.3285
2380.00,0.3286
2379.00,0.3286
2378.00,0.3286
2377.00,0.3286
2376.00,0.3286
2375.00,0.3285
2374.00,0.3285
2373.00,0.3284
2372.00,0.3283
2371.00,0.3283
2370.00,0.3282
2369.00,0.3281
2368.00,0.3280
2367.00,0.3280
2366.00,0.3279
2365.00,0.3279
2364.00,0.3279
2363.00,0.3279
2362.00,0.3279
2361.00,0.3279
2360.00,0.3278
2359.00,0.3278
2358.00,0.3279
2357.00,0.3280
2356.00,0.3281
2355.00,0.3282
2354.00,0.3282
2353.00,0.3283
2352.00,0.3283
2351.00,0.3282
2350.00,0.3279
2349.00,0.3274
2348.00,0.3270
2347.00,0.3266
2346.00,0.3264
2345.00,0.3265
2344.00,0.3266
2343.00,0.3266
2342.00,0.3265
2341.00,0.3264
2340.00,0.3264
2339.00,0.3263
2338.00,0.3262
2337.00,0.3260
2336.00,0.3257
2335.00,0.3255
2334.00,0.3253
2333.00,0.3251
2332.00,0.3250
2331.00,0.3249
2330.00,0.3248
2329.00,0.3247
2328.00,0.3245
2327.00,0.3242
2326.00,0.3239
2325.00,0.3237
2324.00,0.3235
2323.00,0.3234
2322.00,0.3233
2321.00,0.3232
2320.00,0.3230
2319.00,0.3227
2318.00,0.3224
2317.00,0.3221
2316.00,0.3218
2315.00,0.3216
2314.00,0.3214
2313.00,0.3211
2312.00,0.3208
2311.00,0.3205
2310.00,0.3202
2309.00,0.3198
2308.00,0.3195
2307.00,0.3191
2306.00,0.3187
2305.00,0.3184
2304.00,0.3180
2303.00,0.3176
2302.00,0.3172
2301.00,0.3169
2300.00,0.3166
2299.00,0.3163
2298.00,0.3160
2297.00,0.3157
2296.00,0.3154
2295.00,0.3150
2294.00,0.3146
2293.00,0.3143
2292.00,0.3140
2291.00,0.3137
2290.00,0.3134
2289.00,0.3131
2288.00,0.3129
2287.00,0.3126
2286.00,0.3122
2285.00,0.3119
2284.00,0.3116
2283.00,0.3113
2282.00,0.3111
2281.00,0.3108
2280.00,0.3105
2279.00,0.3102
2278.00,0.3099
2277.00,0.3096
2276.00,0.3093
2275.00,0.3090
2274.00,0.3087
2273.00,0.3084
2272.00,0.3082
2271.00,0.3080
2270.00,0.3078
2269.00,0.3077
2268.00,0.3077
2267.00,0.3075
2266.00,0.3074
2265.00,0.3072
2264.00,0.3070
2263.00,0.3068
2262.00,0.3066
2261.00,0.3064
2260.00,0.3062
2259.00,0.3060
2258.00,0.3057
2257.00,0.3055
2256.00,0.3052
2255.00,0.3050
2254.00,0.3047
2253.00,0.3044
2252.00,0.3041
2251.00,0.3038
2250.00,0.3035
2249.00,0.3033
2248.00,0.3030
2247.00,0.3027
2246.00,0.3025
2245.00,0.3022
2244.00,0.3020
2243.00,0.3018
2242.00,0.3016
2241.00,0.3014
2240.00,0.3012
2239.00,0.3011
2238.00,0.3010
2237.00,0.3009
2236.00,0.3008
2235.00,0.3006
2234.00,0.3005
2233.00,0.3004
2232.00,0.3003
2231.00,0.3002
2230.00,0.3002
2229.00,0.3002
2228.00,0.3002
2227.00,0.3002
2226.00,0.3001
2225.00,0.3000
2224.00,0.2999
2223.00,0.2998
2222.00,0.2998
2221.00,0.2997
2220.00,0.2996
2219.00,0.2995
2218.00,0.2994
2217.00,0.2994
2216.00,0.2993
2215.00,0.2992
2214.00,0.2991
2213.00,0.2990
2212.00,0.2989
2211.00,0.2988
2210.00,0.2986
2209.00,0.2985
2208.00,0.2985
2207.00,0.2984
2206.00,0.2983
2205.00,0.2982
2204.00,0.2981
2203.00,0.2980
2202.00,0.2980
2201.00,0.2980
2200.00,0.2981
2199.00,0.2981
2198.00,0.2981
2197.00,0.2981
2196.00,0.2982
2195.00,0.2982
2194.00,0.2982
2193.00,0.2983
2192.00,0.2983
2191.00,0.2984
2190.00,0.2984
2189.00,0.2985
2188.00,0.2985
2187.00,0.2985
2186.00,0.2985
2185.00,0.2986
2184.00,0.2985
2183.00,0.2985
2182.00,0.2984
2181.00,0.2983
2180.00,0.2982
2179.00,0.2981
2178.00,0.2979
2177.00,0.2977
2176.00,0.2975
2175.00,0.2974
2174.00,0.2972
2173.00,0.2971
2172.00,0.2969
2171.00,0.2968
2170.00,0.2966
2169.00,0.2965
2168.00,0.2963
2167.00,0.2962
2166.00,0.2961
2165.00,0.2959
2164.00,0.2957
2163.00,0.2956
2162.00,0.2954
2161.00,0.2953
2160.00,0.2952
2159.00,0.2951
2158.00,0.2950
2157.00,0.2949
2156.00,0.2947
2155.00,0.2946
2154.00,0.2945
2153.00,0.2944
2152.00,0.2943
2151.00,0.2942
2150.00,0.2940
2149.00,0.2938
2148.00,0.2935
2147.00,0.2931
2146.00,0.2928
2145.00,0.2924
2144.00,0.2921
2143.00,0.2918
2142.00,0.2914
2141.00,0.2910
2140.00,0.2906
2139.00,0.2901
2138.00,0.2897
2137.00,0.2893
2136.00,0.2890
2135.00,0.2887
2134.00,0.2885
2133.00,0.2882
2132.00,0.2880
2131.00,0.2878
2130.00,0.2875
2129.00,0.2873
2128.00,0.2871
2127.00,0.2870
2126.00,0.2869
2125.00,0.2867
2124.00,0.2866
2123.00,0.2864
2122.00,0.2863
2121.00,0.2863
2120.00,0.2862
2119.00,0.2862
2118.00,0.2862
2117.00,0.2861
2116.00,0.2861
2115.00,0.2860
2114.00,0.2860
2113.00,0.2860
2112.00,0.2859
2111.00,0.2858
2110.00,0.2857
2109.00,0.2856
2108.00,0.2856
2107.00,0.2855
2106.00,0.2854
2105.00,0.2853
2104.00,0.2853
2103.00,0.2853
2102.00,0.2852
2101.00,0.2851
2100.00,0.2850
2099.00,0.2849
2098.00,0.2848
2097.00,0.2847
2096.00,0.2846
2095.00,0.2845
2094.00,0.2844
2093.00,0.2844
2092.00,0.2843
2091.00,0.2843
2090.00,0.2842
2089.00,0.2841
2088.00,0.2840
2087.00,0.2840
2086.00,0.2840
2085.00,0.2841
2084.00,0.2841
2083.00,0.2840
2082.00,0.2840
2081.00,0.2841
2080.00,0.2841
2079.00,0.2842
2078.00,0.2842
2077.00,0.2843
2076.00,0.2844
2075.00,0.2845
2074.00,0.2845
2073.00,0.2845
2072.00,0.2846
2071.00,0.2847
2070.00,0.2847
2069.00,0.2848
2068.00,0.2848
2067.00,0.2849
2066.00,0.2849
2065.00,0.2850
2064.00,0.2852
2063.00,0.2853
2062.00,0.2854
2061.00,0.2855
2060.00,0.2856
2059.00,0.2856
2058.00,0.2857
2057.00,0.2858
2056.00,0.2860
2055.00,0.2861
2054.00,0.2862
2053.00,0.2863
2052.00,0.2864
2051.00,0.2865
2050.00,0.2866
2049.00,0.2868
2048.00,0.2870
2047.00,0.2872
2046.00,0.2874
2045.00,0.2875
2044.00,0.2877
2043.00,0.2879
2042.00,0.2880
2041.00,0.2881
2040.00,0.2882
2039.00,0.2883
2038.00,0.2884
2037.00,0.2885
2036.00,0.2887
2035.00,0.2888
2034.00,0.2888
2033.00,0.2888
2032.00,0.2888
2031.00,0.2888
2030.00,0.2887
2029.00,0.2887
2028.00,0.2887
2027.00,0.2886
2026.00,0.2885
2025.00,0.2884
2024.00,0.2883
2023.00,0.2881
2022.00,0.2878
2021.00,0.2875
2020.00,0.2871
2019.00,0.2866
2018.00,0.2861
2017.00,0.2856
2016.00,0.2850
2015.00,0.2845
2014.00,0.2839
2013.00,0.2834
2012.00,0.2829
2011.00,0.2824
2010.00,0.2820
2009.00,0.2815
2008.00,0.2812
2007.00,0.2808
2006.00,0.2805
2005.00,0.2802
2004.00,0.2800
2003.00,0.2798
2002.00,0.2796
2001.00,0.2795
2000.00,0.2793
1999.00,0.2792
1998.00,0.2791
1997.00,0.2789
1996.00,0.2788
1995.00,0.2787
1994.00,0.2786
1993.00,0.2785
1992.00,0.2785
1991.00,0.2784
1990.00,0.2784
1989.00,0.2785
1988.00,0.2785
1987.00,0.2784
1986.00,0.2784
1985.00,0.2784
1984.00,0.2784
1983.00,0.2784
1982.00,0.2783
1981.00,0.2782
1980.00,0.2782
1979.00,0.2781
1978.00,0.2781
1977.00,0.2781
1976.00,0.2781
1975.00,0.2780
1974.00,0.2780
1973.00,0.2779
1972.00,0.2779
1971.00,0.2778
1970.00,0.2777
1969.00,0.2777
1968.00,0.2776
1967.00,0.2775
1966.00,0.2775
1965.00,0.2776
1964.00,0.2777
1963.00,0.2778
1962.00,0.2779
1961.00,0.2780
1960.00,0.2782
1959.00,0.2783
1958.00,0.2784
1957.00,0.2785
1956.00,0.2787
1955.00,0.2789
1954.00,0.2791
1953.00,0.2793
1952.00,0.2794
1951.00,0.2795
1950.00,0.2796
1949.00,0.2798
1948.00,0.2800
1947.00,0.2801
1946.00,0.2803
1945.00,0.2805
1944.00,0.2809
1943.00,0.2813
1942.00,0.2818
1941.00,0.2824
1940.00,0.2830
1939.00,0.2834
1938.00,0.2837
1937.00,0.2837
1936.00,0.2837
1935.00,0.2835
1934.00,0.2832
1933.00,0.2830
1932.00,0.2829
1931.00,0.2828
1930.00,0.2828
1929.00,0.2828
1928.00,0.2829
1927.00,0.2830
1926.00,0.2830
1925.00,0.2831
1924.00,0.2832
1923.00,0.2835
1922.00,0.2839
1921.00,0.2844
1920.00,0.2849
1919.00,0.2853
1918.00,0.2856
1917.00,0.2859
1916.00,0.2862
1915.00,0.2865
1914.00,0.2867
1913.00,0.2868
1912.00,0.2869
1911.00,0.2870
1910.00,0.2870
1909.00,0.2872
1908.00,0.2874
1907.00,0.2875
1906.00,0.2875
1905.00,0.2876
1904.00,0.2876
1903.00,0.2876
1902.00,0.2876
1901.00,0.2876
1900.00,0.2876
1899.00,0.2876
1898.00,0.2877
1897.00,0.2878
1896.00,0.2879
1895.00,0.2881
1894.00,0.2882
1893.00,0.2884
1892.00,0.2885
1891.00,0.2886
1890.00,0.2886
1889.00,0.2887
1888.00,0.2889
1887.00,0.2890
1886.00,0.2890
1885.00,0.2890
1884.00,0.2890
1883.00,0.2890
1882.00,0.2890
1881.00,0.2891
1880.00,0.2892
1879.00,0.2891
1878.00,0.2891
1877.00,0.2890
1876.00,0.2890
1875.00,0.2889
1874.00,0.2887
1873.00,0.2885
1872.00,0.2883
1871.00,0.2880
1870.00,0.2877
1869.00,0.2875
1868.00,0.2873
1867.00,0.2872
1866.00,0.2871
1865.00,0.2870
1864.00,0.2869
1863.00,0.2866
1862.00,0.2863
1861.00,0.2860
1860.00,0.2857
1859.00,0.2854
1858.00,0.2850
1857.00,0.2848
1856.00,0.2846
1855.00,0.2844
1854.00,0.2842
1853.00,0.2840
1852.00,0.2838
1851.00,0.2836
1850.00,0.2834
1849.00,0.2832
1848.00,0.2831
1847.00,0.2830
1846.00,0.2828
1845.00,0.2828
1844.00,0.2827
1843.00,0.2827
1842.00,0.2827
1841.00,0.2828
1840.00,0.2829
1839.00,0.2828
1838.00,0.2827
1837.00,0.2826
1836.00,0.2825
1835.00,0.2825
1834.00,0.2824
1833.00,0.2824
1832.00,0.2825
1831.00,0.2825
1830.00,0.2824
1829.00,0.2824
1828.00,0.2824
1827.00,0.2822
1826.00,0.2821
1825.00,0.2820
1824.00,0.2820
1823.00,0.2821
1822.00,0.2821
1821.00,0.2821
1820.00,0.2821
1819.00,0.2820
1818.00,0.2819
1817.00,0.2819
1816.00,0.2821
1815.00,0.2822
1814.00,0.2822
1813.00,0.2822
1812.00,0.2823
1811.00,0.2824
1810.00,0.2826
1809.00,0.2828
1808.00,0.2832
1807.00,0.2835
1806.00,0.2839
1805.00,0.2843
1804.00,0.2847
1803.00,0.2850
1802.00,0.2854
1801.00,0.2860
1800.00,0.2867
1799.00,0.2875
1798.00,0.2881
1797.00,0.2886
1796.00,0.2891
1795.00,0.2895
1794.00,0.2899
1793.00,0.2902
1792.00,0.2907
1791.00,0.2911
1790.00,0.2916
1789.00,0.2921
1788.00,0.2926
1787.00,0.2929
1786.00,0.2930
1785.00,0.2933
1784.00,0.2937
1783.00,0.2941
1782.00,0.2944
1781.00,0.2948
1780.00,0.2952
1779.00,0.2957
1778.00,0.2961
1777.00,0.2965
1776.00,0.2970
1775.00,0.2975
1774.00,0.2981
1773.00,0.2989
1772.00,0.2998
1771.00,0.3005
1770.00,0.3012
1769.00,0.3019
1768.00,0.3029
1767.00,0.3039
1766.00,0.3050
1765.00,0.3062
1764.00,0.3075
1763.00,0.3088
1762.00,0.3103
1761.00,0.3120
1760.00,0.3140
1759.00,0.3160
1758.00,0.3182
1757.00,0.3209
1756.00,0.3239
1755.00,0.3269
1754.00,0.3298
1753.00,0.3328
1752.00,0.3361
1751.00,0.3397
1750.00,0.3433
1749.00,0.3468
1748.00,0.3501
1747.00,0.3527
1746.00,0.3549
1745.00,0.3567
1744.00,0.3582
1743.00,0.3594
1742.00,0.3603
1741.00,0.3608
1740.00,0.3610
1739.00,0.3607
1738.00,0.3601
1737.00,0.3594
1736.00,0.3586
1735.00,0.3574
1734.00,0.3559
1733.00,0.3548
1732.00,0.3543
1731.00,0.3541
1730.00,0.3540
1729.00,0.3541
1728.00,0.3546
1727.00,0.3553
1726.00,0.3564
1725.00,0.3580
1724.00,0.3601
1723.00,0.3627
1722.00,0.3656
1721.00,0.3690
1720.00,0.3732
1719.00,0.3785
1718.00,0.3858
1717.00,0.3950
1716.00,0.4053
1715.00,0.4164
1714.00,0.4282
1713.00,0.4404
1712.00,0.4521
1711.00,0.4630
1710.00,0.4727
1709.00,0.4799
1708.00,0.4839
1707.00,0.4844
1706.00,0.4814
1705.00,0.4753
1704.00,0.4676
1703.00,0.4596
1702.00,0.4504
1701.00,0.4381
1700.00,0.4240
1699.00,0.4122
1698.00,0.4038
1697.00,0.3968
1696.00,0.3893
1695.00,0.3820
1694.00,0.3764
1693.00,0.3723
1692.00,0.3690
1691.00,0.3657
1690.00,0.3626
1689.00,0.3600
1688.00,0.3579
1687.00,0.3562
1686.00,0.3546
1685.00,0.3529
1684.00,0.3510
1683.00,0.3494
1682.00,0.3484
1681.00,0.3477
1680.00,0.3470
1679.00,0.3463
1678.00,0.3458
1677.00,0.3453
1676.00,0.3448
1675.00,0.3443
1674.00,0.3439
1673.00,0.3437
1672.00,0.3436
1671.00,0.3434
1670.00,0.3431
1669.00,0.3430
1668.00,0.3430
1667.00,0.3429
1666.00,0.3429
1665.00,0.3429
1664.00,0.3430
1663.00,0.3429
1662.00,0.3430
1661.00,0.3432
1660.00,0.3435
1659.00,0.3437
1658.00,0.3439
1657.00,0.3442
1656.00,0.3446
1655.00,0.3450
1654.00,0.3458
1653.00,0.3470
1652.00,0.3482
1651.00,0.3490
1650.00,0.3496
1649.00,0.3503
1648.00,0.3511
1647.00,0.3522
1646.00,0.3535
1645.00,0.3550
1644.00,0.3564
1643.00,0.3577
1642.00,0.3590
1641.00,0.3605
1640.00,0.3622
1639.00,0.3638
1638.00,0.3655
1637.00,0.3676
1636.00,0.3701
1635.00,0.3727
1634.00,0.3749
1633.00,0.3770
1632.00,0.3791
1631.00,0.3811
1630.00,0.3833
1629.00,0.3859
1628.00,0.3888
1627.00,0.3917
1626.00,0.3945
1625.00,0.3978
1624.00,0.4019
1623.00,0.4064
1622.00,0.4113
1621.00,0.4166
1620.00,0.4224
1619.00,0.4288
1618.00,0.4367
1617.00,0.4470
1616.00,0.4586
1615.00,0.4695
1614.00,0.4792
1613.00,0.4887
1612.00,0.4988
1611.00,0.5091
1610.00,0.5192
1609.00,0.5293
1608.00,0.5390
1607.00,0.5476
1606.00,0.5549
1605.00,0.5616
1604.00,0.5679
1603.00,0.5738
1602.00,0.5794
1601.00,0.5854
1600.00,0.5923
1599.00,0.5998
1598.00,0.6082
1597.00,0.6189
1596.00,0.6330
1595.00,0.6507
1594.00,0.6728
1593.00,0.7011
1592.00,0.7374
1591.00,0.7831
1590.00,0.8406
1589.00,0.9141
1588.00,1.0089
1587.00,1.1284
1586.00,1.2755
1585.00,1.4558
1584.00,1.6758
1583.00,1.9224
1582.00,2.1294
1581.00,2.2079
1580.00,2.1447
1579.00,1.9728
1578.00,1.7433
1577.00,1.5140
1576.00,1.3211
1575.00,1.1782
1574.00,1.0799
1573.00,1.0114
1572.00,0.9604
1571.00,0.9200
1570.00,0.8904
1569.00,0.8758
1568.00,0.8780
1567.00,0.8959
1566.00,0.9299
1565.00,0.9828
1564.00,1.0526
1563.00,1.1289
1562.00,1.1985
1561.00,1.2502
1560.00,1.2565
1559.00,1.1830
1558.00,1.0717
1557.00,0.9780
1556.00,0.9023
1555.00,0.8318
1554.00,0.7671
1553.00,0.7144
1552.00,0.6748
1551.00,0.6433
1550.00,0.6166
1549.00,0.5949
1548.00,0.5785
1547.00,0.5657
1546.00,0.5546
1545.00,0.5449
1544.00,0.5371
1543.00,0.5311
1542.00,0.5259
1541.00,0.5210
1540.00,0.5158
1539.00,0.5105
1538.00,0.5060
1537.00,0.5026
1536.00,0.5001
1535.00,0.4974
1534.00,0.4946
1533.00,0.4926
1532.00,0.4920
1531.00,0.4923
1530.00,0.4932
1529.00,0.4944
1528.00,0.4956
1527.00,0.4961
1526.00,0.4959
1525.00,0.4956
1524.00,0.4956
1523.00,0.4957
1522.00,0.4964
1521.00,0.4983
1520.00,0.5013
1519.00,0.5046
1518.00,0.5081
1517.00,0.5121
1516.00,0.5158
1515.00,0.5183
1514.00,0.5196
1513.00,0.5205
1512.00,0.5215
1511.00,0.5226
1510.00,0.5245
1509.00,0.5279
1508.00,0.5341
1507.00,0.5437
1506.00,0.5559
1505.00,0.5679
1504.00,0.5780
1503.00,0.5865
1502.00,0.5942
1501.00,0.6019
1500.00,0.6092
1499.00,0.6160
1498.00,0.6231
1497.00,0.6320
1496.00,0.6425
1495.00,0.6532
1494.00,0.6636
1493.00,0.6747
1492.00,0.6872
1491.00,0.7010
1490.00,0.7168
1489.00,0.7348
1488.00,0.7545
1487.00,0.7754
1486.00,0.7986
1485.00,0.8256
1484.00,0.8568
1483.00,0.8926
1482.00,0.9349
1481.00,0.9850
1480.00,1.0415
1479.00,1.1032
1478.00,1.1737
1477.00,1.2581
1476.00,1.3574
1475.00,1.4708
1474.00,1.6077
1473.00,1.7886
1472.00,2.0247
1471.00,2.3006
1470.00,2.5962
1469.00,2.9197
1468.00,3.2566
1467.00,3.4833
1466.00,3.5909
1465.00,3.7489
1464.00,3.7907
1463.00,3.6275
1462.00,3.5947
1461.00,3.7486
1460.00,3.8512
1459.00,3.6464
1458.00,3.6173
1457.00,3.8505
1456.00,3.7852
1455.00,3.6330
1454.00,3.6769
1453.00,3.8344
1452.00,3.9848
1451.00,3.9959
1450.00,3.7521
1449.00,3.6215
1448.00,3.3800
1447.00,3.0974
1446.00,2.9253
1445.00,2.8139
1444.00,2.6865
1443.00,2.5314
1442.00,2.3850
1441.00,2.2576
1440.00,2.1403
1439.00,2.0266
1438.00,1.9114
1437.00,1.7896
1436.00,1.6679
1435.00,1.5597
1434.00,1.4666
1433.00,1.3804
1432.00,1.2958
1431.00,1.2146
1430.00,1.1409
1429.00,1.0776
1428.00,1.0257
1427.00,0.9847
1426.00,0.9517
1425.00,0.9240
1424.00,0.9010
1423.00,0.8836
1422.00,0.8709
1421.00,0.8602
1420.00,0.8499
1419.00,0.8402
1418.00,0.8319
1417.00,0.8253
1416.00,0.8201
1415.00,0.8162
1414.00,0.8133
1413.00,0.8114
1412.00,0.8103
1411.00,0.8098
1410.00,0.8089
1409.00,0.8064
1408.00,0.8016
1407.00,0.7943
1406.00,0.7843
1405.00,0.7715
1404.00,0.7576
1403.00,0.7446
1402.00,0.7330
1401.00,0.7226
1400.00,0.7135
1399.00,0.7064
1398.00,0.7016
1397.00,0.6991
1396.00,0.6993
1395.00,0.7032
1394.00,0.7113
1393.00,0.7241
1392.00,0.7429
1391.00,0.7698
1390.00,0.8071
1389.00,0.8580
1388.00,0.9268
1387.00,1.0146
1386.00,1.1156
1385.00,1.2221
1384.00,1.3317
1383.00,1.4481
1382.00,1.5754
1381.00,1.7175
1380.00,1.8770
1379.00,2.0433
1378.00,2.1758
1377.00,2.2221
1376.00,2.1683
1375.00,2.0387
1374.00,1.8746
1373.00,1.7172
1372.00,1.5868
1371.00,1.4854
1370.00,1.4105
1369.00,1.3600
1368.00,1.3292
1367.00,1.3071
1366.00,1.2787
1365.00,1.2327
1364.00,1.1688
1363.00,1.0971
1362.00,1.0303
1361.00,0.9762
1360.00,0.9354
1359.00,0.9055
1358.00,0.8835
1357.00,0.8678
1356.00,0.8570
1355.00,0.8503
1354.00,0.8465
1353.00,0.8445
1352.00,0.8430
1351.00,0.8412
1350.00,0.8386
1349.00,0.8354
1348.00,0.8320
1347.00,0.8288
1346.00,0.8261
1345.00,0.8239
1344.00,0.8221
1343.00,0.8201
1342.00,0.8171
1341.00,0.8123
1340.00,0.8053
1339.00,0.7961
1338.00,0.7850
1337.00,0.7721
1336.00,0.7579
1335.00,0.7432
1334.00,0.7289
1333.00,0.7157
1332.00,0.7042
1331.00,0.6946
1330.00,0.6869
1329.00,0.6810
1328.00,0.6766
1327.00,0.6736
1326.00,0.6718
1325.00,0.6711
1324.00,0.6711
1323.00,0.6716
1322.00,0.6725
1321.00,0.6732
1320.00,0.6738
1319.00,0.6746
1318.00,0.6759
1317.00,0.6777
1316.00,0.6800
1315.00,0.6829
1314.00,0.6862
1313.00,0.6900
1312.00,0.6940
1311.00,0.6981
1310.00,0.7019
1309.00,0.7050
1308.00,0.7075
1307.00,0.7095
1306.00,0.7106
1305.00,0.7105
1304.00,0.7089
1303.00,0.7060
1302.00,0.7020
1301.00,0.6972
1300.00,0.6919
1299.00,0.6862
1298.00,0.6805
1297.00,0.6747
1296.00,0.6693
1295.00,0.6644
1294.00,0.6601
1293.00,0.6561
1292.00,0.6523
1291.00,0.6486
1290.00,0.6450
1289.00,0.6416
1288.00,0.6383
1287.00,0.6351
1286.00,0.6317
1285.00,0.6278
1284.00,0.6236
1283.00,0.6196
1282.00,0.6159
1281.00,0.6129
1280.00,0.6105
1279.00,0.6084
1278.00,0.6064
1277.00,0.6042
1276.00,0.6018
1275.00,0.5995
1274.00,0.5975
1273.00,0.5959
1272.00,0.5947
1271.00,0.5939
1270.00,0.5933
1269.00,0.5927
1268.00,0.5913
1267.00,0.5889
1266.00,0.5854
1265.00,0.5812
1264.00,0.5770
1263.00,0.5736
1262.00,0.5710
1261.00,0.5691
1260.00,0.5675
1259.00,0.5660
1258.00,0.5643
1257.00,0.5623
1256.00,0.5600
1255.00,0.5577
1254.00,0.5558
1253.00,0.5542
1252.00,0.5529
1251.00,0.5519
1250.00,0.5507
1249.00,0.5493
1248.00,0.5475
1247.00,0.5455
1246.00,0.5434
1245.00,0.5409
1244.00,0.5381
1243.00,0.5350
1242.00,0.5317
1241.00,0.5284
1240.00,0.5253
1239.00,0.5226
1238.00,0.5203
1237.00,0.5182
1236.00,0.5164
1235.00,0.5150
1234.00,0.5141
1233.00,0.5138
1232.00,0.5141
1231.00,0.5150
1230.00,0.5158
1229.00,0.5160
1228.00,0.5150
1227.00,0.5130
1226.00,0.5102
1225.00,0.5068
1224.00,0.5035
1223.00,0.5007
1222.00,0.4986
1221.00,0.4969
1220.00,0.4956
1219.00,0.4947
1218.00,0.4944
1217.00,0.4946
1216.00,0.4953
1215.00,0.4963
1214.00,0.4974
1213.00,0.4981
1212.00,0.4981
1211.00,0.4974
1210.00,0.4963
1209.00,0.4949
1208.00,0.4933
1207.00,0.4918
1206.00,0.4904
1205.00,0.4888
1204.00,0.4873
1203.00,0.4859
1202.00,0.4849
1201.00,0.4840
1200.00,0.4834
1199.00,0.4829
1198.00,0.4825
1197.00,0.4820
1196.00,0.4811
1195.00,0.4804
1194.00,0.4797
1193.00,0.4792
1192.00,0.4786
1191.00,0.4781
1190.00,0.4775
1189.00,0.4767
1188.00,0.4760
1187.00,0.4753
1186.00,0.4749
1185.00,0.4745
1184.00,0.4742
1183.00,0.4741
1182.00,0.4742
1181.00,0.4744
1180.00,0.4749
1179.00,0.4758
1178.00,0.4769
1177.00,0.4784
1176.00,0.4804
1175.00,0.4833
1174.00,0.4870
1173.00,0.4916
1172.00,0.4965
1171.00,0.5011
1170.00,0.5046
1169.00,0.5064
1168.00,0.5067
1167.00,0.5058
1166.00,0.5044
1165.00,0.5031
1164.00,0.5022
1163.00,0.5019
1162.00,0.5023
1161.00,0.5031
1160.00,0.5044
1159.00,0.5060
1158.00,0.5077
1157.00,0.5090
1156.00,0.5096
1155.00,0.5094
1154.00,0.5085
1153.00,0.5070
1152.00,0.5049
1151.00,0.5026
1150.00,0.5001
1149.00,0.4977
1148.00,0.4953
1147.00,0.4932
1146.00,0.4914
1145.00,0.4900
1144.00,0.4891
1143.00,0.4890
1142.00,0.4899
1141.00,0.4921
1140.00,0.4956
1139.00,0.5005
1138.00,0.5066
1137.00,0.5136
1136.00,0.5214
1135.00,0.5293
1134.00,0.5362
1133.00,0.5402
1132.00,0.5400
1131.00,0.5355
1130.00,0.5279
1129.00,0.5194
1128.00,0.5117
1127.00,0.5059
1126.00,0.5019
1125.00,0.4992
1124.00,0.4971
1123.00,0.4954
1122.00,0.4937
1121.00,0.4922
1120.00,0.4911
1119.00,0.4909
1118.00,0.4920
1117.00,0.4945
1116.00,0.4978
1115.00,0.5012
1114.00,0.5031
1113.00,0.5021
1112.00,0.4979
1111.00,0.4917
1110.00,0.4849
1109.00,0.4788
1108.00,0.4739
1107.00,0.4706
1106.00,0.4687
1105.00,0.4677
1104.00,0.4673
1103.00,0.4670
1102.00,0.4667
1101.00,0.4660
1100.00,0.4651
1099.00,0.4642
1098.00,0.4634
1097.00,0.4625
1096.00,0.4616
1095.00,0.4610
1094.00,0.4609
1093.00,0.4612
1092.00,0.4620
1091.00,0.4630
1090.00,0.4644
1089.00,0.4662
1088.00,0.4685
1087.00,0.4716
1086.00,0.4755
1085.00,0.4802
1084.00,0.4858
1083.00,0.4923
1082.00,0.4994
1081.00,0.5070
1080.00,0.5145
1079.00,0.5214
1078.00,0.5267
1077.00,0.5295
1076.00,0.5293
1075.00,0.5262
1074.00,0.5210
1073.00,0.5146
1072.00,0.5080
1071.00,0.5021
1070.00,0.4974
1069.00,0.4940
1068.00,0.4915
1067.00,0.4899
1066.00,0.4887
1065.00,0.4878
1064.00,0.4871
1063.00,0.4869
1062.00,0.4872
1061.00,0.4878
1060.00,0.4883
1059.00,0.4887
1058.00,0.4888
1057.00,0.4884
1056.00,0.4876
1055.00,0.4866
1054.00,0.4857
1053.00,0.4851
1052.00,0.4852
1051.00,0.4861
1050.00,0.4878
1049.00,0.4898
1048.00,0.4918
1047.00,0.4935
1046.00,0.4947
1045.00,0.4954
1044.00,0.4955
1043.00,0.4954
1042.00,0.4951
1041.00,0.4947
1040.00,0.4942
1039.00,0.4938
1038.00,0.4935
1037.00,0.4932
1036.00,0.4929
1035.00,0.4930
1034.00,0.4937
1033.00,0.4953
1032.00,0.4975
1031.00,0.4999
1030.00,0.5019
1029.00,0.5030
1028.00,0.5028
1027.00,0.5011
1026.00,0.4976
1025.00,0.4927
1024.00,0.4870
1023.00,0.4812
1022.00,0.4760
1021.00,0.4713
1020.00,0.4671
1019.00,0.4633
1018.00,0.4601
1017.00,0.4571
1016.00,0.4545
1015.00,0.4523
1014.00,0.4504
1013.00,0.4487
1012.00,0.4474
1011.00,0.4464
1010.00,0.4459
1009.00,0.4458
1008.00,0.4461
1007.00,0.4467
1006.00,0.4477
1005.00,0.4490
1004.00,0.4506
1003.00,0.4523
1002.00,0.4542
1001.00,0.4559
1000.00,0.4573
999.00,0.4581
998.00,0.4582
997.00,0.4574
996.00,0.4558
995.00,0.4536
994.00,0.4510
993.00,0.4481
992.00,0.4450
991.00,0.4418
990.00,0.4387
989.00,0.4359
988.00,0.4338
987.00,0.4324
986.00,0.4319
985.00,0.4321
984.00,0.4330
983.00,0.4346
982.00,0.4367
981.00,0.4393
980.00,0.4420
979.00,0.4448
978.00,0.4474
977.00,0.4496
976.00,0.4513
975.00,0.4526
974.00,0.4534
973.00,0.4537
972.00,0.4536
971.00,0.4534
970.00,0.4532
969.00,0.4532
968.00,0.4532
967.00,0.4530
966.00,0.4526
965.00,0.4519
964.00,0.4510
963.00,0.4500
962.00,0.4489
961.00,0.4478
960.00,0.4467
959.00,0.4456
958.00,0.4449
957.00,0.4443
956.00,0.4438
955.00,0.4432
954.00,0.4424
953.00,0.4414
952.00,0.4403
951.00,0.4393
950.00,0.4387
949.00,0.4383
948.00,0.4383
947.00,0.4387
946.00,0.4395
945.00,0.4406
944.00,0.4420
943.00,0.4436
942.00,0.4452
941.00,0.4467
940.00,0.4481
939.00,0.4490
938.00,0.4494
937.00,0.4490
936.00,0.4480
935.00,0.4466
934.00,0.4447
933.00,0.4425
932.00,0.4402
931.00,0.4379
930.00,0.4359
929.00,0.4343
928.00,0.4334
927.00,0.4335
926.00,0.4348
925.00,0.4375
924.00,0.4417
923.00,0.4469
922.00,0.4520
921.00,0.4553
920.00,0.4555
919.00,0.4520
918.00,0.4455
917.00,0.4373
916.00,0.4288
915.00,0.4211
914.00,0.4146
913.00,0.4094
912.00,0.4053
911.00,0.4022
910.00,0.3998
909.00,0.3980
908.00,0.3967
907.00,0.3957
906.00,0.3951
905.00,0.3947
904.00,0.3946
903.00,0.3951
902.00,0.3962
901.00,0.3979
900.00,0.4003
899.00,0.4033
898.00,0.4068
897.00,0.4107
896.00,0.4145
895.00,0.4184
894.00,0.4224
893.00,0.4263
892.00,0.4301
891.00,0.4336
890.00,0.4365
889.00,0.4383
888.00,0.4386
887.00,0.4375
886.00,0.4355
885.00,0.4332
884.00,0.4312
883.00,0.4301
882.00,0.4301
881.00,0.4311
880.00,0.4326
879.00,0.4340
878.00,0.4350
877.00,0.4353
876.00,0.4350
875.00,0.4348
874.00,0.4349
873.00,0.4352
872.00,0.4355
871.00,0.4360
870.00,0.4368
869.00,0.4380
868.00,0.4399
867.00,0.4425
866.00,0.4460
865.00,0.4500
864.00,0.4539
863.00,0.4570
862.00,0.4583
861.00,0.4566
860.00,0.4518
859.00,0.4449
858.00,0.4375
857.00,0.4312
856.00,0.4264
855.00,0.4231
854.00,0.4210
853.00,0.4194
852.00,0.4181
851.00,0.4169
850.00,0.4156
849.00,0.4139
848.00,0.4117
847.00,0.4092
846.00,0.4066
845.00,0.4039
844.00,0.4014
843.00,0.3993
842.00,0.3984
841.00,0.3992
840.00,0.4020
839.00,0.4070
838.00,0.4135
837.00,0.4201
836.00,0.4247
835.00,0.4259
834.00,0.4236
833.00,0.4192
832.00,0.4148
831.00,0.4119
830.00,0.4111
829.00,0.4124
828.00,0.4152
827.00,0.4193
826.00,0.4243
825.00,0.4300
824.00,0.4362
823.00,0.4430
822.00,0.4501
821.00,0.4572
820.00,0.4640
819.00,0.4703
818.00,0.4757
817.00,0.4800
816.00,0.4829
815.00,0.4838
814.00,0.4826
813.00,0.4791
812.00,0.4739
811.00,0.4678
810.00,0.4616
809.00,0.4556
808.00,0.4501
807.00,0.4452
806.00,0.4407
805.00,0.4361
804.00,0.4311
803.00,0.4256
802.00,0.4198
801.00,0.4139
800.00,0.4086
799.00,0.4042
798.00,0.4010
797.00,0.3988
796.00,0.3975
795.00,0.3968
794.00,0.3967
793.00,0.3969
792.00,0.3975
791.00,0.3989
790.00,0.4010
789.00,0.4037
788.00,0.4066
787.00,0.4097
786.00,0.4130
785.00,0.4168
784.00,0.4211
783.00,0.4255
782.00,0.4295
781.00,0.4325
780.00,0.4346
779.00,0.4362
778.00,0.4379
777.00,0.4397
776.00,0.4416
775.00,0.4437
774.00,0.4458
773.00,0.4480
772.00,0.4501
771.00,0.4525
770.00,0.4554
769.00,0.4588
768.00,0.4625
767.00,0.4658
766.00,0.4683
765.00,0.4701
764.00,0.4714
763.00,0.4731
762.00,0.4757
761.00,0.4791
760.00,0.4832
759.00,0.4873
758.00,0.4909
757.00,0.4939
756.00,0.4963
755.00,0.4987
754.00,0.5017
753.00,0.5053
752.00,0.5096
751.00,0.5144
750.00,0.5192
749.00,0.5236
748.00,0.5273
747.00,0.5307
746.00,0.5341
745.00,0.5378
744.00,0.5421
743.00,0.5474
742.00,0.5532
741.00,0.5589
740.00,0.5640
739.00,0.5685
738.00,0.5724
737.00,0.5760
736.00,0.5799
735.00,0.5845
734.00,0.5897
733.00,0.5957
732.00,0.6030
731.00,0.6125
730.00,0.6249
729.00,0.6406
728.00,0.6594
727.00,0.6818
726.00,0.7081
725.00,0.7376
724.00,0.7675
723.00,0.7923
722.00,0.8039
721.00,0.7947
720.00,0.7642
719.00,0.7202
718.00,0.6730
717.00,0.6296
716.00,0.5931
715.00,0.5639
714.00,0.5409
713.00,0.5225
712.00,0.5073
711.00,0.4949
710.00,0.4848
709.00,0.4766
708.00,0.4699
707.00,0.4644
706.00,0.4598
705.00,0.4555
704.00,0.4516
703.00,0.4485
702.00,0.4467
701.00,0.4458
700.00,0.4439
699.00,0.4388
698.00,0.4290
697.00,0.4149
696.00,0.3989
695.00,0.3840
694.00,0.3717
693.00,0.3624
692.00,0.3555
691.00,0.3506
690.00,0.3471
689.00,0.3447
688.00,0.3427
687.00,0.3413
686.00,0.3401
685.00,0.3389
684.00,0.3377
683.00,0.3367
682.00,0.3361
681.00,0.3359
680.00,0.3358
679.00,0.3356
678.00,0.3355
677.00,0.3354
676.00,0.3353
675.00,0.3355
674.00,0.3358
673.00,0.3361
672.00,0.3362
671.00,0.3362
670.00,0.3362
669.00,0.3363
668.00,0.3365
667.00,0.3369
666.00,0.3373
665.00,0.3379
664.00,0.3385
663.00,0.3392
662.00,0.3402
661.00,0.3412
660.00,0.3420
659.00,0.3428
658.00,0.3439
657.00,0.3450
656.00,0.3462
655.00,0.3472
654.00,0.3481
653.00,0.3489
652.00,0.3496
651.00,0.3504
650.00,0.3516
649.00,0.3527
648.00,0.3538
647.00,0.3547
646.00,0.3557
645.00,0.3570
644.00,0.3585
643.00,0.3601
642.00,0.3617
641.00,0.3631
640.00,0.3644
639.00,0.3656
638.00,0.3665
637.00,0.3673
636.00,0.3679
635.00,0.3685
634.00,0.3690
633.00,0.3693
632.00,0.3695
631.00,0.3698
630.00,0.3705
629.00,0.3716
628.00,0.3732
627.00,0.3751
626.00,0.3772
625.00,0.3794
624.00,0.3818
623.00,0.3844
622.00,0.3871
621.00,0.3894
620.00,0.3911
619.00,0.3922
618.00,0.3928
617.00,0.3929
616.00,0.3927
615.00,0.3926
614.00,0.3925
613.00,0.3923
612.00,0.3916
611.00,0.3906
610.00,0.3893
609.00,0.3877
608.00,0.3857
607.00,0.3838
606.00,0.3822
605.00,0.3813
604.00,0.3809
603.00,0.3809
602.00,0.3812
601.00,0.3814
600.00,0.3818
599.00,0.3825
598.00,0.3835
597.00,0.3845
596.00,0.3853
595.00,0.3860
594.00,0.3870
593.00,0.3884
592.00,0.3902
591.00,0.3921
590.00,0.3939
589.00,0.3957
588.00,0.3976
587.00,0.3997
586.00,0.4017
585.00,0.4035
584.00,0.4058
583.00,0.4088
582.00,0.4124
581.00,0.4157
580.00,0.4183
579.00,0.4203
578.00,0.4221
577.00,0.4240
576.00,0.4260
575.00,0.4285
574.00,0.4314
573.00,0.4345
572.00,0.4373
571.00,0.4397
570.00,0.4415
569.00,0.4431
568.00,0.4448
567.00,0.4465
566.00,0.4480
565.00,0.4492
564.00,0.4501
563.00,0.4509
562.00,0.4518
561.00,0.4527
560.00,0.4534
559.00,0.4540
558.00,0.4543
557.00,0.4544
556.00,0.4550
555.00,0.4566
554.00,0.4590
553.00,0.4611
552.00,0.4624
551.00,0.4628
550.00,0.4629
