Created as New Dataset,
cm-1,A
4000.00,0.3847
3999.00,0.3844
3998.00,0.3841
3997.00,0.3838
3996.00,0.3834
3995.00,0.3831
3994.00,0.3827
3993.00,0.3824
3992.00,0.3821
3991.00,0.3817
3990.00,0.3814
3989.00,0.3810
3988.00,0.3806
3987.00,0.3801
3986.00,0.3798
3985.00,0.3794
3984.00,0.3792
3983.00,0.3789
3982.00,0.3786
3981.00,0.3783
3980.00,0.3781
3979.00,0.3779
3978.00,0.3776
3977.00,0.3773
3976.00,0.3770
3975.00,0.3767
3974.00,0.3765
3973.00,0.3762
3972.00,0.3760
3971.00,0.3758
3970.00,0.3756
3969.00,0.3754
3968.00,0.3751
3967.00,0.3749
3966.00,0.3746
3965.00,0.3744
3964.00,0.3742
3963.00,0.3741
3962.00,0.3739
3961.00,0.3737
3960.00,0.3734
3959.00,0.3732
3958.00,0.3730
3957.00,0.3728
3956.00,0.3727
3955.00,0.3726
3954.00,0.3724
3953.00,0.3722
3952.00,0.3720
3951.00,0.3718
3950.00,0.3717
3949.00,0.3716
3948.00,0.3715
3947.00,0.3715
3946.00,0.3713
3945.00,0.3712
3944.00,0.3711
3943.00,0.3710
3942.00,0.3709
3941.00,0.3708
3940.00,0.3708
3939.00,0.3707
3938.00,0.3707
3937.00,0.3706
3936.00,0.3705
3935.00,0.3705
3934.00,0.3704
3933.00,0.3704
3932.00,0.3703
3931.00,0.3703
3930.00,0.3703
3929.00,0.3703
3928.00,0.3702
3927.00,0.3701
3926.00,0.3701
3925.00,0.3700
3924.00,0.3699
3923.00,0.3698
3922.00,0.3697
3921.00,0.3696
3920.00,0.3696
3919.00,0.3695
3918.00,0.3695
3917.00,0.3694
3916.00,0.3694
3915.00,0.3693
3914.00,0.3692
3913.00,0.3691
3912.00,0.3691
3911.00,0.3690
3910.00,0.3690
3909.00,0.3690
3908.00,0.3690
3907.00,0.3690
3906.00,0.3691
3905.00,0.3691
3904.00,0.3691
3903.00,0.3691
3902.00,0.3691
3901.00,0.3690
3900.00,0.3691
3899.00,0.3692
3898.00,0.3692
3897.00,0.3691
3896.00,0.3690
3895.00,0.3689
3894.00,0.3687
3893.00,0.3686
3892.00,0.3684
3891.00,0.3683
3890.00,0.3681
3889.00,0.3680
3888.00,0.3679
3887.00,0.3678
3886.00,0.3679
3885.00,0.3679
3884.00,0.3677
3883.00,0.3675
3882.00,0.3674
3881.00,0.3673
3880.00,0.3674
3879.00,0.3674
3878.00,0.3672
3877.00,0.3671
3876.00,0.3670
3875.00,0.3670
3874.00,0.3669
3873.00,0.3667
3872.00,0.3665
3871.00,0.3663
3870.00,0.3663
3869.00,0.3663
3868.00,0.3662
3867.00,0.3661
3866.00,0.3661
3865.00,0.3661
3864.00,0.3661
3863.00,0.3659
3862.00,0.3657
3861.00,0.3655
3860.00,0.3653
3859.00,0.3653
3858.00,0.3652
3857.00,0.3651
3856.00,0.3651
3855.00,0.3650
3854.00,0.3649
3853.00,0.3650
3852.00,0.3650
3851.00,0.3649
3850.00,0.3647
3849.00,0.3647
3848.00,0.3646
3847.00,0.3645
3846.00,0.3644
3845.00,0.3643
3844.00,0.3642
3843.00,0.3642
3842.00,0.3641
3841.00,0.3641
3840.00,0.3640
3839.00,0.3641
3838.00,0.3641
3837.00,0.3641
3836.00,0.3640
3835.00,0.3638
3834.00,0.3637
3833.00,0.3637
3832.00,0.3636
3831.00,0.3635
3830.00,0.3634
3829.00,0.3632
3828.00,0.3630
3827.00,0.3630
3826.00,0.3630
3825.00,0.3629
3824.00,0.3628
3823.00,0.3626
3822.00,0.3626
3821.00,0.3627
3820.00,0.3626
3819.00,0.3623
3818.00,0.3620
3817.00,0.3618
3816.00,0.3617
3815.00,0.3616
3814.00,0.3614
3813.00,0.3610
3812.00,0.3608
3811.00,0.3605
3810.00,0.3603
3809.00,0.3601
3808.00,0.3599
3807.00,0.3598
3806.00,0.3597
3805.00,0.3596
3804.00,0.3594
3803.00,0.3592
3802.00,0.3591
3801.00,0.3591
3800.00,0.3590
3799.00,0.3587
3798.00,0.3585
3797.00,0.3584
3796.00,0.3583
3795.00,0.3582
3794.00,0.3579
3793.00,0.3576
3792.00,0.3574
3791.00,0.3572
3790.00,0.3571
3789.00,0.3569
3788.00,0.3568
3787.00,0.3566
3786.00,0.3565
3785.00,0.3564
3784.00,0.3562
3783.00,0.3561
3782.00,0.3559
3781.00,0.3557
3780.00,0.3555
3779.00,0.3554
3778.00,0.3552
3777.00,0.3549
3776.00,0.3547
3775.00,0.3546
3774.00,0.3544
3773.00,0.3543
3772.00,0.3541
3771.00,0.3539
3770.00,0.3537
3769.00,0.3536
3768.00,0.3534
3767.00,0.3533
3766.00,0.3532
3765.00,0.3532
3764.00,0.3530
3763.00,0.3529
3762.00,0.3527
3761.00,0.3526
3760.00,0.3526
3759.00,0.3525
3758.00,0.3523
3757.00,0.3521
3756.00,0.3519
3755.00,0.3517
3754.00,0.3516
3753.00,0.3514
3752.00,0.3514
3751.00,0.3514
3750.00,0.3514
3749.00,0.3513
3748.00,0.3513
3747.00,0.3511
3746.00,0.3509
3745.00,0.3508
3744.00,0.3507
3743.00,0.3506
3742.00,0.3503
3741.00,0.3501
3740.00,0.3500
3739.00,0.3500
3738.00,0.3499
3737.00,0.3498
3736.00,0.3497
3735.00,0.3496
3734.00,0.3495
3733.00,0.3494
3732.00,0.3492
3731.00,0.3491
3730.00,0.3489
3729.00,0.3487
3728.00,0.3484
3727.00,0.3483
3726.00,0.3482
3725.00,0.3481
3724.00,0.3479
3723.00,0.3477
3722.00,0.3474
3721.00,0.3472
3720.00,0.3470
3719.00,0.3468
3718.00,0.3467
3717.00,0.3466
3716.00,0.3465
3715.00,0.3464
3714.00,0.3463
3713.00,0.3463
3712.00,0.3462
3711.00,0.3462
3710.00,0.3461
3709.00,0.3460
3708.00,0.3459
3707.00,0.3459
3706.00,0.3459
3705.00,0.3458
3704.00,0.3457
3703.00,0.3456
3702.00,0.3456
3701.00,0.3455
3700.00,0.3454
3699.00,0.3454
3698.00,0.3453
3697.00,0.3453
3696.00,0.3454
3695.00,0.3454
3694.00,0.3454
3693.00,0.3454
3692.00,0.3454
3691.00,0.3454
3690.00,0.3454
3689.00,0.3455
3688.00,0.3455
3687.00,0.3456
3686.00,0.3455
3685.00,0.3454
3684.00,0.3453
3683.00,0.3452
3682.00,0.3451
3681.00,0.3451
3680.00,0.3450
3679.00,0.3449
3678.00,0.3448
3677.00,0.3447
3676.00,0.3447
3675.00,0.3448
3674.00,0.3449
3673.00,0.3447
3672.00,0.3446
3671.00,0.3446
3670.00,0.3447
3669.00,0.3447
3668.00,0.3445
3667.00,0.3443
3666.00,0.3441
3665.00,0.3441
3664.00,0.3441
3663.00,0.3441
3662.00,0.3441
3661.00,0.3441
3660.00,0.3441
3659.00,0.3442
3658.00,0.3443
3657.00,0.3445
3656.00,0.3448
3655.00,0.3451
3654.00,0.3453
3653.00,0.3454
3652.00,0.3456
3651.00,0.3459
3650.00,0.3462
3649.00,0.3464
3648.00,0.3465
3647.00,0.3466
3646.00,0.3468
3645.00,0.3469
3644.00,0.3469
3643.00,0.3469
3642.00,0.3468
3641.00,0.3468
3640.00,0.3468
3639.00,0.3469
3638.00,0.3471
3637.00,0.3472
3636.00,0.3473
3635.00,0.3475
3634.00,0.3476
3633.00,0.3478
3632.00,0.3480
3631.00,0.3482
3630.00,0.3486
3629.00,0.3492
3628.00,0.3497
3627.00,0.3501
3626.00,0.3505
3625.00,0.3509
3624.00,0.3513
3623.00,0.3517
3622.00,0.3518
3621.00,0.3518
3620.00,0.3516
3619.00,0.3514
3618.00,0.3511
3617.00,0.3508
3616.00,0.3505
3615.00,0.3504
3614.00,0.3503
3613.00,0.3504
3612.00,0.3504
3611.00,0.3503
3610.00,0.3503
3609.00,0.3502
3608.00,0.3502
3607.00,0.3502
3606.00,0.3500
3605.00,0.3499
3604.00,0.3497
3603.00,0.3494
3602.00,0.3491
3601.00,0.3488
3600.00,0.3483
3599.00,0.3477
3598.00,0.3471
3597.00,0.3464
3596.00,0.3459
3595.00,0.3454
3594.00,0.3449
3593.00,0.3445
3592.00,0.3441
3591.00,0.3438
3590.00,0.3435
3589.00,0.3433
3588.00,0.3432
3587.00,0.3431
3586.00,0.3429
3585.00,0.3428
3584.00,0.3426
3583.00,0.3426
3582.00,0.3426
3581.00,0.3426
3580.00,0.3426
3579.00,0.3425
3578.00,0.3424
3577.00,0.3424
3576.00,0.3424
3575.00,0.3425
3574.00,0.3426
3573.00,0.3427
3572.00,0.3428
3571.00,0.3429
3570.00,0.3430
3569.00,0.3432
3568.00,0.3434
3567.00,0.3435
3566.00,0.3437
3565.00,0.3439
3564.00,0.3440
3563.00,0.3442
3562.00,0.3444
3561.00,0.3446
3560.00,0.3447
3559.00,0.3449
3558.00,0.3450
3557.00,0.3452
3556.00,0.3455
3555.00,0.3458
3554.00,0.3461
3553.00,0.3465
3552.00,0.3469
3551.00,0.3473
3550.00,0.3476
3549.00,0.3480
3548.00,0.3484
3547.00,0.3489
3546.00,0.3494
3545.00,0.3499
3544.00,0.3504
3543.00,0.3508
3542.00,0.3513
3541.00,0.3517
3540.00,0.3520
3539.00,0.3523
3538.00,0.3526
3537.00,0.3529
3536.00,0.3531
3535.00,0.3534
3534.00,0.3537
3533.00,0.3539
3532.00,0.3542
3531.00,0.3544
3530.00,0.3546
3529.00,0.3548
3528.00,0.3550
3527.00,0.3552
3526.00,0.3555
3525.00,0.3558
3524.00,0.3560
3523.00,0.3563
3522.00,0.3566
3521.00,0.3569
3520.00,0.3573
3519.00,0.3577
3518.00,0.3581
3517.00,0.3585
3516.00,0.3589
3515.00,0.3594
3514.00,0.3600
3513.00,0.3605
3512.00,0.3610
3511.00,0.3616
3510.00,0.3622
3509.00,0.3627
3508.00,0.3633
3507.00,0.3637
3506.00,0.3642
3505.00,0.3647
3504.00,0.3652
3503.00,0.3658
3502.00,0.3663
3501.00,0.3669
3500.00,0.3674
3499.00,0.3678
3498.00,0.3683
3497.00,0.3687
3496.00,0.3693
3495.00,0.3698
3494.00,0.3705
3493.00,0.3711
3492.00,0.3718
3491.00,0.3725
3490.00,0.3732
3489.00,0.3738
3488.00,0.3744
3487.00,0.3750
3486.00,0.3757
3485.00,0.3764
3484.00,0.3771
3483.00,0.3777
3482.00,0.3783
3481.00,0.3789
3480.00,0.3794
3479.00,0.3799
3478.00,0.3804
3477.00,0.3809
3476.00,0.3814
3475.00,0.3819
3474.00,0.3824
3473.00,0.3829
3472.00,0.3834
3471.00,0.3840
3470.00,0.3845
3469.00,0.3851
3468.00,0.3856
3467.00,0.3861
3466.00,0.3867
3465.00,0.3873
3464.00,0.3879
3463.00,0.3885
3462.00,0.3891
3461.00,0.3896
3460.00,0.3901
3459.00,0.3907
3458.00,0.3913
3457.00,0.3920
3456.00,0.3925
3455.00,0.3930
3454.00,0.3935
3453.00,0.3940
3452.00,0.3946
3451.00,0.3952
3450.00,0.3959
3449.00,0.3966
3448.00,0.3974
3447.00,0.3982
3446.00,0.3989
3445.00,0.3996
3444.00,0.4002
3443.00,0.4009
3442.00,0.4015
3441.00,0.4023
3440.00,0.4031
3439.00,0.4038
3438.00,0.4046
3437.00,0.4053
3436.00,0.4060
3435.00,0.4068
3434.00,0.4076
3433.00,0.4084
3432.00,0.4092
3431.00,0.4099
3430.00,0.4106
3429.00,0.4113
3428.00,0.4119
3427.00,0.4126
3426.00,0.4133
3425.00,0.4139
3424.00,0.4146
3423.00,0.4154
3422.00,0.4162
3421.00,0.4170
3420.00,0.4179
3419.00,0.4187
3418.00,0.4195
3417.00,0.4202
3416.00,0.4210
3415.00,0.4218
3414.00,0.4227
3413.00,0.4237
3412.00,0.4246
3411.00,0.4254
3410.00,0.4263
3409.00,0.4272
3408.00,0.4281
3407.00,0.4291
3406.00,0.4300
3405.00,0.4309
3404.00,0.4319
3403.00,0.4329
3402.00,0.4338
3401.00,0.4348
3400.00,0.4358
3399.00,0.4368
3398.00,0.4378
3397.00,0.4388
3396.00,0.4397
3395.00,0.4406
3394.00,0.4416
3393.00,0.4425
3392.00,0.4433
3391.00,0.4441
3390.00,0.4450
3389.00,0.4459
3388.00,0.4470
3387.00,0.4480
3386.00,0.4489
3385.00,0.4497
3384.00,0.4506
3383.00,0.4514
3382.00,0.4524
3381.00,0.4534
3380.00,0.4544
3379.00,0.4555
3378.00,0.4566
3377.00,0.4577
3376.00,0.4588
3375.00,0.4599
3374.00,0.4610
3373.00,0.4622
3372.00,0.4634
3371.00,0.4646
3370.00,0.4657
3369.00,0.4669
3368.00,0.4682
3367.00,0.4694
3366.00,0.4707
3365.00,0.4720
3364.00,0.4733
3363.00,0.4747
3362.00,0.4760
3361.00,0.4774
3360.00,0.4788
3359.00,0.4802
3358.00,0.4816
3357.00,0.4830
3356.00,0.4844
3355.00,0.4857
3354.00,0.4869
3353.00,0.4882
3352.00,0.4895
3351.00,0.4909
3350.00,0.4923
3349.00,0.4937
3348.00,0.4951
3347.00,0.4964
3346.00,0.4978
3345.00,0.4991
3344.00,0.5004
3343.00,0.5016
3342.00,0.5028
3341.00,0.5040
3340.00,0.5052
3339.00,0.5063
3338.00,0.5074
3337.00,0.5083
3336.00,0.5092
3335.00,0.5099
3334.00,0.5106
3333.00,0.5113
3332.00,0.5119
3331.00,0.5125
3330.00,0.5130
3329.00,0.5134
3328.00,0.5137
3327.00,0.5139
3326.00,0.5141
3325.00,0.5142
3324.00,0.5142
3323.00,0.5141
3322.00,0.5139
3321.00,0.5136
3320.00,0.5133
3319.00,0.5129
3318.00,0.5124
3317.00,0.5119
3316.00,0.5115
3315.00,0.5110
3314.00,0.5105
3313.00,0.5098
3312.00,0.5091
3311.00,0.5083
3310.00,0.5075
3309.00,0.5067
3308.00,0.5061
3307.00,0.5055
3306.00,0.5048
3305.00,0.5040
3304.00,0.5031
3303.00,0.5023
3302.00,0.5016
3301.00,0.5009
3300.00,0.5003
3299.00,0.4998
3298.00,0.4992
3297.00,0.4986
3296.00,0.4981
3295.00,0.4976
3294.00,0.4971
3293.00,0.4967
3292.00,0.4963
3291.00,0.4960
3290.00,0.4956
3289.00,0.4953
3288.00,0.4951
3287.00,0.4948
3286.00,0.4945
3285.00,0.4943
3284.00,0.4942
3283.00,0.4941
3282.00,0.4939
3281.00,0.4938
3280.00,0.4938
3279.00,0.4939
3278.00,0.4941
3277.00,0.4944
3276.00,0.4945
3275.00,0.4946
3274.00,0.4948
3273.00,0.4949
3272.00,0.4952
3271.00,0.4955
3270.00,0.4958
3269.00,0.4961
3268.00,0.4964
3267.00,0.4968
3266.00,0.4972
3265.00,0.4977
3264.00,0.4982
3263.00,0.4986
3262.00,0.4992
3261.00,0.4997
3260.00,0.5003
3259.00,0.5008
3258.00,0.5013
3257.00,0.5018
3256.00,0.5024
3255.00,0.5029
3254.00,0.5033
3253.00,0.5036
3252.00,0.5040
3251.00,0.5044
3250.00,0.5049
3249.00,0.5054
3248.00,0.5058
3247.00,0.5062
3246.00,0.5065
3245.00,0.5069
3244.00,0.5071
3243.00,0.5073
3242.00,0.5075
3241.00,0.5077
3240.00,0.5079
3239.00,0.5080
3238.00,0.5082
3237.00,0.5084
3236.00,0.5085
3235.00,0.5086
3234.00,0.5087
3233.00,0.5089
3232.00,0.5090
3231.00,0.5091
3230.00,0.5092
3229.00,0.5092
3228.00,0.5092
3227.00,0.5093
3226.00,0.5094
3225.00,0.5095
3224.00,0.5095
3223.00,0.5094
3222.00,0.5092
3221.00,0.5091
3220.00,0.5089
3219.00,0.5087
3218.00,0.5086
3217.00,0.5086
3216.00,0.5085
3215.00,0.5084
3214.00,0.5081
3213.00,0.5079
3212.00,0.5077
3211.00,0.5075
3210.00,0.5073
3209.00,0.5071
3208.00,0.5068
3207.00,0.5065
3206.00,0.5062
3205.00,0.5060
3204.00,0.5058
3203.00,0.5057
3202.00,0.5055
3201.00,0.5052
3200.00,0.5049
3199.00,0.5046
3198.00,0.5043
3197.00,0.5040
3196.00,0.5037
3195.00,0.5034
3194.00,0.5031
3193.00,0.5028
3192.00,0.5025
3191.00,0.5021
3190.00,0.5017
3189.00,0.5013
3188.00,0.5009
3187.00,0.5005
3186.00,0.5001
3185.00,0.4996
3184.00,0.4991
3183.00,0.4986
3182.00,0.4981
3181.00,0.4976
3180.00,0.4971
3179.00,0.4966
3178.00,0.4959
3177.00,0.4953
3176.00,0.4945
3175.00,0.4938
3174.00,0.4931
3173.00,0.4924
3172.00,0.4917
3171.00,0.4910
3170.00,0.4903
3169.00,0.4897
3168.00,0.4890
3167.00,0.4883
3166.00,0.4875
3165.00,0.4867
3164.00,0.4859
3163.00,0.4850
3162.00,0.4842
3161.00,0.4835
3160.00,0.4828
3159.00,0.4822
3158.00,0.4815
3157.00,0.4809
3156.00,0.4802
3155.00,0.4795
3154.00,0.4788
3153.00,0.4781
3152.00,0.4775
3151.00,0.4768
3150.00,0.4762
3149.00,0.4755
3148.00,0.4749
3147.00,0.4742
3146.00,0.4735
3145.00,0.4729
3144.00,0.4723
3143.00,0.4718
3142.00,0.4713
3141.00,0.4708
3140.00,0.4703
3139.00,0.4697
3138.00,0.4692
3137.00,0.4687
3136.00,0.4684
3135.00,0.4681
3134.00,0.4678
3133.00,0.4676
3132.00,0.4673
3131.00,0.4670
3130.00,0.4668
3129.00,0.4666
3128.00,0.4665
3127.00,0.4665
3126.00,0.4666
3125.00,0.4668
3124.00,0.4670
3123.00,0.4673
3122.00,0.4675
3121.00,0.4678
3120.00,0.4680
3119.00,0.4682
3118.00,0.4685
3117.00,0.4688
3116.00,0.4691
3115.00,0.4695
3114.00,0.4700
3113.00,0.4704
3112.00,0.4709
3111.00,0.4714
3110.00,0.4720
3109.00,0.4726
3108.00,0.4734
3107.00,0.4742
3106.00,0.4749
3105.00,0.4757
3104.00,0.4765
3103.00,0.4772
3102.00,0.4781
3101.00,0.4789
3100.00,0.4798
3099.00,0.4807
3098.00,0.4817
3097.00,0.4828
3096.00,0.4841
3095.00,0.4856
3094.00,0.4872
3093.00,0.4890
3092.00,0.4909
3091.00,0.4929
3090.00,0.4952
3089.00,0.4976
3088.00,0.5001
3087.00,0.5026
3086.00,0.5053
3085.00,0.5080
3084.00,0.5108
3083.00,0.5137
3082.00,0.5168
3081.00,0.5200
3080.00,0.5235
3079.00,0.5272
3078.00,0.5310
3077.00,0.5350
3076.00,0.5391
3075.00,0.5431
3074.00,0.5472
3073.00,0.5514
3072.00,0.5557
3071.00,0.5601
3070.00,0.5646
3069.00,0.5690
3068.00,0.5734
3067.00,0.5777
3066.00,0.5818
3065.00,0.5857
3064.00,0.5895
3063.00,0.5931
3062.00,0.5964
3061.00,0.5995
3060.00,0.6024
3059.00,0.6052
3058.00,0.6078
3057.00,0.6105
3056.00,0.6133
3055.00,0.6163
3054.00,0.6195
3053.00,0.6228
3052.00,0.6264
3051.00,0.6301
3050.00,0.6341
3049.00,0.6382
3048.00,0.6425
3047.00,0.6469
3046.00,0.6513
3045.00,0.6559
3044.00,0.6605
3043.00,0.6651
3042.00,0.6696
3041.00,0.6743
3040.00,0.6789
3039.00,0.6836
3038.00,0.6884
3037.00,0.6934
3036.00,0.6988
3035.00,0.7046
3034.00,0.7110
3033.00,0.7177
3032.00,0.7249
3031.00,0.7324
3030.00,0.7405
3029.00,0.7489
3028.00,0.7577
3027.00,0.7669
3026.00,0.7763
3025.00,0.7860
3024.00,0.7961
3023.00,0.8065
3022.00,0.8172
3021.00,0.8283
3020.00,0.8397
3019.00,0.8514
3018.00,0.8633
3017.00,0.8754
3016.00,0.8876
3015.00,0.8997
3014.00,0.9118
3013.00,0.9241
3012.00,0.9368
3011.00,0.9500
3010.00,0.9636
3009.00,0.9777
3008.00,0.9926
3007.00,1.0082
3006.00,1.0245
3005.00,1.0413
3004.00,1.0584
3003.00,1.0760
3002.00,1.0942
3001.00,1.1131
3000.00,1.1329
2999.00,1.1540
2998.00,1.1767
2997.00,1.2014
2996.00,1.2285
2995.00,1.2583
2994.00,1.2912
2993.00,1.3278
2992.00,1.3686
2991.00,1.4142
2990.00,1.4653
2989.00,1.5223
2988.00,1.5859
2987.00,1.6571
2986.00,1.7360
2985.00,1.8230
2984.00,1.9187
2983.00,2.0251
2982.00,2.1441
2981.00,2.2776
2980.00,2.4274
2979.00,2.5970
2978.00,2.7884
2977.00,2.9929
2976.00,3.1899
2975.00,3.3656
2974.00,3.5278
2973.00,3.6753
2972.00,3.8050
2971.00,3.9723
2970.00,4.0627
2969.00,3.9418
2968.00,3.8295
2967.00,3.8514
2966.00,4.0637
2965.00,4.1817
2964.00,4.0181
2963.00,3.8824
2962.00,3.8429
2961.00,3.9015
2960.00,3.9514
2959.00,3.9678
2958.00,3.9734
2957.00,3.9793
2956.00,4.0202
2955.00,4.0949
2954.00,4.1786
2953.00,4.2574
2952.00,4.3036
2951.00,4.3124
2950.00,4.3367
2949.00,4.3512
2948.00,4.2731
2947.00,4.1374
2946.00,4.0671
2945.00,4.1385
2944.00,4.2782
2943.00,4.1628
2942.00,3.9063
2941.00,3.7414
2940.00,3.6972
2939.00,3.7487
2938.00,3.8867
2937.00,4.0874
2936.00,4.1864
2935.00,4.0788
2934.00,3.9863
2933.00,3.9791
2932.00,4.0045
2931.00,4.0004
2930.00,4.0678
2929.00,4.1804
2928.00,4.0806
2927.00,3.9659
2926.00,3.9539
2925.00,4.0235
2924.00,3.9235
2923.00,3.7915
2922.00,3.7754
2921.00,3.9273
2920.00,4.3257
2919.00,4.4243
2918.00,4.0937
2917.00,3.8567
2916.00,3.8598
2915.00,4.0420
2914.00,4.2309
2913.00,4.3095
2912.00,4.1883
2911.00,4.0693
2910.00,3.9672
2909.00,3.9082
2908.00,3.9644
2907.00,4.0972
2906.00,4.2115
2905.00,4.2060
2904.00,4.0778
2903.00,3.9560
2902.00,3.9045
2901.00,3.9484
2900.00,4.0921
2899.00,4.2143
2898.00,4.2263
2897.00,4.2064
2896.00,4.1577
2895.00,4.0066
2894.00,3.8718
2893.00,3.8559
2892.00,4.0244
2891.00,4.3602
2890.00,4.3107
2889.00,4.1308
2888.00,4.0662
2887.00,4.0990
2886.00,4.0909
2885.00,4.0538
2884.00,4.0472
2883.00,3.9851
2882.00,3.9201
2881.00,3.9250
2880.00,4.0021
2879.00,4.1045
2878.00,4.1551
2877.00,4.1253
2876.00,4.0639
2875.00,4.0642
2874.00,4.1471
2873.00,4.3595
2872.00,4.5447
2871.00,4.3018
2870.00,4.1100
2869.00,4.1458
2868.00,4.3735
2867.00,4.2899
2866.00,4.1189
2865.00,4.0891
2864.00,4.3507
2863.00,4.5239
2862.00,4.0841
2861.00,3.8622
2860.00,3.8663
2859.00,4.1202
2858.00,4.2354
2857.00,4.0438
2856.00,3.8854
2855.00,3.8244
2854.00,3.8484
2853.00,3.9065
2852.00,4.0679
2851.00,4.3087
2850.00,4.1930
2849.00,3.9787
2848.00,3.8783
2847.00,3.9132
2846.00,3.9511
2845.00,3.9802
2844.00,4.1347
2843.00,4.2160
2842.00,3.9930
2841.00,3.7640
2840.00,3.6341
2839.00,3.5412
2838.00,3.4024
2837.00,3.2056
2836.00,2.9831
2835.00,2.7700
2834.00,2.5797
2833.00,2.4122
2832.00,2.2649
2831.00,2.1345
2830.00,2.0173
2829.00,1.9104
2828.00,1.8133
2827.00,1.7263
2826.00,1.6487
2825.00,1.5791
2824.00,1.5160
2823.00,1.4585
2822.00,1.4059
2821.00,1.3576
2820.00,1.3131
2819.00,1.2720
2818.00,1.2338
2817.00,1.1983
2816.00,1.1653
2815.00,1.1346
2814.00,1.1060
2813.00,1.0790
2812.00,1.0535
2811.00,1.0294
2810.00,1.0065
2809.00,0.9848
2808.00,0.9640
2807.00,0.9441
2806.00,0.9253
2805.00,0.9076
2804.00,0.8910
2803.00,0.8752
2802.00,0.8603
2801.00,0.8459
2800.00,0.8320
2799.00,0.8188
2798.00,0.8063
2797.00,0.7944
2796.00,0.7830
2795.00,0.7720
2794.00,0.7613
2793.00,0.7508
2792.00,0.7406
2791.00,0.7306
2790.00,0.7209
2789.00,0.7113
2788.00,0.7019
2787.00,0.6927
2786.00,0.6837
2785.00,0.6750
2784.00,0.6665
2783.00,0.6582
2782.00,0.6503
2781.00,0.6427
2780.00,0.6354
2779.00,0.6284
2778.00,0.6218
2777.00,0.6155
2776.00,0.6096
2775.00,0.6040
2774.00,0.5987
2773.00,0.5939
2772.00,0.5893
2771.00,0.5850
2770.00,0.5810
2769.00,0.5774
2768.00,0.5742
2767.00,0.5712
2766.00,0.5686
2765.00,0.5663
2764.00,0.5642
2763.00,0.5625
2762.00,0.5610
2761.00,0.5597
2760.00,0.5584
2759.00,0.5572
2758.00,0.5559
2757.00,0.5547
2756.00,0.5536
2755.00,0.5525
2754.00,0.5516
2753.00,0.5509
2752.00,0.5505
2751.00,0.5502
2750.00,0.5500
2749.00,0.5501
2748.00,0.5505
2747.00,0.5510
2746.00,0.5518
2745.00,0.5528
2744.00,0.5541
2743.00,0.5557
2742.00,0.5577
2741.00,0.5601
2740.00,0.5629
2739.00,0.5660
2738.00,0.5696
2737.00,0.5738
2736.00,0.5784
2735.00,0.5834
2734.00,0.5887
2733.00,0.5939
2732.00,0.5987
2731.00,0.6027
2730.00,0.6057
2729.00,0.6077
2728.00,0.6086
2727.00,0.6085
2726.00,0.6077
2725.00,0.6062
2724.00,0.6043
2723.00,0.6019
2722.00,0.5992
2721.00,0.5963
2720.00,0.5931
2719.00,0.5896
2718.00,0.5858
2717.00,0.5818
2716.00,0.5775
2715.00,0.5730
2714.00,0.5685
2713.00,0.5641
2712.00,0.5600
2711.00,0.5562
2710.00,0.5529
2709.00,0.5500
2708.00,0.5474
2707.00,0.5453
2706.00,0.5434
2705.00,0.5419
2704.00,0.5407
2703.00,0.5398
2702.00,0.5391
2701.00,0.5387
2700.00,0.5385
2699.00,0.5384
2698.00,0.5385
2697.00,0.5389
2696.00,0.5394
2695.00,0.5400
2694.00,0.5407
2693.00,0.5415
2692.00,0.5423
2691.00,0.5432
2690.00,0.5442
2689.00,0.5451
2688.00,0.5460
2687.00,0.5467
2686.00,0.5474
2685.00,0.5480
2684.00,0.5486
2683.00,0.5491
2682.00,0.5495
2681.00,0.5500
2680.00,0.5504
2679.00,0.5507
2678.00,0.5511
2677.00,0.5516
2676.00,0.5521
2675.00,0.5526
2674.00,0.5530
2673.00,0.5533
2672.00,0.5535
2671.00,0.5534
2670.00,0.5532
2669.00,0.5527
2668.00,0.5519
2667.00,0.5507
2666.00,0.5493
2665.00,0.5478
2664.00,0.5461
2663.00,0.5442
2662.00,0.5423
2661.00,0.5403
2660.00,0.5382
2659.00,0.5360
2658.00,0.5339
2657.00,0.5319
2656.00,0.5299
2655.00,0.5279
2654.00,0.5260
2653.00,0.5242
2652.00,0.5226
2651.00,0.5210
2650.00,0.5196
2649.00,0.5182
2648.00,0.5169
2647.00,0.5155
2646.00,0.5143
2645.00,0.5131
2644.00,0.5120
2643.00,0.5109
2642.00,0.5099
2641.00,0.5089
2640.00,0.5079
2639.00,0.5069
2638.00,0.5060
2637.00,0.5051
2636.00,0.5042
2635.00,0.5033
2634.00,0.5024
2633.00,0.5015
2632.00,0.5007
2631.00,0.4998
2630.00,0.4990
2629.00,0.4981
2628.00,0.4972
2627.00,0.4962
2626.00,0.4952
2625.00,0.4941
2624.00,0.4932
2623.00,0.4923
2622.00,0.4914
2621.00,0.4906
2620.00,0.4898
2619.00,0.4890
2618.00,0.4882
2617.00,0.4874
2616.00,0.4866
2615.00,0.4857
2614.00,0.4849
2613.00,0.4840
2612.00,0.4831
2611.00,0.4822
2610.00,0.4813
2609.00,0.4804
2608.00,0.4795
2607.00,0.4785
2606.00,0.4776
2605.00,0.4766
2604.00,0.4756
2603.00,0.4746
2602.00,0.4736
2601.00,0.4725
2600.00,0.4713
2599.00,0.4701
2598.00,0.4687
2597.00,0.4673
2596.00,0.4657
2595.00,0.4642
2594.00,0.4626
2593.00,0.4611
2592.00,0.4594
2591.00,0.4578
2590.00,0.4562
2589.00,0.4545
2588.00,0.4529
2587.00,0.4512
2586.00,0.4496
2585.00,0.4481
2584.00,0.4465
2583.00,0.4449
2582.00,0.4432
2581.00,0.4415
2580.00,0.4398
2579.00,0.4381
2578.00,0.4364
2577.00,0.4349
2576.00,0.4334
2575.00,0.4318
2574.00,0.4303
2573.00,0.4288
2572.00,0.4273
2571.00,0.4258
2570.00,0.4243
2569.00,0.4229
2568.00,0.4215
2567.00,0.4201
2566.00,0.4188
2565.00,0.4174
2564.00,0.4159
2563.00,0.4144
2562.00,0.4129
2561.00,0.4115
2560.00,0.4101
2559.00,0.4088
2558.00,0.4075
2557.00,0.4063
2556.00,0.4052
2555.00,0.4040
2554.00,0.4028
2553.00,0.4017
2552.00,0.4006
2551.00,0.3996
2550.00,0.3987
2549.00,0.3977
2548.00,0.3967
2547.00,0.3958
2546.00,0.3949
2545.00,0.3941
2544.00,0.3933
2543.00,0.3925
2542.00,0.3918
2541.00,0.3911
2540.00,0.3905
2539.00,0.3898
2538.00,0.3891
2537.00,0.3885
2536.00,0.3879
2535.00,0.3873
2534.00,0.3867
2533.00,0.3861
2532.00,0.3854
2531.00,0.3846
2530.00,0.3838
2529.00,0.3830
2528.00,0.3821
2527.00,0.3811
2526.00,0.3801
2525.00,0.3791
2524.00,0.3781
2523.00,0.3772
2522.00,0.3762
2521.00,0.3753
2520.00,0.3743
2519.00,0.3733
2518.00,0.3724
2517.00,0.3715
2516.00,0.3706
2515.00,0.3698
2514.00,0.3690
2513.00,0.3682
2512.00,0.3675
2511.00,0.3668
2510.00,0.3662
2509.00,0.3656
2508.00,0.3650
2507.00,0.3645
2506.00,0.3640
2505.00,0.3635
2504.00,0.3630
2503.00,0.3625
2502.00,0.3621
2501.00,0.3617
2500.00,0.3613
2499.00,0.3609
2498.00,0.3605
2497.00,0.3601
2496.00,0.3597
2495.00,0.3592
2494.00,0.3587
2493.00,0.3583
2492.00,0.3579
2491.00,0.3574
2490.00,0.3570
2489.00,0.3565
2488.00,0.3561
2487.00,0.3556
2486.00,0.3552
2485.00,0.3547
2484.00,0.3543
2483.00,0.3540
2482.00,0.3536
2481.00,0.3533
2480.00,0.3529
2479.00,0.3525
2478.00,0.3521
2477.00,0.3517
2476.00,0.3514
2475.00,0.3511
2474.00,0.3508
2473.00,0.3506
2472.00,0.3504
2471.00,0.3501
2470.00,0.3498
2469.00,0.3496
2468.00,0.3494
2467.00,0.3492
2466.00,0.3490
2465.00,0.3487
2464.00,0.3485
2463.00,0.3483
2462.00,0.3481
2461.00,0.3479
2460.00,0.3478
2459.00,0.3476
2458.00,0.3474
2457.00,0.3472
2456.00,0.3471
2455.00,0.3470
2454.00,0.3468
2453.00,0.3467
2452.00,0.3466
2451.00,0.3464
2450.00,0.3462
2449.00,0.3461
2448.00,0.3459
2447.00,0.3458
2446.00,0.3457
2445.00,0.3456
2444.00,0.3456
2443.00,0.3455
2442.00,0.3455
2441.00,0.3455
2440.00,0.3455
2439.00,0.3455
2438.00,0.3455
2437.00,0.3455
2436.00,0.3456
2435.00,0.3457
2434.00,0.3457
2433.00,0.3457
2432.00,0.3458
2431.00,0.3459
2430.00,0.3460
2429.00,0.3461
2428.00,0.3461
2427.00,0.3462
2426.00,0.3463
2425.00,0.3464
2424.00,0.3464
2423.00,0.3465
2422.00,0.3465
2421.00,0.3466
2420.00,0.3467
2419.00,0.3468
2418.00,0.3469
2417.00,0.3469
2416.00,0.3470
2415.00,0.3470
2414.00,0.3470
2413.00,0.3470
2412.00,0.3470
2411.00,0.3470
2410.00,0.3470
2409.00,0.3470
2408.00,0.3470
2407.00,0.3469
2406.00,0.3469
2405.00,0.3468
2404.00,0.3466
2403.00,0.3465
2402.00,0.3464
2401.00,0.3462
2400.00,0.3460
2399.00,0.3458
2398.00,0.3456
2397.00,0.3454
2396.00,0.3452
2395.00,0.3451
2394.00,0.3449
2393.00,0.3448
2392.00,0.3447
2391.00,0.3446
2390.00,0.3444
2389.00,0.3443
2388.00,0.3443
2387.00,0.3443
2386.00,0.3444
2385.00,0.3445
2384.00,0.3447
2383.00,0.3449
2382.00,0.3451
2381.00,0.3453
2380.00,0.3454
2379.00,0.3455
2378.00,0.3456
2377.00,0.3456
2376.00,0.3456
2375.00,0.3456
2374.00,0.3454
2373.00,0.3452
2372.00,0.3451
2371.00,0.3449
2370.00,0.3448
2369.00,0.3447
2368.00,0.3447
2367.00,0.3447
2366.00,0.3448
2365.00,0.3449
2364.00,0.3449
2363.00,0.3449
2362.00,0.3449
2361.00,0.3449
2360.00,0.3448
2359.00,0.3447
2358.00,0.3447
2357.00,0.3446
2356.00,0.3446
2355.00,0.3446
2354.00,0.3445
2353.00,0.3445
2352.00,0.3445
2351.00,0.3444
2350.00,0.3442
2349.00,0.3441
2348.00,0.3439
2347.00,0.3437
2346.00,0.3436
2345.00,0.3435
2344.00,0.3434
2343.00,0.3432
2342.00,0.3431
2341.00,0.3430
2340.00,0.3428
2339.00,0.3427
2338.00,0.3425
2337.00,0.3425
2336.00,0.3424
2335.00,0.3423
2334.00,0.3422
2333.00,0.3421
2332.00,0.3420
2331.00,0.3417
2330.00,0.3414
2329.00,0.3411
2328.00,0.3409
2327.00,0.3406
2326.00,0.3403
2325.00,0.3401
2324.00,0.3399
2323.00,0.3397
2322.00,0.3394
2321.00,0.3391
2320.00,0.3388
2319.00,0.3384
2318.00,0.3381
2317.00,0.3378
2316.00,0.3376
2315.00,0.3374
2314.00,0.3372
2313.00,0.3370
2312.00,0.3368
2311.00,0.3365
2310.00,0.3362
2309.00,0.3359
2308.00,0.3355
2307.00,0.3352
2306.00,0.3349
2305.00,0.3346
2304.00,0.3343
2303.00,0.3340
2302.00,0.3337
2301.00,0.3334
2300.00,0.3331
2299.00,0.3328
2298.00,0.3325
2297.00,0.3323
2296.00,0.3320
2295.00,0.3317
2294.00,0.3313
2293.00,0.3310
2292.00,0.3306
2291.00,0.3301
2290.00,0.3297
2289.00,0.3293
2288.00,0.3289
2287.00,0.3285
2286.00,0.3282
2285.00,0.3279
2284.00,0.3276
2283.00,0.3272
2282.00,0.3269
2281.00,0.3265
2280.00,0.3262
2279.00,0.3259
2278.00,0.3255
2277.00,0.3252
2276.00,0.3250
2275.00,0.3247
2274.00,0.3245
2273.00,0.3244
2272.00,0.3242
2271.00,0.3241
2270.00,0.3240
2269.00,0.3239
2268.00,0.3239
2267.00,0.3238
2266.00,0.3236
2265.00,0.3234
2264.00,0.3233
2263.00,0.3231
2262.00,0.3229
2261.00,0.3227
2260.00,0.3225
2259.00,0.3222
2258.00,0.3220
2257.00,0.3217
2256.00,0.3214
2255.00,0.3211
2254.00,0.3207
2253.00,0.3204
2252.00,0.3200
2251.00,0.3196
2250.00,0.3192
2249.00,0.3189
2248.00,0.3187
2247.00,0.3184
2246.00,0.3182
2245.00,0.3180
2244.00,0.3177
2243.00,0.3175
2242.00,0.3173
2241.00,0.3171
2240.00,0.3169
2239.00,0.3168
2238.00,0.3167
2237.00,0.3166
2236.00,0.3165
2235.00,0.3164
2234.00,0.3163
2233.00,0.3163
2232.00,0.3163
2231.00,0.3163
2230.00,0.3162
2229.00,0.3162
2228.00,0.3162
2227.00,0.3162
2226.00,0.3162
2225.00,0.3161
2224.00,0.3161
2223.00,0.3160
2222.00,0.3160
2221.00,0.3159
2220.00,0.3158
2219.00,0.3157
2218.00,0.3155
2217.00,0.3154
2216.00,0.3152
2215.00,0.3151
2214.00,0.3149
2213.00,0.3147
2212.00,0.3145
2211.00,0.3144
2210.00,0.3142
2209.00,0.3142
2208.00,0.3141
2207.00,0.3140
2206.00,0.3139
2205.00,0.3138
2204.00,0.3137
2203.00,0.3137
2202.00,0.3136
2201.00,0.3136
2200.00,0.3136
2199.00,0.3136
2198.00,0.3137
2197.00,0.3138
2196.00,0.3138
2195.00,0.3139
2194.00,0.3140
2193.00,0.3141
2192.00,0.3143
2191.00,0.3144
2190.00,0.3145
2189.00,0.3145
2188.00,0.3146
2187.00,0.3146
2186.00,0.3146
2185.00,0.3146
2184.00,0.3146
2183.00,0.3145
2182.00,0.3144
2181.00,0.3143
2180.00,0.3142
2179.00,0.3140
2178.00,0.3138
2177.00,0.3135
2176.00,0.3133
2175.00,0.3131
2174.00,0.3129
2173.00,0.3128
2172.00,0.3126
2171.00,0.3125
2170.00,0.3123
2169.00,0.3121
2168.00,0.3119
2167.00,0.3117
2166.00,0.3115
2165.00,0.3114
2164.00,0.3112
2163.00,0.3111
2162.00,0.3109
2161.00,0.3108
2160.00,0.3108
2159.00,0.3107
2158.00,0.3106
2157.00,0.3105
2156.00,0.3104
2155.00,0.3103
2154.00,0.3103
2153.00,0.3102
2152.00,0.3102
2151.00,0.3101
2150.00,0.3099
2149.00,0.3096
2148.00,0.3094
2147.00,0.3091
2146.00,0.3087
2145.00,0.3083
2144.00,0.3078
2143.00,0.3074
2142.00,0.3069
2141.00,0.3065
2140.00,0.3060
2139.00,0.3056
2138.00,0.3052
2137.00,0.3048
2136.00,0.3045
2135.00,0.3042
2134.00,0.3039
2133.00,0.3036
2132.00,0.3034
2131.00,0.3032
2130.00,0.3030
2129.00,0.3028
2128.00,0.3026
2127.00,0.3024
2126.00,0.3023
2125.00,0.3022
2124.00,0.3021
2123.00,0.3020
2122.00,0.3019
2121.00,0.3018
2120.00,0.3018
2119.00,0.3018
2118.00,0.3017
2117.00,0.3016
2116.00,0.3016
2115.00,0.3015
2114.00,0.3015
2113.00,0.3015
2112.00,0.3015
2111.00,0.3015
2110.00,0.3015
2109.00,0.3014
2108.00,0.3013
2107.00,0.3012
2106.00,0.3011
2105.00,0.3010
2104.00,0.3009
2103.00,0.3008
2102.00,0.3006
2101.00,0.3005
2100.00,0.3005
2099.00,0.3004
2098.00,0.3002
2097.00,0.3002
2096.00,0.3001
2095.00,0.3000
2094.00,0.2999
2093.00,0.2998
2092.00,0.2997
2091.00,0.2996
2090.00,0.2995
2089.00,0.2995
2088.00,0.2995
2087.00,0.2995
2086.00,0.2995
2085.00,0.2994
2084.00,0.2995
2083.00,0.2995
2082.00,0.2996
2081.00,0.2996
2080.00,0.2996
2079.00,0.2995
2078.00,0.2995
2077.00,0.2995
2076.00,0.2996
2075.00,0.2998
2074.00,0.2998
2073.00,0.2999
2072.00,0.3000
2071.00,0.3001
2070.00,0.3001
2069.00,0.3003
2068.00,0.3004
2067.00,0.3005
2066.00,0.3006
2065.00,0.3006
2064.00,0.3008
2063.00,0.3009
2062.00,0.3010
2061.00,0.3011
2060.00,0.3012
2059.00,0.3013
2058.00,0.3013
2057.00,0.3013
2056.00,0.3014
2055.00,0.3015
2054.00,0.3015
2053.00,0.3016
2052.00,0.3017
2051.00,0.3018
2050.00,0.3019
2049.00,0.3020
2048.00,0.3021
2047.00,0.3023
2046.00,0.3024
2045.00,0.3026
2044.00,0.3028
2043.00,0.3029
2042.00,0.3031
2041.00,0.3032
2040.00,0.3034
2039.00,0.3035
2038.00,0.3036
2037.00,0.3037
2036.00,0.3038
2035.00,0.3039
2034.00,0.3039
2033.00,0.3039
2032.00,0.3039
2031.00,0.3039
2030.00,0.3040
2029.00,0.3040
2028.00,0.3040
2027.00,0.3040
2026.00,0.3038
2025.00,0.3037
2024.00,0.3036
2023.00,0.3034
2022.00,0.3032
2021.00,0.3028
2020.00,0.3024
2019.00,0.3019
2018.00,0.3013
2017.00,0.3008
2016.00,0.3002
2015.00,0.2996
2014.00,0.2991
2013.00,0.2985
2012.00,0.2980
2011.00,0.2975
2010.00,0.2970
2009.00,0.2965
2008.00,0.2961
2007.00,0.2957
2006.00,0.2954
2005.00,0.2951
2004.00,0.2949
2003.00,0.2948
2002.00,0.2946
2001.00,0.2945
2000.00,0.2944
1999.00,0.2943
1998.00,0.2942
1997.00,0.2941
1996.00,0.2940
1995.00,0.2940
1994.00,0.2939
1993.00,0.2938
1992.00,0.2938
1991.00,0.2938
1990.00,0.2938
1989.00,0.2938
1988.00,0.2938
1987.00,0.2938
1986.00,0.2936
1985.00,0.2935
1984.00,0.2934
1983.00,0.2934
1982.00,0.2933
1981.00,0.2933
1980.00,0.2933
1979.00,0.2933
1978.00,0.2932
1977.00,0.2931
1976.00,0.2931
1975.00,0.2930
1974.00,0.2929
1973.00,0.2928
1972.00,0.2928
1971.00,0.2927
1970.00,0.2926
1969.00,0.2925
1968.00,0.2926
1967.00,0.2926
1966.00,0.2927
1965.00,0.2928
1964.00,0.2928
1963.00,0.2929
1962.00,0.2929
1961.00,0.2930
1960.00,0.2931
1959.00,0.2933
1958.00,0.2934
1957.00,0.2936
1956.00,0.2939
1955.00,0.2941
1954.00,0.2942
1953.00,0.2943
1952.00,0.2945
1951.00,0.2946
1950.00,0.2947
1949.00,0.2948
1948.00,0.2950
1947.00,0.2951
1946.00,0.2953
1945.00,0.2955
1944.00,0.2958
1943.00,0.2963
1942.00,0.2969
1941.00,0.2975
1940.00,0.2981
1939.00,0.2984
1938.00,0.2985
1937.00,0.2984
1936.00,0.2983
1935.00,0.2981
1934.00,0.2978
1933.00,0.2976
1932.00,0.2975
1931.00,0.2975
1930.00,0.2975
1929.00,0.2976
1928.00,0.2977
1927.00,0.2978
1926.00,0.2978
1925.00,0.2979
1924.00,0.2981
1923.00,0.2984
1922.00,0.2988
1921.00,0.2993
1920.00,0.2996
1919.00,0.2999
1918.00,0.3002
1917.00,0.3006
1916.00,0.3011
1915.00,0.3013
1914.00,0.3015
1913.00,0.3016
1912.00,0.3017
1911.00,0.3019
1910.00,0.3020
1909.00,0.3021
1908.00,0.3023
1907.00,0.3024
1906.00,0.3025
1905.00,0.3025
1904.00,0.3025
1903.00,0.3024
1902.00,0.3024
1901.00,0.3025
1900.00,0.3026
1899.00,0.3027
1898.00,0.3027
1897.00,0.3027
1896.00,0.3028
1895.00,0.3029
1894.00,0.3030
1893.00,0.3032
1892.00,0.3033
1891.00,0.3033
1890.00,0.3032
1889.00,0.3033
1888.00,0.3035
1887.00,0.3037
1886.00,0.3037
1885.00,0.3036
1884.00,0.3036
1883.00,0.3036
1882.00,0.3035
1881.00,0.3035
1880.00,0.3036
1879.00,0.3036
1878.00,0.3036
1877.00,0.3036
1876.00,0.3036
1875.00,0.3034
1874.00,0.3032
1873.00,0.3031
1872.00,0.3029
1871.00,0.3026
1870.00,0.3024
1869.00,0.3023
1868.00,0.3024
1867.00,0.3024
1866.00,0.3023
1865.00,0.3020
1864.00,0.3017
1863.00,0.3014
1862.00,0.3011
1861.00,0.3008
1860.00,0.3006
1859.00,0.3003
1858.00,0.3000
1857.00,0.2998
1856.00,0.2996
1855.00,0.2993
1854.00,0.2990
1853.00,0.2987
1852.00,0.2986
1851.00,0.2983
1850.00,0.2981
1849.00,0.2979
1848.00,0.2979
1847.00,0.2977
1846.00,0.2974
1845.00,0.2972
1844.00,0.2971
1843.00,0.2973
1842.00,0.2975
1841.00,0.2975
1840.00,0.2974
1839.00,0.2972
1838.00,0.2971
1837.00,0.2971
1836.00,0.2972
1835.00,0.2972
1834.00,0.2973
1833.00,0.2973
1832.00,0.2972
1831.00,0.2971
1830.00,0.2971
1829.00,0.2973
1828.00,0.2974
1827.00,0.2972
1826.00,0.2968
1825.00,0.2966
1824.00,0.2967
1823.00,0.2968
1822.00,0.2969
1821.00,0.2969
1820.00,0.2969
1819.00,0.2968
1818.00,0.2967
1817.00,0.2967
1816.00,0.2968
1815.00,0.2968
1814.00,0.2968
1813.00,0.2968
1812.00,0.2969
1811.00,0.2970
1810.00,0.2972
1809.00,0.2974
1808.00,0.2977
1807.00,0.2980
1806.00,0.2982
1805.00,0.2986
1804.00,0.2989
1803.00,0.2993
1802.00,0.2997
1801.00,0.3003
1800.00,0.3012
1799.00,0.3020
1798.00,0.3026
1797.00,0.3032
1796.00,0.3037
1795.00,0.3040
1794.00,0.3042
1793.00,0.3044
1792.00,0.3048
1791.00,0.3054
1790.00,0.3060
1789.00,0.3065
1788.00,0.3069
1787.00,0.3070
1786.00,0.3071
1785.00,0.3074
1784.00,0.3078
1783.00,0.3082
1782.00,0.3085
1781.00,0.3088
1780.00,0.3093
1779.00,0.3097
1778.00,0.3101
1777.00,0.3106
1776.00,0.3110
1775.00,0.3114
1774.00,0.3117
1773.00,0.3123
1772.00,0.3131
1771.00,0.3140
1770.00,0.3146
1769.00,0.3151
1768.00,0.3159
1767.00,0.3169
1766.00,0.3180
1765.00,0.3190
1764.00,0.3200
1763.00,0.3210
1762.00,0.3224
1761.00,0.3242
1760.00,0.3263
1759.00,0.3282
1758.00,0.3302
1757.00,0.3327
1756.00,0.3357
1755.00,0.3388
1754.00,0.3416
1753.00,0.3443
1752.00,0.3474
1751.00,0.3508
1750.00,0.3543
1749.00,0.3575
1748.00,0.3604
1747.00,0.3626
1746.00,0.3644
1745.00,0.3659
1744.00,0.3671
1743.00,0.3680
1742.00,0.3684
1741.00,0.3686
1740.00,0.3686
1739.00,0.3684
1738.00,0.3681
1737.00,0.3676
1736.00,0.3666
1735.00,0.3652
1734.00,0.3642
1733.00,0.3639
1732.00,0.3639
1731.00,0.3635
1730.00,0.3630
1729.00,0.3629
1728.00,0.3633
1727.00,0.3640
1726.00,0.3650
1725.00,0.3665
1724.00,0.3687
1723.00,0.3713
1722.00,0.3743
1721.00,0.3775
1720.00,0.3813
1719.00,0.3862
1718.00,0.3933
1717.00,0.4024
1716.00,0.4122
1715.00,0.4224
1714.00,0.4331
1713.00,0.4443
1712.00,0.4554
1711.00,0.4659
1710.00,0.4755
1709.00,0.4831
1708.00,0.4880
1707.00,0.4898
1706.00,0.4886
1705.00,0.4846
1704.00,0.4788
1703.00,0.4719
1702.00,0.4631
1701.00,0.4510
1700.00,0.4378
1699.00,0.4275
1698.00,0.4200
1697.00,0.4126
1696.00,0.4043
1695.00,0.3964
1694.00,0.3906
1693.00,0.3863
1692.00,0.3826
1691.00,0.3790
1690.00,0.3758
1689.00,0.3733
1688.00,0.3714
1687.00,0.3697
1686.00,0.3680
1685.00,0.3661
1684.00,0.3644
1683.00,0.3632
1682.00,0.3624
1681.00,0.3616
1680.00,0.3607
1679.00,0.3598
1678.00,0.3590
1677.00,0.3582
1676.00,0.3575
1675.00,0.3570
1674.00,0.3570
1673.00,0.3571
1672.00,0.3570
1671.00,0.3566
1670.00,0.3562
1669.00,0.3561
1668.00,0.3562
1667.00,0.3563
1666.00,0.3562
1665.00,0.3561
1664.00,0.3559
1663.00,0.3559
1662.00,0.3561
1661.00,0.3564
1660.00,0.3568
1659.00,0.3570
1658.00,0.3572
1657.00,0.3575
1656.00,0.3579
1655.00,0.3581
1654.00,0.3586
1653.00,0.3601
1652.00,0.3619
1651.00,0.3631
1650.00,0.3635
1649.00,0.3637
1648.00,0.3643
1647.00,0.3652
1646.00,0.3666
1645.00,0.3682
1644.00,0.3697
1643.00,0.3708
1642.00,0.3720
1641.00,0.3735
1640.00,0.3752
1639.00,0.3768
1638.00,0.3784
1637.00,0.3802
1636.00,0.3826
1635.00,0.3851
1634.00,0.3875
1633.00,0.3897
1632.00,0.3916
1631.00,0.3934
1630.00,0.3952
1629.00,0.3976
1628.00,0.4004
1627.00,0.4033
1626.00,0.4060
1625.00,0.4091
1624.00,0.4128
1623.00,0.4172
1622.00,0.4222
1621.00,0.4276
1620.00,0.4332
1619.00,0.4394
1618.00,0.4469
1617.00,0.4568
1616.00,0.4683
1615.00,0.4790
1614.00,0.4883
1613.00,0.4974
1612.00,0.5071
1611.00,0.5170
1610.00,0.5268
1609.00,0.5365
1608.00,0.5459
1607.00,0.5543
1606.00,0.5615
1605.00,0.5680
1604.00,0.5743
1603.00,0.5802
1602.00,0.5857
1601.00,0.5916
1600.00,0.5983
1599.00,0.6056
1598.00,0.6139
1597.00,0.6244
1596.00,0.6383
1595.00,0.6558
1594.00,0.6775
1593.00,0.7053
1592.00,0.7412
1591.00,0.7864
1590.00,0.8432
1589.00,0.9157
1588.00,1.0090
1587.00,1.1267
1586.00,1.2710
1585.00,1.4469
1584.00,1.6604
1583.00,1.8986
1582.00,2.0956
1581.00,2.1645
1580.00,2.0976
1579.00,1.9313
1578.00,1.7097
1577.00,1.4850
1576.00,1.2948
1575.00,1.1549
1574.00,1.0596
1573.00,0.9937
1572.00,0.9445
1571.00,0.9052
1570.00,0.8762
1569.00,0.8615
1568.00,0.8629
1567.00,0.8790
1566.00,0.9103
1565.00,0.9600
1564.00,1.0261
1563.00,1.0985
1562.00,1.1646
1561.00,1.2148
1560.00,1.2252
1559.00,1.1601
1558.00,1.0554
1557.00,0.9669
1556.00,0.8952
1555.00,0.8277
1554.00,0.7654
1553.00,0.7149
1552.00,0.6770
1551.00,0.6468
1550.00,0.6210
1549.00,0.6001
1548.00,0.5843
1547.00,0.5721
1546.00,0.5615
1545.00,0.5526
1544.00,0.5457
1543.00,0.5402
1542.00,0.5355
1541.00,0.5311
1540.00,0.5266
1539.00,0.5219
1538.00,0.5177
1537.00,0.5145
1536.00,0.5116
1535.00,0.5085
1534.00,0.5053
1533.00,0.5034
1532.00,0.5029
1531.00,0.5033
1530.00,0.5041
1529.00,0.5051
1528.00,0.5061
1527.00,0.5065
1526.00,0.5064
1525.00,0.5062
1524.00,0.5063
1523.00,0.5065
1522.00,0.5073
1521.00,0.5093
1520.00,0.5122
1519.00,0.5153
1518.00,0.5184
1517.00,0.5219
1516.00,0.5255
1515.00,0.5279
1514.00,0.5290
1513.00,0.5297
1512.00,0.5306
1511.00,0.5318
1510.00,0.5338
1509.00,0.5373
1508.00,0.5435
1507.00,0.5531
1506.00,0.5649
1505.00,0.5768
1504.00,0.5868
1503.00,0.5950
1502.00,0.6022
1501.00,0.6095
1500.00,0.6167
1499.00,0.6236
1498.00,0.6310
1497.00,0.6403
1496.00,0.6512
1495.00,0.6620
1494.00,0.6723
1493.00,0.6831
1492.00,0.6952
1491.00,0.7089
1490.00,0.7248
1489.00,0.7430
1488.00,0.7625
1487.00,0.7829
1486.00,0.8055
1485.00,0.8318
1484.00,0.8623
1483.00,0.8976
1482.00,0.9399
1481.00,0.9902
1480.00,1.0466
1479.00,1.1076
1478.00,1.1769
1477.00,1.2602
1476.00,1.3585
1475.00,1.4707
1474.00,1.6059
1473.00,1.7845
1472.00,2.0181
1471.00,2.2918
1470.00,2.5920
1469.00,2.9463
1468.00,3.3674
1467.00,3.6767
1466.00,3.8988
1465.00,4.1806
1464.00,4.2667
1463.00,3.9820
1462.00,3.8700
1461.00,4.0435
1460.00,3.8199
1459.00,3.7801
1458.00,3.8277
1457.00,3.6867
1456.00,3.8770
1455.00,4.1001
1454.00,3.7230
1453.00,3.7402
1452.00,3.8613
1451.00,3.5979
1450.00,3.4353
1449.00,3.4175
1448.00,3.3258
1447.00,3.1234
1446.00,2.9546
1445.00,2.8206
1444.00,2.6684
1443.00,2.5065
1442.00,2.3667
1441.00,2.2482
1440.00,2.1353
1439.00,2.0209
1438.00,1.9036
1437.00,1.7812
1436.00,1.6614
1435.00,1.5561
1434.00,1.4653
1433.00,1.3805
1432.00,1.2965
1431.00,1.2155
1430.00,1.1420
1429.00,1.0792
1428.00,1.0280
1427.00,0.9877
1426.00,0.9552
1425.00,0.9274
1424.00,0.9041
1423.00,0.8864
1422.00,0.8735
1421.00,0.8629
1420.00,0.8528
1419.00,0.8434
1418.00,0.8354
1417.00,0.8289
1416.00,0.8236
1415.00,0.8197
1414.00,0.8167
1413.00,0.8145
1412.00,0.8131
1411.00,0.8127
1410.00,0.8122
1409.00,0.8103
1408.00,0.8059
1407.00,0.7988
1406.00,0.7889
1405.00,0.7764
1404.00,0.7630
1403.00,0.7504
1402.00,0.7391
1401.00,0.7288
1400.00,0.7195
1399.00,0.7124
1398.00,0.7079
1397.00,0.7055
1396.00,0.7057
1395.00,0.7096
1394.00,0.7177
1393.00,0.7305
1392.00,0.7491
1391.00,0.7757
1390.00,0.8123
1389.00,0.8625
1388.00,0.9306
1387.00,1.0178
1386.00,1.1181
1385.00,1.2234
1384.00,1.3315
1383.00,1.4466
1382.00,1.5736
1381.00,1.7160
1380.00,1.8761
1379.00,2.0429
1378.00,2.1768
1377.00,2.2265
1376.00,2.1757
1375.00,2.0462
1374.00,1.8802
1373.00,1.7210
1372.00,1.5894
1371.00,1.4873
1370.00,1.4119
1369.00,1.3611
1368.00,1.3302
1367.00,1.3083
1366.00,1.2802
1365.00,1.2349
1364.00,1.1720
1363.00,1.1013
1362.00,1.0357
1361.00,0.9825
1360.00,0.9424
1359.00,0.9128
1358.00,0.8911
1357.00,0.8755
1356.00,0.8651
1355.00,0.8585
1354.00,0.8547
1353.00,0.8523
1352.00,0.8504
1351.00,0.8483
1350.00,0.8457
1349.00,0.8425
1348.00,0.8391
1347.00,0.8356
1346.00,0.8326
1345.00,0.8300
1344.00,0.8277
1343.00,0.8254
1342.00,0.8224
1341.00,0.8180
1340.00,0.8113
1339.00,0.8024
1338.00,0.7914
1337.00,0.7787
1336.00,0.7650
1335.00,0.7508
1334.00,0.7369
1333.00,0.7241
1332.00,0.7128
1331.00,0.7034
1330.00,0.6959
1329.00,0.6901
1328.00,0.6858
1327.00,0.6829
1326.00,0.6812
1325.00,0.6804
1324.00,0.6803
1323.00,0.6807
1322.00,0.6814
1321.00,0.6821
1320.00,0.6829
1319.00,0.6839
1318.00,0.6853
1317.00,0.6872
1316.00,0.6895
1315.00,0.6924
1314.00,0.6957
1313.00,0.6995
1312.00,0.7034
1311.00,0.7072
1310.00,0.7107
1309.00,0.7136
1308.00,0.7160
1307.00,0.7178
1306.00,0.7188
1305.00,0.7186
1304.00,0.7170
1303.00,0.7140
1302.00,0.7101
1301.00,0.7055
1300.00,0.7003
1299.00,0.6949
1298.00,0.6892
1297.00,0.6836
1296.00,0.6781
1295.00,0.6731
1294.00,0.6686
1293.00,0.6644
1292.00,0.6604
1291.00,0.6566
1290.00,0.6530
1289.00,0.6496
1288.00,0.6464
1287.00,0.6431
1286.00,0.6395
1285.00,0.6356
1284.00,0.6315
1283.00,0.6277
1282.00,0.6244
1281.00,0.6216
1280.00,0.6192
1279.00,0.6171
1278.00,0.6151
1277.00,0.6129
1276.00,0.6106
1275.00,0.6084
1274.00,0.6064
1273.00,0.6046
1272.00,0.6033
1271.00,0.6026
1270.00,0.6022
1269.00,0.6015
1268.00,0.6000
1267.00,0.5973
1266.00,0.5936
1265.00,0.5893
1264.00,0.5851
1263.00,0.5816
1262.00,0.5790
1261.00,0.5769
1260.00,0.5752
1259.00,0.5738
1258.00,0.5723
1257.00,0.5706
1256.00,0.5687
1255.00,0.5668
1254.00,0.5650
1253.00,0.5636
1252.00,0.5624
1251.00,0.5614
1250.00,0.5603
1249.00,0.5590
1248.00,0.5573
1247.00,0.5553
1246.00,0.5531
1245.00,0.5505
1244.00,0.5475
1243.00,0.5443
1242.00,0.5411
1241.00,0.5378
1240.00,0.5348
1239.00,0.5323
1238.00,0.5301
1237.00,0.5282
1236.00,0.5265
1235.00,0.5252
1234.00,0.5244
1233.00,0.5240
1232.00,0.5240
1231.00,0.5246
1230.00,0.5252
1229.00,0.5252
1228.00,0.5242
1227.00,0.5223
1226.00,0.5196
1225.00,0.5164
1224.00,0.5134
1223.00,0.5107
1222.00,0.5087
1221.00,0.5071
1220.00,0.5059
1219.00,0.5052
1218.00,0.5050
1217.00,0.5053
1216.00,0.5059
1215.00,0.5069
1214.00,0.5079
1213.00,0.5085
1212.00,0.5084
1211.00,0.5077
1210.00,0.5066
1209.00,0.5055
1208.00,0.5043
1207.00,0.5030
1206.00,0.5015
1205.00,0.4998
1204.00,0.4980
1203.00,0.4965
1202.00,0.4953
1201.00,0.4944
1200.00,0.4939
1199.00,0.4936
1198.00,0.4934
1197.00,0.4929
1196.00,0.4920
1195.00,0.4910
1194.00,0.4900
1193.00,0.4893
1192.00,0.4887
1191.00,0.4884
1190.00,0.4880
1189.00,0.4874
1188.00,0.4866
1187.00,0.4860
1186.00,0.4856
1185.00,0.4854
1184.00,0.4852
1183.00,0.4850
1182.00,0.4850
1181.00,0.4852
1180.00,0.4857
1179.00,0.4865
1178.00,0.4877
1177.00,0.4891
1176.00,0.4910
1175.00,0.4937
1174.00,0.4975
1173.00,0.5019
1172.00,0.5067
1171.00,0.5112
1170.00,0.5147
1169.00,0.5165
1168.00,0.5166
1167.00,0.5157
1166.00,0.5143
1165.00,0.5129
1164.00,0.5119
1163.00,0.5114
1162.00,0.5117
1161.00,0.5126
1160.00,0.5140
1159.00,0.5157
1158.00,0.5173
1157.00,0.5185
1156.00,0.5191
1155.00,0.5189
1154.00,0.5180
1153.00,0.5164
1152.00,0.5142
1151.00,0.5117
1150.00,0.5092
1149.00,0.5066
1148.00,0.5041
1147.00,0.5020
1146.00,0.5002
1145.00,0.4988
1144.00,0.4978
1143.00,0.4976
1142.00,0.4984
1141.00,0.5004
1140.00,0.5035
1139.00,0.5076
1138.00,0.5128
1137.00,0.5189
1136.00,0.5259
1135.00,0.5332
1134.00,0.5396
1133.00,0.5434
1132.00,0.5432
1131.00,0.5390
1130.00,0.5321
1129.00,0.5242
1128.00,0.5169
1127.00,0.5112
1126.00,0.5073
1125.00,0.5048
1124.00,0.5030
1123.00,0.5017
1122.00,0.5005
1121.00,0.4992
1120.00,0.4983
1119.00,0.4984
1118.00,0.4997
1117.00,0.5023
1116.00,0.5057
1115.00,0.5090
1114.00,0.5110
1113.00,0.5102
1112.00,0.5065
1111.00,0.5007
1110.00,0.4944
1109.00,0.4886
1108.00,0.4841
1107.00,0.4810
1106.00,0.4791
1105.00,0.4780
1104.00,0.4773
1103.00,0.4770
1102.00,0.4766
1101.00,0.4760
1100.00,0.4750
1099.00,0.4741
1098.00,0.4732
1097.00,0.4724
1096.00,0.4718
1095.00,0.4715
1094.00,0.4715
1093.00,0.4719
1092.00,0.4725
1091.00,0.4734
1090.00,0.4746
1089.00,0.4760
1088.00,0.4780
1087.00,0.4808
1086.00,0.4846
1085.00,0.4893
1084.00,0.4948
1083.00,0.5009
1082.00,0.5078
1081.00,0.5150
1080.00,0.5221
1079.00,0.5284
1078.00,0.5332
1077.00,0.5355
1076.00,0.5350
1075.00,0.5320
1074.00,0.5271
1073.00,0.5213
1072.00,0.5154
1071.00,0.5103
1070.00,0.5062
1069.00,0.5031
1068.00,0.5008
1067.00,0.4990
1066.00,0.4978
1065.00,0.4970
1064.00,0.4966
1063.00,0.4966
1062.00,0.4971
1061.00,0.4978
1060.00,0.4984
1059.00,0.4988
1058.00,0.4990
1057.00,0.4987
1056.00,0.4982
1055.00,0.4975
1054.00,0.4970
1053.00,0.4968
1052.00,0.4972
1051.00,0.4982
1050.00,0.4998
1049.00,0.5017
1048.00,0.5037
1047.00,0.5055
1046.00,0.5070
1045.00,0.5077
1044.00,0.5077
1043.00,0.5072
1042.00,0.5068
1041.00,0.5065
1040.00,0.5061
1039.00,0.5057
1038.00,0.5051
1037.00,0.5044
1036.00,0.5039
1035.00,0.5040
1034.00,0.5048
1033.00,0.5062
1032.00,0.5080
1031.00,0.5099
1030.00,0.5114
1029.00,0.5120
1028.00,0.5114
1027.00,0.5094
1026.00,0.5060
1025.00,0.5013
1024.00,0.4957
1023.00,0.4900
1022.00,0.4847
1021.00,0.4799
1020.00,0.4756
1019.00,0.4719
1018.00,0.4687
1017.00,0.4659
1016.00,0.4634
1015.00,0.4613
1014.00,0.4595
1013.00,0.4579
1012.00,0.4565
1011.00,0.4555
1010.00,0.4549
1009.00,0.4547
1008.00,0.4550
1007.00,0.4558
1006.00,0.4571
1005.00,0.4586
1004.00,0.4601
1003.00,0.4619
1002.00,0.4637
1001.00,0.4654
1000.00,0.4668
999.00,0.4677
998.00,0.4680
997.00,0.4675
996.00,0.4663
995.00,0.4644
994.00,0.4621
993.00,0.4593
992.00,0.4564
991.00,0.4534
990.00,0.4507
989.00,0.4484
988.00,0.4465
987.00,0.4454
986.00,0.4450
985.00,0.4454
984.00,0.4464
983.00,0.4480
982.00,0.4500
981.00,0.4522
980.00,0.4543
979.00,0.4565
978.00,0.4586
977.00,0.4607
976.00,0.4626
975.00,0.4640
974.00,0.4650
973.00,0.4656
972.00,0.4658
971.00,0.4658
970.00,0.4656
969.00,0.4653
968.00,0.4649
967.00,0.4644
966.00,0.4639
965.00,0.4631
964.00,0.4621
963.00,0.4609
962.00,0.4597
961.00,0.4583
960.00,0.4570
959.00,0.4559
958.00,0.4552
957.00,0.4546
956.00,0.4541
955.00,0.4536
954.00,0.4529
953.00,0.4521
952.00,0.4511
951.00,0.4500
950.00,0.4490
949.00,0.4484
948.00,0.4482
947.00,0.4486
946.00,0.4494
945.00,0.4506
944.00,0.4520
943.00,0.4536
942.00,0.4553
941.00,0.4569
940.00,0.4582
939.00,0.4593
938.00,0.4599
937.00,0.4599
936.00,0.4591
935.00,0.4578
934.00,0.4559
933.00,0.4537
932.00,0.4513
931.00,0.4490
930.00,0.4469
929.00,0.4452
928.00,0.4442
927.00,0.4444
926.00,0.4458
925.00,0.4484
924.00,0.4522
923.00,0.4568
922.00,0.4612
921.00,0.4641
920.00,0.4642
919.00,0.4610
918.00,0.4551
917.00,0.4475
916.00,0.4395
915.00,0.4321
914.00,0.4258
913.00,0.4208
912.00,0.4168
911.00,0.4137
910.00,0.4112
909.00,0.4092
908.00,0.4076
907.00,0.4065
906.00,0.4059
905.00,0.4057
904.00,0.4058
903.00,0.4066
902.00,0.4078
901.00,0.4096
900.00,0.4120
899.00,0.4150
898.00,0.4185
897.00,0.4223
896.00,0.4261
895.00,0.4299
894.00,0.4339
893.00,0.4380
892.00,0.4420
891.00,0.4456
890.00,0.4485
889.00,0.4502
888.00,0.4506
887.00,0.4498
886.00,0.4481
885.00,0.4459
884.00,0.4439
883.00,0.4429
882.00,0.4429
881.00,0.4439
880.00,0.4455
879.00,0.4470
878.00,0.4479
877.00,0.4478
876.00,0.4470
875.00,0.4460
874.00,0.4455
873.00,0.4454
872.00,0.4457
871.00,0.4463
870.00,0.4473
869.00,0.4486
868.00,0.4504
867.00,0.4528
866.00,0.4558
865.00,0.4591
864.00,0.4625
863.00,0.4653
862.00,0.4663
861.00,0.4645
860.00,0.4599
859.00,0.4536
858.00,0.4470
857.00,0.4413
856.00,0.4367
855.00,0.4336
854.00,0.4316
853.00,0.4302
852.00,0.4292
851.00,0.4283
850.00,0.4272
849.00,0.4258
848.00,0.4237
847.00,0.4211
846.00,0.4181
845.00,0.4150
844.00,0.4121
843.00,0.4099
842.00,0.4088
841.00,0.4094
840.00,0.4119
839.00,0.4166
838.00,0.4228
837.00,0.4290
836.00,0.4333
835.00,0.4343
834.00,0.4322
833.00,0.4282
832.00,0.4241
831.00,0.4216
830.00,0.4210
829.00,0.4224
828.00,0.4251
827.00,0.4289
826.00,0.4336
825.00,0.4392
824.00,0.4454
823.00,0.4521
822.00,0.4590
821.00,0.4660
820.00,0.4730
819.00,0.4796
818.00,0.4853
817.00,0.4896
816.00,0.4922
815.00,0.4928
814.00,0.4913
813.00,0.4876
812.00,0.4824
811.00,0.4764
810.00,0.4704
809.00,0.4647
808.00,0.4595
807.00,0.4549
806.00,0.4505
805.00,0.4459
804.00,0.4407
803.00,0.4350
802.00,0.4288
801.00,0.4227
800.00,0.4173
799.00,0.4131
798.00,0.4101
797.00,0.4079
796.00,0.4063
795.00,0.4053
794.00,0.4049
793.00,0.4051
792.00,0.4058
791.00,0.4071
790.00,0.4092
789.00,0.4118
788.00,0.4146
787.00,0.4176
786.00,0.4212
785.00,0.4255
784.00,0.4302
783.00,0.4347
782.00,0.4386
781.00,0.4415
780.00,0.4436
779.00,0.4455
778.00,0.4473
777.00,0.4490
776.00,0.4507
775.00,0.4527
774.00,0.4548
773.00,0.4571
772.00,0.4595
771.00,0.4623
770.00,0.4654
769.00,0.4686
768.00,0.4717
767.00,0.4746
766.00,0.4771
765.00,0.4792
764.00,0.4809
763.00,0.4828
762.00,0.4853
761.00,0.4883
760.00,0.4917
759.00,0.4952
758.00,0.4986
757.00,0.5015
756.00,0.5040
755.00,0.5064
754.00,0.5091
753.00,0.5125
752.00,0.5167
751.00,0.5215
750.00,0.5265
749.00,0.5313
748.00,0.5355
747.00,0.5394
746.00,0.5430
745.00,0.5468
744.00,0.5509
743.00,0.5556
742.00,0.5607
741.00,0.5661
740.00,0.5711
739.00,0.5755
738.00,0.5792
737.00,0.5825
736.00,0.5861
735.00,0.5906
734.00,0.5960
733.00,0.6023
732.00,0.6098
731.00,0.6193
730.00,0.6316
729.00,0.6471
728.00,0.6658
727.00,0.6882
726.00,0.7142
725.00,0.7431
724.00,0.7718
723.00,0.7951
722.00,0.8054
721.00,0.7958
720.00,0.7659
719.00,0.7233
718.00,0.6778
717.00,0.6360
716.00,0.6005
715.00,0.5716
714.00,0.5485
713.00,0.5298
712.00,0.5144
711.00,0.5018
710.00,0.4916
709.00,0.4833
708.00,0.4763
707.00,0.4705
706.00,0.4655
705.00,0.4611
704.00,0.4574
703.00,0.4545
702.00,0.4531
701.00,0.4525
700.00,0.4509
699.00,0.4461
698.00,0.4365
697.00,0.4225
696.00,0.4068
695.00,0.3922
694.00,0.3803
693.00,0.3715
692.00,0.3652
691.00,0.3608
690.00,0.3574
689.00,0.3547
688.00,0.3523
687.00,0.3505
686.00,0.3493
685.00,0.3486
684.00,0.3479
683.00,0.3472
682.00,0.3465
681.00,0.3458
680.00,0.3449
679.00,0.3443
678.00,0.3439
677.00,0.3439
676.00,0.3442
675.00,0.3447
674.00,0.3451
673.00,0.3453
672.00,0.3453
671.00,0.3454
670.00,0.3458
669.00,0.3463
668.00,0.3463
667.00,0.3457
666.00,0.3458
665.00,0.3465
664.00,0.3473
663.00,0.3483
662.00,0.3495
661.00,0.3507
660.00,0.3517
659.00,0.3528
658.00,0.3541
657.00,0.3554
656.00,0.3566
655.00,0.3576
654.00,0.3587
653.00,0.3597
652.00,0.3606
651.00,0.3616
650.00,0.3628
649.00,0.3641
648.00,0.3654
647.00,0.3667
646.00,0.3679
645.00,0.3694
644.00,0.3710
643.00,0.3728
642.00,0.3745
641.00,0.3758
640.00,0.3766
639.00,0.3774
638.00,0.3782
637.00,0.3790
636.00,0.3797
635.00,0.3800
634.00,0.3802
633.00,0.3803
632.00,0.3807
631.00,0.3814
630.00,0.3824
629.00,0.3837
628.00,0.3855
627.00,0.3879
626.00,0.3907
625.00,0.3931
624.00,0.3951
623.00,0.3969
622.00,0.3985
621.00,0.4000
620.00,0.4011
619.00,0.4021
618.00,0.4031
617.00,0.4038
616.00,0.4044
615.00,0.4046
614.00,0.4046
613.00,0.4040
612.00,0.4028
611.00,0.4012
610.00,0.3997
609.00,0.3984
608.00,0.3973
607.00,0.3965
606.00,0.3957
605.00,0.3948
604.00,0.3938
603.00,0.3929
602.00,0.3923
601.00,0.3922
600.00,0.3924
599.00,0.3928
598.00,0.3934
597.00,0.3941
596.00,0.3950
595.00,0.3961
594.00,0.3974
593.00,0.3987
592.00,0.4001
591.00,0.4020
590.00,0.4044
589.00,0.4070
588.00,0.4094
587.00,0.4118
586.00,0.4141
585.00,0.4163
584.00,0.4186
583.00,0.4213
582.00,0.4242
581.00,0.4271
580.00,0.4299
579.00,0.4327
578.00,0.4354
577.00,0.4380
576.00,0.4400
575.00,0.4418
574.00,0.4436
573.00,0.4456
572.00,0.4475
571.00,0.4491
570.00,0.4505
569.00,0.4517
568.00,0.4532
567.00,0.4549
566.00,0.4562
565.00,0.4571
564.00,0.4577
563.00,0.4583
562.00,0.4587
561.00,0.4589
560.00,0.4590
559.00,0.4596
558.00,0.4606
557.00,0.4616
556.00,0.4626
555.00,0.4634
554.00,0.4642
553.00,0.4648
552.00,0.4654
551.00,0.4664
550.00,0.4679
