Created as New Dataset,
cm-1,A
4000.00,0.3124
3999.00,0.3122
3998.00,0.3119
3997.00,0.3117
3996.00,0.3114
3995.00,0.3111
3994.00,0.3108
3993.00,0.3104
3992.00,0.3101
3991.00,0.3098
3990.00,0.3094
3989.00,0.3090
3988.00,0.3086
3987.00,0.3083
3986.00,0.3080
3985.00,0.3078
3984.00,0.3074
3983.00,0.3071
3982.00,0.3067
3981.00,0.3063
3980.00,0.3059
3979.00,0.3055
3978.00,0.3052
3977.00,0.3049
3976.00,0.3047
3975.00,0.3045
3974.00,0.3042
3973.00,0.3039
3972.00,0.3036
3971.00,0.3033
3970.00,0.3030
3969.00,0.3028
3968.00,0.3026
3967.00,0.3023
3966.00,0.3021
3965.00,0.3019
3964.00,0.3018
3963.00,0.3017
3962.00,0.3016
3961.00,0.3014
3960.00,0.3012
3959.00,0.3010
3958.00,0.3008
3957.00,0.3007
3956.00,0.3006
3955.00,0.3004
3954.00,0.3003
3953.00,0.3003
3952.00,0.3003
3951.00,0.3002
3950.00,0.3002
3949.00,0.3000
3948.00,0.2998
3947.00,0.2997
3946.00,0.2996
3945.00,0.2995
3944.00,0.2995
3943.00,0.2994
3942.00,0.2992
3941.00,0.2990
3940.00,0.2989
3939.00,0.2987
3938.00,0.2986
3937.00,0.2984
3936.00,0.2982
3935.00,0.2982
3934.00,0.2982
3933.00,0.2982
3932.00,0.2983
3931.00,0.2982
3930.00,0.2982
3929.00,0.2982
3928.00,0.2983
3927.00,0.2982
3926.00,0.2982
3925.00,0.2981
3924.00,0.2980
3923.00,0.2980
3922.00,0.2980
3921.00,0.2981
3920.00,0.2981
3919.00,0.2981
3918.00,0.2981
3917.00,0.2982
3916.00,0.2981
3915.00,0.2980
3914.00,0.2979
3913.00,0.2978
3912.00,0.2976
3911.00,0.2975
3910.00,0.2974
3909.00,0.2973
3908.00,0.2974
3907.00,0.2976
3906.00,0.2978
3905.00,0.2980
3904.00,0.2982
3903.00,0.2984
3902.00,0.2988
3901.00,0.2991
3900.00,0.2993
3899.00,0.2991
3898.00,0.2986
3897.00,0.2981
3896.00,0.2977
3895.00,0.2974
3894.00,0.2972
3893.00,0.2971
3892.00,0.2969
3891.00,0.2968
3890.00,0.2967
3889.00,0.2968
3888.00,0.2970
3887.00,0.2971
3886.00,0.2971
3885.00,0.2969
3884.00,0.2969
3883.00,0.2971
3882.00,0.2973
3881.00,0.2973
3880.00,0.2971
3879.00,0.2967
3878.00,0.2964
3877.00,0.2964
3876.00,0.2963
3875.00,0.2962
3874.00,0.2961
3873.00,0.2960
3872.00,0.2961
3871.00,0.2963
3870.00,0.2964
3869.00,0.2964
3868.00,0.2963
3867.00,0.2964
3866.00,0.2964
3865.00,0.2962
3864.00,0.2958
3863.00,0.2954
3862.00,0.2951
3861.00,0.2948
3860.00,0.2945
3859.00,0.2944
3858.00,0.2944
3857.00,0.2945
3856.00,0.2948
3855.00,0.2949
3854.00,0.2951
3853.00,0.2953
3852.00,0.2956
3851.00,0.2958
3850.00,0.2957
3849.00,0.2953
3848.00,0.2948
3847.00,0.2942
3846.00,0.2937
3845.00,0.2933
3844.00,0.2931
3843.00,0.2930
3842.00,0.2932
3841.00,0.2935
3840.00,0.2939
3839.00,0.2942
3838.00,0.2943
3837.00,0.2944
3836.00,0.2945
3835.00,0.2946
3834.00,0.2945
3833.00,0.2943
3832.00,0.2938
3831.00,0.2933
3830.00,0.2928
3829.00,0.2924
3828.00,0.2921
3827.00,0.2919
3826.00,0.2916
3825.00,0.2915
3824.00,0.2917
3823.00,0.2919
3822.00,0.2921
3821.00,0.2922
3820.00,0.2922
3819.00,0.2924
3818.00,0.2925
3817.00,0.2924
3816.00,0.2920
3815.00,0.2913
3814.00,0.2907
3813.00,0.2903
3812.00,0.2900
3811.00,0.2896
3810.00,0.2892
3809.00,0.2889
3808.00,0.2887
3807.00,0.2885
3806.00,0.2885
3805.00,0.2887
3804.00,0.2891
3803.00,0.2894
3802.00,0.2895
3801.00,0.2893
3800.00,0.2891
3799.00,0.2889
3798.00,0.2889
3797.00,0.2886
3796.00,0.2881
3795.00,0.2875
3794.00,0.2869
3793.00,0.2865
3792.00,0.2861
3791.00,0.2857
3790.00,0.2852
3789.00,0.2849
3788.00,0.2847
3787.00,0.2845
3786.00,0.2844
3785.00,0.2843
3784.00,0.2843
3783.00,0.2842
3782.00,0.2841
3781.00,0.2841
3780.00,0.2839
3779.00,0.2837
3778.00,0.2835
3777.00,0.2833
3776.00,0.2832
3775.00,0.2830
3774.00,0.2828
3773.00,0.2827
3772.00,0.2827
3771.00,0.2826
3770.00,0.2826
3769.00,0.2826
3768.00,0.2827
3767.00,0.2828
3766.00,0.2828
3765.00,0.2826
3764.00,0.2824
3763.00,0.2822
3762.00,0.2821
3761.00,0.2820
3760.00,0.2818
3759.00,0.2816
3758.00,0.2815
3757.00,0.2814
3756.00,0.2813
3755.00,0.2814
3754.00,0.2815
3753.00,0.2815
3752.00,0.2814
3751.00,0.2815
3750.00,0.2818
3749.00,0.2820
3748.00,0.2823
3747.00,0.2827
3746.00,0.2830
3745.00,0.2828
3744.00,0.2822
3743.00,0.2814
3742.00,0.2810
3741.00,0.2808
3740.00,0.2805
3739.00,0.2802
3738.00,0.2799
3737.00,0.2797
3736.00,0.2797
3735.00,0.2798
3734.00,0.2800
3733.00,0.2801
3732.00,0.2799
3731.00,0.2795
3730.00,0.2790
3729.00,0.2787
3728.00,0.2784
3727.00,0.2781
3726.00,0.2777
3725.00,0.2773
3724.00,0.2771
3723.00,0.2770
3722.00,0.2768
3721.00,0.2766
3720.00,0.2764
3719.00,0.2761
3718.00,0.2758
3717.00,0.2754
3716.00,0.2752
3715.00,0.2751
3714.00,0.2750
3713.00,0.2751
3712.00,0.2752
3711.00,0.2754
3710.00,0.2756
3709.00,0.2757
3708.00,0.2756
3707.00,0.2753
3706.00,0.2750
3705.00,0.2747
3704.00,0.2744
3703.00,0.2742
3702.00,0.2741
3701.00,0.2739
3700.00,0.2738
3699.00,0.2738
3698.00,0.2738
3697.00,0.2737
3696.00,0.2737
3695.00,0.2737
3694.00,0.2738
3693.00,0.2741
3692.00,0.2745
3691.00,0.2749
3690.00,0.2752
3689.00,0.2756
3688.00,0.2758
3687.00,0.2758
3686.00,0.2757
3685.00,0.2754
3684.00,0.2750
3683.00,0.2744
3682.00,0.2739
3681.00,0.2735
3680.00,0.2733
3679.00,0.2734
3678.00,0.2736
3677.00,0.2740
3676.00,0.2744
3675.00,0.2747
3674.00,0.2751
3673.00,0.2754
3672.00,0.2757
3671.00,0.2757
3670.00,0.2753
3669.00,0.2749
3668.00,0.2746
3667.00,0.2743
3666.00,0.2740
3665.00,0.2735
3664.00,0.2731
3663.00,0.2727
3662.00,0.2725
3661.00,0.2724
3660.00,0.2725
3659.00,0.2726
3658.00,0.2729
3657.00,0.2732
3656.00,0.2734
3655.00,0.2738
3654.00,0.2743
3653.00,0.2749
3652.00,0.2755
3651.00,0.2759
3650.00,0.2762
3649.00,0.2766
3648.00,0.2770
3647.00,0.2773
3646.00,0.2773
3645.00,0.2769
3644.00,0.2764
3643.00,0.2758
3642.00,0.2753
3641.00,0.2748
3640.00,0.2745
3639.00,0.2744
3638.00,0.2743
3637.00,0.2744
3636.00,0.2746
3635.00,0.2748
3634.00,0.2751
3633.00,0.2754
3632.00,0.2759
3631.00,0.2765
3630.00,0.2772
3629.00,0.2778
3628.00,0.2783
3627.00,0.2787
3626.00,0.2790
3625.00,0.2792
3624.00,0.2792
3623.00,0.2791
3622.00,0.2790
3621.00,0.2790
3620.00,0.2792
3619.00,0.2794
3618.00,0.2796
3617.00,0.2797
3616.00,0.2798
3615.00,0.2798
3614.00,0.2797
3613.00,0.2795
3612.00,0.2793
3611.00,0.2793
3610.00,0.2793
3609.00,0.2793
3608.00,0.2792
3607.00,0.2790
3606.00,0.2787
3605.00,0.2785
3604.00,0.2781
3603.00,0.2776
3602.00,0.2771
3601.00,0.2765
3600.00,0.2759
3599.00,0.2754
3598.00,0.2751
3597.00,0.2747
3596.00,0.2744
3595.00,0.2739
3594.00,0.2735
3593.00,0.2730
3592.00,0.2726
3591.00,0.2724
3590.00,0.2723
3589.00,0.2722
3588.00,0.2722
3587.00,0.2723
3586.00,0.2723
3585.00,0.2722
3584.00,0.2720
3583.00,0.2718
3582.00,0.2715
3581.00,0.2711
3580.00,0.2709
3579.00,0.2707
3578.00,0.2707
3577.00,0.2707
3576.00,0.2707
3575.00,0.2707
3574.00,0.2708
3573.00,0.2708
3572.00,0.2710
3571.00,0.2711
3570.00,0.2713
3569.00,0.2716
3568.00,0.2720
3567.00,0.2725
3566.00,0.2730
3565.00,0.2733
3564.00,0.2735
3563.00,0.2736
3562.00,0.2735
3561.00,0.2735
3560.00,0.2734
3559.00,0.2734
3558.00,0.2735
3557.00,0.2737
3556.00,0.2740
3555.00,0.2743
3554.00,0.2746
3553.00,0.2750
3552.00,0.2754
3551.00,0.2758
3550.00,0.2762
3549.00,0.2766
3548.00,0.2771
3547.00,0.2776
3546.00,0.2780
3545.00,0.2785
3544.00,0.2789
3543.00,0.2793
3542.00,0.2796
3541.00,0.2798
3540.00,0.2800
3539.00,0.2802
3538.00,0.2804
3537.00,0.2807
3536.00,0.2809
3535.00,0.2812
3534.00,0.2814
3533.00,0.2816
3532.00,0.2818
3531.00,0.2819
3530.00,0.2821
3529.00,0.2824
3528.00,0.2828
3527.00,0.2832
3526.00,0.2836
3525.00,0.2839
3524.00,0.2842
3523.00,0.2844
3522.00,0.2847
3521.00,0.2849
3520.00,0.2852
3519.00,0.2855
3518.00,0.2857
3517.00,0.2860
3516.00,0.2863
3515.00,0.2867
3514.00,0.2871
3513.00,0.2875
3512.00,0.2879
3511.00,0.2883
3510.00,0.2888
3509.00,0.2892
3508.00,0.2897
3507.00,0.2902
3506.00,0.2907
3505.00,0.2911
3504.00,0.2916
3503.00,0.2920
3502.00,0.2924
3501.00,0.2928
3500.00,0.2932
3499.00,0.2937
3498.00,0.2942
3497.00,0.2947
3496.00,0.2952
3495.00,0.2958
3494.00,0.2963
3493.00,0.2969
3492.00,0.2975
3491.00,0.2981
3490.00,0.2988
3489.00,0.2994
3488.00,0.3000
3487.00,0.3007
3486.00,0.3013
3485.00,0.3019
3484.00,0.3026
3483.00,0.3031
3482.00,0.3037
3481.00,0.3042
3480.00,0.3047
3479.00,0.3051
3478.00,0.3054
3477.00,0.3057
3476.00,0.3060
3475.00,0.3063
3474.00,0.3067
3473.00,0.3072
3472.00,0.3077
3471.00,0.3082
3470.00,0.3087
3469.00,0.3092
3468.00,0.3096
3467.00,0.3100
3466.00,0.3104
3465.00,0.3108
3464.00,0.3113
3463.00,0.3118
3462.00,0.3124
3461.00,0.3130
3460.00,0.3135
3459.00,0.3140
3458.00,0.3146
3457.00,0.3151
3456.00,0.3156
3455.00,0.3161
3454.00,0.3167
3453.00,0.3172
3452.00,0.3178
3451.00,0.3184
3450.00,0.3190
3449.00,0.3196
3448.00,0.3202
3447.00,0.3208
3446.00,0.3214
3445.00,0.3221
3444.00,0.3228
3443.00,0.3235
3442.00,0.3242
3441.00,0.3248
3440.00,0.3253
3439.00,0.3259
3438.00,0.3265
3437.00,0.3270
3436.00,0.3276
3435.00,0.3282
3434.00,0.3289
3433.00,0.3295
3432.00,0.3302
3431.00,0.3308
3430.00,0.3314
3429.00,0.3321
3428.00,0.3327
3427.00,0.3333
3426.00,0.3340
3425.00,0.3346
3424.00,0.3353
3423.00,0.3360
3422.00,0.3367
3421.00,0.3374
3420.00,0.3381
3419.00,0.3389
3418.00,0.3397
3417.00,0.3405
3416.00,0.3413
3415.00,0.3421
3414.00,0.3428
3413.00,0.3435
3412.00,0.3443
3411.00,0.3450
3410.00,0.3458
3409.00,0.3466
3408.00,0.3475
3407.00,0.3484
3406.00,0.3492
3405.00,0.3501
3404.00,0.3509
3403.00,0.3518
3402.00,0.3527
3401.00,0.3535
3400.00,0.3544
3399.00,0.3552
3398.00,0.3561
3397.00,0.3570
3396.00,0.3579
3395.00,0.3587
3394.00,0.3596
3393.00,0.3605
3392.00,0.3614
3391.00,0.3623
3390.00,0.3632
3389.00,0.3641
3388.00,0.3651
3387.00,0.3661
3386.00,0.3671
3385.00,0.3680
3384.00,0.3690
3383.00,0.3701
3382.00,0.3712
3381.00,0.3723
3380.00,0.3734
3379.00,0.3744
3378.00,0.3755
3377.00,0.3766
3376.00,0.3777
3375.00,0.3788
3374.00,0.3799
3373.00,0.3810
3372.00,0.3821
3371.00,0.3832
3370.00,0.3844
3369.00,0.3856
3368.00,0.3868
3367.00,0.3880
3366.00,0.3892
3365.00,0.3905
3364.00,0.3917
3363.00,0.3930
3362.00,0.3943
3361.00,0.3957
3360.00,0.3971
3359.00,0.3986
3358.00,0.4000
3357.00,0.4014
3356.00,0.4028
3355.00,0.4042
3354.00,0.4056
3353.00,0.4070
3352.00,0.4084
3351.00,0.4099
3350.00,0.4113
3349.00,0.4128
3348.00,0.4143
3347.00,0.4157
3346.00,0.4170
3345.00,0.4183
3344.00,0.4195
3343.00,0.4207
3342.00,0.4219
3341.00,0.4231
3340.00,0.4243
3339.00,0.4254
3338.00,0.4266
3337.00,0.4276
3336.00,0.4284
3335.00,0.4292
3334.00,0.4298
3333.00,0.4304
3332.00,0.4309
3331.00,0.4313
3330.00,0.4318
3329.00,0.4322
3328.00,0.4325
3327.00,0.4328
3326.00,0.4330
3325.00,0.4331
3324.00,0.4331
3323.00,0.4331
3322.00,0.4329
3321.00,0.4326
3320.00,0.4323
3319.00,0.4319
3318.00,0.4315
3317.00,0.4311
3316.00,0.4306
3315.00,0.4301
3314.00,0.4295
3313.00,0.4289
3312.00,0.4282
3311.00,0.4276
3310.00,0.4269
3309.00,0.4263
3308.00,0.4257
3307.00,0.4250
3306.00,0.4243
3305.00,0.4235
3304.00,0.4228
3303.00,0.4220
3302.00,0.4212
3301.00,0.4206
3300.00,0.4199
3299.00,0.4193
3298.00,0.4186
3297.00,0.4180
3296.00,0.4174
3295.00,0.4168
3294.00,0.4162
3293.00,0.4157
3292.00,0.4152
3291.00,0.4148
3290.00,0.4143
3289.00,0.4140
3288.00,0.4137
3287.00,0.4134
3286.00,0.4132
3285.00,0.4131
3284.00,0.4131
3283.00,0.4131
3282.00,0.4130
3281.00,0.4131
3280.00,0.4132
3279.00,0.4133
3278.00,0.4135
3277.00,0.4138
3276.00,0.4140
3275.00,0.4143
3274.00,0.4145
3273.00,0.4149
3272.00,0.4152
3271.00,0.4156
3270.00,0.4160
3269.00,0.4165
3268.00,0.4169
3267.00,0.4173
3266.00,0.4177
3265.00,0.4181
3264.00,0.4185
3263.00,0.4190
3262.00,0.4195
3261.00,0.4200
3260.00,0.4204
3259.00,0.4209
3258.00,0.4214
3257.00,0.4219
3256.00,0.4224
3255.00,0.4229
3254.00,0.4234
3253.00,0.4239
3252.00,0.4245
3251.00,0.4249
3250.00,0.4253
3249.00,0.4257
3248.00,0.4261
3247.00,0.4266
3246.00,0.4270
3245.00,0.4274
3244.00,0.4278
3243.00,0.4282
3242.00,0.4286
3241.00,0.4289
3240.00,0.4292
3239.00,0.4295
3238.00,0.4299
3237.00,0.4303
3236.00,0.4306
3235.00,0.4308
3234.00,0.4310
3233.00,0.4312
3232.00,0.4314
3231.00,0.4315
3230.00,0.4316
3229.00,0.4317
3228.00,0.4318
3227.00,0.4317
3226.00,0.4317
3225.00,0.4316
3224.00,0.4315
3223.00,0.4315
3222.00,0.4315
3221.00,0.4314
3220.00,0.4314
3219.00,0.4314
3218.00,0.4313
3217.00,0.4312
3216.00,0.4311
3215.00,0.4310
3214.00,0.4309
3213.00,0.4308
3212.00,0.4307
3211.00,0.4306
3210.00,0.4305
3209.00,0.4304
3208.00,0.4304
3207.00,0.4304
3206.00,0.4303
3205.00,0.4303
3204.00,0.4302
3203.00,0.4302
3202.00,0.4301
3201.00,0.4299
3200.00,0.4298
3199.00,0.4295
3198.00,0.4294
3197.00,0.4292
3196.00,0.4291
3195.00,0.4289
3194.00,0.4287
3193.00,0.4284
3192.00,0.4280
3191.00,0.4277
3190.00,0.4273
3189.00,0.4270
3188.00,0.4267
3187.00,0.4263
3186.00,0.4258
3185.00,0.4253
3184.00,0.4247
3183.00,0.4243
3182.00,0.4238
3181.00,0.4233
3180.00,0.4229
3179.00,0.4224
3178.00,0.4218
3177.00,0.4212
3176.00,0.4206
3175.00,0.4200
3174.00,0.4194
3173.00,0.4189
3172.00,0.4183
3171.00,0.4177
3170.00,0.4172
3169.00,0.4167
3168.00,0.4161
3167.00,0.4155
3166.00,0.4149
3165.00,0.4142
3164.00,0.4135
3163.00,0.4127
3162.00,0.4121
3161.00,0.4115
3160.00,0.4109
3159.00,0.4102
3158.00,0.4095
3157.00,0.4088
3156.00,0.4080
3155.00,0.4073
3154.00,0.4066
3153.00,0.4060
3152.00,0.4053
3151.00,0.4047
3150.00,0.4040
3149.00,0.4034
3148.00,0.4027
3147.00,0.4021
3146.00,0.4015
3145.00,0.4010
3144.00,0.4004
3143.00,0.3999
3142.00,0.3994
3141.00,0.3989
3140.00,0.3985
3139.00,0.3982
3138.00,0.3979
3137.00,0.3976
3136.00,0.3974
3135.00,0.3972
3134.00,0.3970
3133.00,0.3968
3132.00,0.3966
3131.00,0.3965
3130.00,0.3963
3129.00,0.3962
3128.00,0.3962
3127.00,0.3962
3126.00,0.3963
3125.00,0.3964
3124.00,0.3965
3123.00,0.3967
3122.00,0.3969
3121.00,0.3971
3120.00,0.3973
3119.00,0.3975
3118.00,0.3978
3117.00,0.3980
3116.00,0.3983
3115.00,0.3987
3114.00,0.3991
3113.00,0.3996
3112.00,0.4002
3111.00,0.4008
3110.00,0.4015
3109.00,0.4023
3108.00,0.4032
3107.00,0.4040
3106.00,0.4049
3105.00,0.4057
3104.00,0.4066
3103.00,0.4074
3102.00,0.4083
3101.00,0.4093
3100.00,0.4103
3099.00,0.4113
3098.00,0.4124
3097.00,0.4136
3096.00,0.4148
3095.00,0.4162
3094.00,0.4177
3093.00,0.4193
3092.00,0.4211
3091.00,0.4231
3090.00,0.4252
3089.00,0.4275
3088.00,0.4300
3087.00,0.4326
3086.00,0.4353
3085.00,0.4380
3084.00,0.4408
3083.00,0.4438
3082.00,0.4468
3081.00,0.4501
3080.00,0.4536
3079.00,0.4573
3078.00,0.4612
3077.00,0.4653
3076.00,0.4695
3075.00,0.4738
3074.00,0.4780
3073.00,0.4823
3072.00,0.4867
3071.00,0.4910
3070.00,0.4954
3069.00,0.4998
3068.00,0.5043
3067.00,0.5086
3066.00,0.5129
3065.00,0.5170
3064.00,0.5209
3063.00,0.5245
3062.00,0.5279
3061.00,0.5309
3060.00,0.5336
3059.00,0.5361
3058.00,0.5386
3057.00,0.5412
3056.00,0.5441
3055.00,0.5471
3054.00,0.5503
3053.00,0.5537
3052.00,0.5573
3051.00,0.5611
3050.00,0.5651
3049.00,0.5694
3048.00,0.5740
3047.00,0.5786
3046.00,0.5833
3045.00,0.5879
3044.00,0.5926
3043.00,0.5972
3042.00,0.6018
3041.00,0.6064
3040.00,0.6110
3039.00,0.6157
3038.00,0.6205
3037.00,0.6255
3036.00,0.6309
3035.00,0.6367
3034.00,0.6428
3033.00,0.6494
3032.00,0.6565
3031.00,0.6641
3030.00,0.6723
3029.00,0.6809
3028.00,0.6898
3027.00,0.6990
3026.00,0.7084
3025.00,0.7182
3024.00,0.7283
3023.00,0.7388
3022.00,0.7497
3021.00,0.7608
3020.00,0.7723
3019.00,0.7839
3018.00,0.7957
3017.00,0.8077
3016.00,0.8197
3015.00,0.8317
3014.00,0.8438
3013.00,0.8561
3012.00,0.8688
3011.00,0.8819
3010.00,0.8955
3009.00,0.9097
3008.00,0.9246
3007.00,0.9402
3006.00,0.9564
3005.00,0.9733
3004.00,0.9908
3003.00,1.0087
3002.00,1.0273
3001.00,1.0466
3000.00,1.0667
2999.00,1.0877
2998.00,1.1100
2997.00,1.1342
2996.00,1.1609
2995.00,1.1905
2994.00,1.2236
2993.00,1.2606
2992.00,1.3022
2991.00,1.3486
2990.00,1.4004
2989.00,1.4577
2988.00,1.5211
2987.00,1.5913
2986.00,1.6695
2985.00,1.7562
2984.00,1.8521
2983.00,1.9581
2982.00,2.0758
2981.00,2.2075
2980.00,2.3542
2979.00,2.5166
2978.00,2.6950
2977.00,2.8887
2976.00,3.0907
2975.00,3.2809
2974.00,3.4333
2973.00,3.5372
2972.00,3.6090
2971.00,3.6676
2970.00,3.7102
2969.00,3.7416
2968.00,3.8103
2967.00,3.9350
2966.00,3.9949
2965.00,3.9489
2964.00,3.9218
2963.00,3.9868
2962.00,4.0107
2961.00,3.8926
2960.00,3.7925
2959.00,3.7885
2958.00,3.8745
2957.00,3.9720
2956.00,3.9887
2955.00,3.9431
2954.00,3.9106
2953.00,3.9366
2952.00,4.0195
2951.00,4.1165
2950.00,4.1606
2949.00,4.1481
2948.00,4.1277
2947.00,4.0958
2946.00,4.0315
2945.00,3.9605
2944.00,3.9658
2943.00,4.0854
2942.00,4.2596
2941.00,4.3521
2940.00,4.1902
2939.00,4.0055
2938.00,3.9233
2937.00,3.9111
2936.00,3.8751
2935.00,3.7771
2934.00,3.7071
2933.00,3.7048
2932.00,3.7444
2931.00,3.8169
2930.00,3.8907
2929.00,3.9034
2928.00,3.8962
2927.00,3.9136
2926.00,3.9389
2925.00,3.9746
2924.00,3.9938
2923.00,4.0843
2922.00,4.2846
2921.00,4.2250
2920.00,4.1642
2919.00,4.1596
2918.00,4.2562
2917.00,4.5414
2916.00,4.4399
2915.00,4.3265
2914.00,4.2714
2913.00,4.3330
2912.00,4.4048
2911.00,4.2430
2910.00,4.2180
2909.00,4.2118
2908.00,4.0728
2907.00,3.9398
2906.00,3.8489
2905.00,3.8377
2904.00,3.9257
2903.00,4.1815
2902.00,4.6685
2901.00,4.5618
2900.00,4.2814
2899.00,4.1095
2898.00,4.0471
2897.00,3.9663
2896.00,3.9888
2895.00,4.1866
2894.00,4.1100
2893.00,3.9475
2892.00,3.9402
2891.00,3.9870
2890.00,3.8509
2889.00,3.7397
2888.00,3.8356
2887.00,4.1175
2886.00,4.1520
2885.00,3.9414
2884.00,3.8279
2883.00,3.8495
2882.00,3.9063
2881.00,3.8655
2880.00,3.8022
2879.00,3.8290
2878.00,3.9598
2877.00,4.0980
2876.00,4.1231
2875.00,4.0558
2874.00,3.9845
2873.00,3.9092
2872.00,3.8577
2871.00,3.8602
2870.00,3.8838
2869.00,3.8625
2868.00,3.7804
2867.00,3.6965
2866.00,3.6827
2865.00,3.7739
2864.00,4.0316
2863.00,4.3528
2862.00,4.4230
2861.00,4.3930
2860.00,4.1901
2859.00,4.0087
2858.00,3.9472
2857.00,4.0990
2856.00,4.0333
2855.00,3.7753
2854.00,3.6812
2853.00,3.8117
2852.00,3.9883
2851.00,3.8858
2850.00,3.7406
2849.00,3.6989
2848.00,3.7359
2847.00,3.7749
2846.00,3.8114
2845.00,3.8100
2844.00,3.8092
2843.00,3.8834
2842.00,3.9684
2841.00,3.8825
2840.00,3.6632
2839.00,3.4547
2838.00,3.2694
2837.00,3.0813
2836.00,2.8870
2835.00,2.6958
2834.00,2.5142
2833.00,2.3463
2832.00,2.1950
2831.00,2.0609
2830.00,1.9418
2829.00,1.8348
2828.00,1.7386
2827.00,1.6525
2826.00,1.5755
2825.00,1.5064
2824.00,1.4437
2823.00,1.3867
2822.00,1.3347
2821.00,1.2867
2820.00,1.2422
2819.00,1.2009
2818.00,1.1625
2817.00,1.1270
2816.00,1.0940
2815.00,1.0631
2814.00,1.0342
2813.00,1.0071
2812.00,0.9816
2811.00,0.9577
2810.00,0.9350
2809.00,0.9133
2808.00,0.8926
2807.00,0.8729
2806.00,0.8542
2805.00,0.8365
2804.00,0.8198
2803.00,0.8040
2802.00,0.7889
2801.00,0.7746
2800.00,0.7609
2799.00,0.7478
2798.00,0.7353
2797.00,0.7233
2796.00,0.7118
2795.00,0.7006
2794.00,0.6898
2793.00,0.6792
2792.00,0.6690
2791.00,0.6591
2790.00,0.6494
2789.00,0.6400
2788.00,0.6307
2787.00,0.6216
2786.00,0.6127
2785.00,0.6040
2784.00,0.5956
2783.00,0.5875
2782.00,0.5797
2781.00,0.5721
2780.00,0.5649
2779.00,0.5579
2778.00,0.5513
2777.00,0.5450
2776.00,0.5390
2775.00,0.5334
2774.00,0.5281
2773.00,0.5232
2772.00,0.5185
2771.00,0.5142
2770.00,0.5103
2769.00,0.5067
2768.00,0.5034
2767.00,0.5005
2766.00,0.4978
2765.00,0.4955
2764.00,0.4934
2763.00,0.4916
2762.00,0.4901
2761.00,0.4887
2760.00,0.4874
2759.00,0.4863
2758.00,0.4851
2757.00,0.4841
2756.00,0.4831
2755.00,0.4822
2754.00,0.4814
2753.00,0.4807
2752.00,0.4802
2751.00,0.4799
2750.00,0.4798
2749.00,0.4799
2748.00,0.4802
2747.00,0.4807
2746.00,0.4813
2745.00,0.4823
2744.00,0.4835
2743.00,0.4850
2742.00,0.4869
2741.00,0.4893
2740.00,0.4920
2739.00,0.4952
2738.00,0.4989
2737.00,0.5031
2736.00,0.5078
2735.00,0.5128
2734.00,0.5181
2733.00,0.5233
2732.00,0.5281
2731.00,0.5322
2730.00,0.5353
2729.00,0.5374
2728.00,0.5383
2727.00,0.5383
2726.00,0.5375
2725.00,0.5361
2724.00,0.5343
2723.00,0.5320
2722.00,0.5294
2721.00,0.5264
2720.00,0.5231
2719.00,0.5195
2718.00,0.5157
2717.00,0.5116
2716.00,0.5073
2715.00,0.5028
2714.00,0.4983
2713.00,0.4939
2712.00,0.4897
2711.00,0.4858
2710.00,0.4824
2709.00,0.4794
2708.00,0.4768
2707.00,0.4745
2706.00,0.4726
2705.00,0.4710
2704.00,0.4699
2703.00,0.4690
2702.00,0.4685
2701.00,0.4681
2700.00,0.4680
2699.00,0.4681
2698.00,0.4684
2697.00,0.4688
2696.00,0.4693
2695.00,0.4700
2694.00,0.4708
2693.00,0.4717
2692.00,0.4727
2691.00,0.4736
2690.00,0.4745
2689.00,0.4754
2688.00,0.4763
2687.00,0.4771
2686.00,0.4778
2685.00,0.4785
2684.00,0.4790
2683.00,0.4795
2682.00,0.4798
2681.00,0.4801
2680.00,0.4804
2679.00,0.4807
2678.00,0.4809
2677.00,0.4813
2676.00,0.4816
2675.00,0.4819
2674.00,0.4822
2673.00,0.4825
2672.00,0.4827
2671.00,0.4827
2670.00,0.4825
2669.00,0.4820
2668.00,0.4812
2667.00,0.4801
2666.00,0.4789
2665.00,0.4774
2664.00,0.4758
2663.00,0.4740
2662.00,0.4722
2661.00,0.4703
2660.00,0.4683
2659.00,0.4663
2658.00,0.4643
2657.00,0.4623
2656.00,0.4603
2655.00,0.4584
2654.00,0.4565
2653.00,0.4547
2652.00,0.4530
2651.00,0.4514
2650.00,0.4498
2649.00,0.4482
2648.00,0.4468
2647.00,0.4454
2646.00,0.4442
2645.00,0.4430
2644.00,0.4418
2643.00,0.4407
2642.00,0.4396
2641.00,0.4385
2640.00,0.4375
2639.00,0.4365
2638.00,0.4355
2637.00,0.4345
2636.00,0.4336
2635.00,0.4327
2634.00,0.4318
2633.00,0.4310
2632.00,0.4302
2631.00,0.4294
2630.00,0.4287
2629.00,0.4280
2628.00,0.4272
2627.00,0.4264
2626.00,0.4255
2625.00,0.4246
2624.00,0.4238
2623.00,0.4230
2622.00,0.4222
2621.00,0.4213
2620.00,0.4205
2619.00,0.4198
2618.00,0.4190
2617.00,0.4182
2616.00,0.4173
2615.00,0.4163
2614.00,0.4153
2613.00,0.4144
2612.00,0.4134
2611.00,0.4124
2610.00,0.4114
2609.00,0.4103
2608.00,0.4093
2607.00,0.4082
2606.00,0.4072
2605.00,0.4062
2604.00,0.4051
2603.00,0.4041
2602.00,0.4030
2601.00,0.4018
2600.00,0.4006
2599.00,0.3993
2598.00,0.3979
2597.00,0.3966
2596.00,0.3952
2595.00,0.3938
2594.00,0.3924
2593.00,0.3910
2592.00,0.3896
2591.00,0.3881
2590.00,0.3866
2589.00,0.3851
2588.00,0.3836
2587.00,0.3820
2586.00,0.3805
2585.00,0.3789
2584.00,0.3772
2583.00,0.3755
2582.00,0.3738
2581.00,0.3721
2580.00,0.3704
2579.00,0.3687
2578.00,0.3670
2577.00,0.3652
2576.00,0.3635
2575.00,0.3618
2574.00,0.3602
2573.00,0.3585
2572.00,0.3570
2571.00,0.3554
2570.00,0.3539
2569.00,0.3524
2568.00,0.3509
2567.00,0.3495
2566.00,0.3480
2565.00,0.3466
2564.00,0.3451
2563.00,0.3437
2562.00,0.3423
2561.00,0.3410
2560.00,0.3398
2559.00,0.3385
2558.00,0.3374
2557.00,0.3363
2556.00,0.3352
2555.00,0.3341
2554.00,0.3331
2553.00,0.3321
2552.00,0.3311
2551.00,0.3301
2550.00,0.3292
2549.00,0.3282
2548.00,0.3273
2547.00,0.3264
2546.00,0.3256
2545.00,0.3248
2544.00,0.3240
2543.00,0.3232
2542.00,0.3223
2541.00,0.3215
2540.00,0.3207
2539.00,0.3198
2538.00,0.3190
2537.00,0.3183
2536.00,0.3177
2535.00,0.3170
2534.00,0.3163
2533.00,0.3155
2532.00,0.3147
2531.00,0.3138
2530.00,0.3130
2529.00,0.3121
2528.00,0.3112
2527.00,0.3103
2526.00,0.3094
2525.00,0.3085
2524.00,0.3076
2523.00,0.3067
2522.00,0.3058
2521.00,0.3050
2520.00,0.3041
2519.00,0.3032
2518.00,0.3023
2517.00,0.3015
2516.00,0.3008
2515.00,0.3000
2514.00,0.2993
2513.00,0.2986
2512.00,0.2979
2511.00,0.2972
2510.00,0.2965
2509.00,0.2958
2508.00,0.2952
2507.00,0.2946
2506.00,0.2940
2505.00,0.2934
2504.00,0.2928
2503.00,0.2922
2502.00,0.2917
2501.00,0.2912
2500.00,0.2907
2499.00,0.2901
2498.00,0.2896
2497.00,0.2892
2496.00,0.2888
2495.00,0.2883
2494.00,0.2879
2493.00,0.2874
2492.00,0.2869
2491.00,0.2864
2490.00,0.2860
2489.00,0.2856
2488.00,0.2853
2487.00,0.2850
2486.00,0.2847
2485.00,0.2843
2484.00,0.2840
2483.00,0.2836
2482.00,0.2832
2481.00,0.2829
2480.00,0.2826
2479.00,0.2823
2478.00,0.2820
2477.00,0.2817
2476.00,0.2815
2475.00,0.2812
2474.00,0.2809
2473.00,0.2807
2472.00,0.2804
2471.00,0.2801
2470.00,0.2798
2469.00,0.2796
2468.00,0.2793
2467.00,0.2790
2466.00,0.2787
2465.00,0.2784
2464.00,0.2782
2463.00,0.2778
2462.00,0.2775
2461.00,0.2772
2460.00,0.2769
2459.00,0.2766
2458.00,0.2764
2457.00,0.2762
2456.00,0.2761
2455.00,0.2760
2454.00,0.2759
2453.00,0.2757
2452.00,0.2756
2451.00,0.2755
2450.00,0.2753
2449.00,0.2752
2448.00,0.2752
2447.00,0.2751
2446.00,0.2751
2445.00,0.2750
2444.00,0.2750
2443.00,0.2750
2442.00,0.2749
2441.00,0.2750
2440.00,0.2750
2439.00,0.2751
2438.00,0.2751
2437.00,0.2752
2436.00,0.2752
2435.00,0.2753
2434.00,0.2753
2433.00,0.2754
2432.00,0.2754
2431.00,0.2755
2430.00,0.2755
2429.00,0.2755
2428.00,0.2756
2427.00,0.2756
2426.00,0.2757
2425.00,0.2757
2424.00,0.2758
2423.00,0.2758
2422.00,0.2758
2421.00,0.2759
2420.00,0.2759
2419.00,0.2759
2418.00,0.2759
2417.00,0.2759
2416.00,0.2760
2415.00,0.2761
2414.00,0.2761
2413.00,0.2761
2412.00,0.2761
2411.00,0.2761
2410.00,0.2760
2409.00,0.2760
2408.00,0.2759
2407.00,0.2759
2406.00,0.2759
2405.00,0.2759
2404.00,0.2758
2403.00,0.2757
2402.00,0.2756
2401.00,0.2754
2400.00,0.2753
2399.00,0.2751
2398.00,0.2749
2397.00,0.2747
2396.00,0.2745
2395.00,0.2743
2394.00,0.2742
2393.00,0.2741
2392.00,0.2740
2391.00,0.2739
2390.00,0.2738
2389.00,0.2736
2388.00,0.2735
2387.00,0.2734
2386.00,0.2733
2385.00,0.2732
2384.00,0.2731
2383.00,0.2731
2382.00,0.2729
2381.00,0.2728
2380.00,0.2728
2379.00,0.2727
2378.00,0.2727
2377.00,0.2728
2376.00,0.2728
2375.00,0.2729
2374.00,0.2729
2373.00,0.2729
2372.00,0.2728
2371.00,0.2727
2370.00,0.2725
2369.00,0.2724
2368.00,0.2723
2367.00,0.2721
2366.00,0.2719
2365.00,0.2718
2364.00,0.2716
2363.00,0.2715
2362.00,0.2714
2361.00,0.2715
2360.00,0.2716
2359.00,0.2717
2358.00,0.2718
2357.00,0.2719
2356.00,0.2721
2355.00,0.2722
2354.00,0.2723
2353.00,0.2725
2352.00,0.2727
2351.00,0.2726
2350.00,0.2724
2349.00,0.2720
2348.00,0.2715
2347.00,0.2708
2346.00,0.2703
2345.00,0.2700
2344.00,0.2701
2343.00,0.2703
2342.00,0.2705
2341.00,0.2706
2340.00,0.2706
2339.00,0.2706
2338.00,0.2705
2337.00,0.2704
2336.00,0.2703
2335.00,0.2701
2334.00,0.2698
2333.00,0.2696
2332.00,0.2694
2331.00,0.2693
2330.00,0.2692
2329.00,0.2691
2328.00,0.2690
2327.00,0.2688
2326.00,0.2686
2325.00,0.2684
2324.00,0.2682
2323.00,0.2680
2322.00,0.2679
2321.00,0.2678
2320.00,0.2678
2319.00,0.2677
2318.00,0.2676
2317.00,0.2674
2316.00,0.2671
2315.00,0.2668
2314.00,0.2665
2313.00,0.2662
2312.00,0.2659
2311.00,0.2656
2310.00,0.2652
2309.00,0.2649
2308.00,0.2645
2307.00,0.2642
2306.00,0.2638
2305.00,0.2635
2304.00,0.2632
2303.00,0.2628
2302.00,0.2624
2301.00,0.2621
2300.00,0.2618
2299.00,0.2614
2298.00,0.2611
2297.00,0.2608
2296.00,0.2604
2295.00,0.2601
2294.00,0.2597
2293.00,0.2593
2292.00,0.2590
2291.00,0.2586
2290.00,0.2582
2289.00,0.2579
2288.00,0.2576
2287.00,0.2574
2286.00,0.2571
2285.00,0.2569
2284.00,0.2566
2283.00,0.2564
2282.00,0.2561
2281.00,0.2559
2280.00,0.2556
2279.00,0.2553
2278.00,0.2551
2277.00,0.2548
2276.00,0.2547
2275.00,0.2544
2274.00,0.2542
2273.00,0.2540
2272.00,0.2539
2271.00,0.2537
2270.00,0.2536
2269.00,0.2534
2268.00,0.2532
2267.00,0.2530
2266.00,0.2528
2265.00,0.2525
2264.00,0.2523
2263.00,0.2520
2262.00,0.2517
2261.00,0.2515
2260.00,0.2512
2259.00,0.2509
2258.00,0.2506
2257.00,0.2503
2256.00,0.2500
2255.00,0.2497
2254.00,0.2494
2253.00,0.2491
2252.00,0.2489
2251.00,0.2486
2250.00,0.2484
2249.00,0.2482
2248.00,0.2480
2247.00,0.2478
2246.00,0.2477
2245.00,0.2475
2244.00,0.2474
2243.00,0.2472
2242.00,0.2470
2241.00,0.2469
2240.00,0.2468
2239.00,0.2468
2238.00,0.2467
2237.00,0.2467
2236.00,0.2467
2235.00,0.2466
2234.00,0.2464
2233.00,0.2464
2232.00,0.2463
2231.00,0.2462
2230.00,0.2461
2229.00,0.2460
2228.00,0.2459
2227.00,0.2458
2226.00,0.2457
2225.00,0.2456
2224.00,0.2454
2223.00,0.2452
2222.00,0.2450
2221.00,0.2449
2220.00,0.2447
2219.00,0.2445
2218.00,0.2443
2217.00,0.2442
2216.00,0.2441
2215.00,0.2440
2214.00,0.2439
2213.00,0.2438
2212.00,0.2437
2211.00,0.2435
2210.00,0.2434
2209.00,0.2434
2208.00,0.2434
2207.00,0.2434
2206.00,0.2435
2205.00,0.2436
2204.00,0.2436
2203.00,0.2436
2202.00,0.2436
2201.00,0.2436
2200.00,0.2437
2199.00,0.2438
2198.00,0.2438
2197.00,0.2439
2196.00,0.2441
2195.00,0.2441
2194.00,0.2442
2193.00,0.2442
2192.00,0.2442
2191.00,0.2442
2190.00,0.2442
2189.00,0.2442
2188.00,0.2442
2187.00,0.2442
2186.00,0.2441
2185.00,0.2440
2184.00,0.2439
2183.00,0.2437
2182.00,0.2436
2181.00,0.2434
2180.00,0.2432
2179.00,0.2430
2178.00,0.2428
2177.00,0.2426
2176.00,0.2425
2175.00,0.2423
2174.00,0.2421
2173.00,0.2420
2172.00,0.2419
2171.00,0.2418
2170.00,0.2417
2169.00,0.2416
2168.00,0.2416
2167.00,0.2415
2166.00,0.2414
2165.00,0.2414
2164.00,0.2413
2163.00,0.2413
2162.00,0.2412
2161.00,0.2411
2160.00,0.2409
2159.00,0.2408
2158.00,0.2407
2157.00,0.2406
2156.00,0.2405
2155.00,0.2404
2154.00,0.2402
2153.00,0.2401
2152.00,0.2399
2151.00,0.2397
2150.00,0.2394
2149.00,0.2391
2148.00,0.2387
2147.00,0.2383
2146.00,0.2379
2145.00,0.2374
2144.00,0.2369
2143.00,0.2365
2142.00,0.2360
2141.00,0.2356
2140.00,0.2353
2139.00,0.2349
2138.00,0.2345
2137.00,0.2342
2136.00,0.2340
2135.00,0.2338
2134.00,0.2336
2133.00,0.2334
2132.00,0.2332
2131.00,0.2330
2130.00,0.2329
2129.00,0.2328
2128.00,0.2328
2127.00,0.2327
2126.00,0.2326
2125.00,0.2325
2124.00,0.2324
2123.00,0.2324
2122.00,0.2323
2121.00,0.2323
2120.00,0.2322
2119.00,0.2321
2118.00,0.2320
2117.00,0.2319
2116.00,0.2319
2115.00,0.2318
2114.00,0.2317
2113.00,0.2315
2112.00,0.2313
2111.00,0.2312
2110.00,0.2311
2109.00,0.2310
2108.00,0.2309
2107.00,0.2307
2106.00,0.2306
2105.00,0.2305
2104.00,0.2304
2103.00,0.2303
2102.00,0.2303
2101.00,0.2302
2100.00,0.2301
2099.00,0.2300
2098.00,0.2299
2097.00,0.2298
2096.00,0.2298
2095.00,0.2297
2094.00,0.2297
2093.00,0.2297
2092.00,0.2297
2091.00,0.2297
2090.00,0.2297
2089.00,0.2297
2088.00,0.2297
2087.00,0.2297
2086.00,0.2298
2085.00,0.2298
2084.00,0.2299
2083.00,0.2299
2082.00,0.2299
2081.00,0.2299
2080.00,0.2300
2079.00,0.2300
2078.00,0.2300
2077.00,0.2300
2076.00,0.2300
2075.00,0.2300
2074.00,0.2300
2073.00,0.2301
2072.00,0.2301
2071.00,0.2302
2070.00,0.2302
2069.00,0.2302
2068.00,0.2302
2067.00,0.2302
2066.00,0.2302
2065.00,0.2303
2064.00,0.2304
2063.00,0.2305
2062.00,0.2306
2061.00,0.2306
2060.00,0.2308
2059.00,0.2308
2058.00,0.2309
2057.00,0.2310
2056.00,0.2311
2055.00,0.2313
2054.00,0.2314
2053.00,0.2315
2052.00,0.2317
2051.00,0.2318
2050.00,0.2320
2049.00,0.2321
2048.00,0.2323
2047.00,0.2325
2046.00,0.2326
2045.00,0.2328
2044.00,0.2330
2043.00,0.2331
2042.00,0.2333
2041.00,0.2334
2040.00,0.2335
2039.00,0.2336
2038.00,0.2337
2037.00,0.2338
2036.00,0.2339
2035.00,0.2340
2034.00,0.2340
2033.00,0.2340
2032.00,0.2340
2031.00,0.2340
2030.00,0.2340
2029.00,0.2339
2028.00,0.2338
2027.00,0.2338
2026.00,0.2336
2025.00,0.2335
2024.00,0.2334
2023.00,0.2331
2022.00,0.2328
2021.00,0.2325
2020.00,0.2321
2019.00,0.2317
2018.00,0.2311
2017.00,0.2306
2016.00,0.2301
2015.00,0.2295
2014.00,0.2290
2013.00,0.2285
2012.00,0.2280
2011.00,0.2275
2010.00,0.2270
2009.00,0.2267
2008.00,0.2263
2007.00,0.2260
2006.00,0.2257
2005.00,0.2255
2004.00,0.2253
2003.00,0.2251
2002.00,0.2249
2001.00,0.2248
2000.00,0.2248
1999.00,0.2246
1998.00,0.2244
1997.00,0.2243
1996.00,0.2242
1995.00,0.2241
1994.00,0.2240
1993.00,0.2239
1992.00,0.2238
1991.00,0.2237
1990.00,0.2237
1989.00,0.2237
1988.00,0.2237
1987.00,0.2235
1986.00,0.2234
1985.00,0.2233
1984.00,0.2232
1983.00,0.2231
1982.00,0.2230
1981.00,0.2229
1980.00,0.2229
1979.00,0.2229
1978.00,0.2228
1977.00,0.2228
1976.00,0.2228
1975.00,0.2228
1974.00,0.2228
1973.00,0.2228
1972.00,0.2227
1971.00,0.2227
1970.00,0.2227
1969.00,0.2228
1968.00,0.2229
1967.00,0.2230
1966.00,0.2230
1965.00,0.2231
1964.00,0.2231
1963.00,0.2232
1962.00,0.2232
1961.00,0.2233
1960.00,0.2235
1959.00,0.2236
1958.00,0.2236
1957.00,0.2238
1956.00,0.2239
1955.00,0.2240
1954.00,0.2241
1953.00,0.2242
1952.00,0.2243
1951.00,0.2244
1950.00,0.2244
1949.00,0.2245
1948.00,0.2246
1947.00,0.2248
1946.00,0.2251
1945.00,0.2254
1944.00,0.2258
1943.00,0.2261
1942.00,0.2265
1941.00,0.2269
1940.00,0.2274
1939.00,0.2277
1938.00,0.2279
1937.00,0.2279
1936.00,0.2279
1935.00,0.2278
1934.00,0.2277
1933.00,0.2276
1932.00,0.2276
1931.00,0.2276
1930.00,0.2276
1929.00,0.2277
1928.00,0.2278
1927.00,0.2279
1926.00,0.2280
1925.00,0.2282
1924.00,0.2285
1923.00,0.2288
1922.00,0.2291
1921.00,0.2296
1920.00,0.2300
1919.00,0.2302
1918.00,0.2304
1917.00,0.2307
1916.00,0.2311
1915.00,0.2313
1914.00,0.2315
1913.00,0.2315
1912.00,0.2315
1911.00,0.2316
1910.00,0.2317
1909.00,0.2318
1908.00,0.2319
1907.00,0.2319
1906.00,0.2319
1905.00,0.2319
1904.00,0.2320
1903.00,0.2320
1902.00,0.2320
1901.00,0.2320
1900.00,0.2321
1899.00,0.2322
1898.00,0.2323
1897.00,0.2324
1896.00,0.2327
1895.00,0.2329
1894.00,0.2330
1893.00,0.2332
1892.00,0.2333
1891.00,0.2334
1890.00,0.2335
1889.00,0.2336
1888.00,0.2337
1887.00,0.2339
1886.00,0.2340
1885.00,0.2340
1884.00,0.2340
1883.00,0.2340
1882.00,0.2339
1881.00,0.2339
1880.00,0.2338
1879.00,0.2337
1878.00,0.2336
1877.00,0.2335
1876.00,0.2334
1875.00,0.2332
1874.00,0.2330
1873.00,0.2328
1872.00,0.2327
1871.00,0.2325
1870.00,0.2321
1869.00,0.2320
1868.00,0.2319
1867.00,0.2319
1866.00,0.2318
1865.00,0.2316
1864.00,0.2314
1863.00,0.2310
1862.00,0.2307
1861.00,0.2304
1860.00,0.2301
1859.00,0.2298
1858.00,0.2295
1857.00,0.2293
1856.00,0.2291
1855.00,0.2290
1854.00,0.2288
1853.00,0.2287
1852.00,0.2287
1851.00,0.2286
1850.00,0.2284
1849.00,0.2284
1848.00,0.2284
1847.00,0.2283
1846.00,0.2281
1845.00,0.2277
1844.00,0.2275
1843.00,0.2274
1842.00,0.2275
1841.00,0.2276
1840.00,0.2276
1839.00,0.2274
1838.00,0.2272
1837.00,0.2272
1836.00,0.2271
1835.00,0.2271
1834.00,0.2270
1833.00,0.2270
1832.00,0.2269
1831.00,0.2268
1830.00,0.2267
1829.00,0.2267
1828.00,0.2268
1827.00,0.2267
1826.00,0.2265
1825.00,0.2263
1824.00,0.2263
1823.00,0.2265
1822.00,0.2265
1821.00,0.2264
1820.00,0.2264
1819.00,0.2263
1818.00,0.2263
1817.00,0.2263
1816.00,0.2264
1815.00,0.2266
1814.00,0.2267
1813.00,0.2268
1812.00,0.2271
1811.00,0.2273
1810.00,0.2274
1809.00,0.2276
1808.00,0.2279
1807.00,0.2282
1806.00,0.2284
1805.00,0.2288
1804.00,0.2292
1803.00,0.2296
1802.00,0.2299
1801.00,0.2304
1800.00,0.2312
1799.00,0.2319
1798.00,0.2325
1797.00,0.2331
1796.00,0.2337
1795.00,0.2340
1794.00,0.2341
1793.00,0.2343
1792.00,0.2347
1791.00,0.2353
1790.00,0.2359
1789.00,0.2366
1788.00,0.2371
1787.00,0.2373
1786.00,0.2374
1785.00,0.2376
1784.00,0.2380
1783.00,0.2385
1782.00,0.2389
1781.00,0.2392
1780.00,0.2397
1779.00,0.2401
1778.00,0.2406
1777.00,0.2411
1776.00,0.2417
1775.00,0.2424
1774.00,0.2430
1773.00,0.2435
1772.00,0.2442
1771.00,0.2448
1770.00,0.2454
1769.00,0.2461
1768.00,0.2469
1767.00,0.2478
1766.00,0.2488
1765.00,0.2499
1764.00,0.2511
1763.00,0.2522
1762.00,0.2535
1761.00,0.2553
1760.00,0.2574
1759.00,0.2597
1758.00,0.2619
1757.00,0.2644
1756.00,0.2673
1755.00,0.2705
1754.00,0.2736
1753.00,0.2767
1752.00,0.2800
1751.00,0.2837
1750.00,0.2876
1749.00,0.2913
1748.00,0.2946
1747.00,0.2973
1746.00,0.2995
1745.00,0.3014
1744.00,0.3031
1743.00,0.3043
1742.00,0.3051
1741.00,0.3056
1740.00,0.3059
1739.00,0.3059
1738.00,0.3060
1737.00,0.3060
1736.00,0.3055
1735.00,0.3042
1734.00,0.3030
1733.00,0.3025
1732.00,0.3023
1731.00,0.3020
1730.00,0.3014
1729.00,0.3011
1728.00,0.3011
1727.00,0.3015
1726.00,0.3023
1725.00,0.3037
1724.00,0.3057
1723.00,0.3082
1722.00,0.3112
1721.00,0.3147
1720.00,0.3189
1719.00,0.3245
1718.00,0.3325
1717.00,0.3427
1716.00,0.3536
1715.00,0.3647
1714.00,0.3766
1713.00,0.3891
1712.00,0.4013
1711.00,0.4130
1710.00,0.4235
1709.00,0.4319
1708.00,0.4371
1707.00,0.4388
1706.00,0.4368
1705.00,0.4316
1704.00,0.4248
1703.00,0.4173
1702.00,0.4078
1701.00,0.3939
1700.00,0.3782
1699.00,0.3662
1698.00,0.3585
1697.00,0.3512
1696.00,0.3420
1695.00,0.3326
1694.00,0.3256
1693.00,0.3210
1692.00,0.3171
1691.00,0.3133
1690.00,0.3097
1689.00,0.3068
1688.00,0.3047
1687.00,0.3032
1686.00,0.3015
1685.00,0.2991
1684.00,0.2964
1683.00,0.2941
1682.00,0.2928
1681.00,0.2919
1680.00,0.2909
1679.00,0.2898
1678.00,0.2889
1677.00,0.2879
1676.00,0.2867
1675.00,0.2857
1674.00,0.2854
1673.00,0.2856
1672.00,0.2856
1671.00,0.2851
1670.00,0.2846
1669.00,0.2844
1668.00,0.2844
1667.00,0.2845
1666.00,0.2847
1665.00,0.2847
1664.00,0.2845
1663.00,0.2843
1662.00,0.2844
1661.00,0.2848
1660.00,0.2852
1659.00,0.2854
1658.00,0.2857
1657.00,0.2862
1656.00,0.2869
1655.00,0.2873
1654.00,0.2878
1653.00,0.2890
1652.00,0.2902
1651.00,0.2911
1650.00,0.2916
1649.00,0.2920
1648.00,0.2926
1647.00,0.2933
1646.00,0.2943
1645.00,0.2955
1644.00,0.2968
1643.00,0.2979
1642.00,0.2990
1641.00,0.3002
1640.00,0.3017
1639.00,0.3033
1638.00,0.3049
1637.00,0.3068
1636.00,0.3091
1635.00,0.3113
1634.00,0.3134
1633.00,0.3157
1632.00,0.3179
1631.00,0.3198
1630.00,0.3217
1629.00,0.3240
1628.00,0.3267
1627.00,0.3294
1626.00,0.3322
1625.00,0.3352
1624.00,0.3388
1623.00,0.3431
1622.00,0.3479
1621.00,0.3531
1620.00,0.3586
1619.00,0.3646
1618.00,0.3722
1617.00,0.3821
1616.00,0.3932
1615.00,0.4033
1614.00,0.4121
1613.00,0.4207
1612.00,0.4299
1611.00,0.4394
1610.00,0.4488
1609.00,0.4582
1608.00,0.4674
1607.00,0.4755
1606.00,0.4821
1605.00,0.4880
1604.00,0.4936
1603.00,0.4986
1602.00,0.5033
1601.00,0.5082
1600.00,0.5139
1599.00,0.5200
1598.00,0.5269
1597.00,0.5358
1596.00,0.5479
1595.00,0.5632
1594.00,0.5825
1593.00,0.6073
1592.00,0.6394
1591.00,0.6799
1590.00,0.7308
1589.00,0.7959
1588.00,0.8799
1587.00,0.9858
1586.00,1.1162
1585.00,1.2746
1584.00,1.4635
1583.00,1.6639
1582.00,1.8101
1581.00,1.8363
1580.00,1.7599
1579.00,1.6220
1578.00,1.4467
1577.00,1.2627
1576.00,1.1018
1575.00,0.9836
1574.00,0.9051
1573.00,0.8522
1572.00,0.8130
1571.00,0.7812
1570.00,0.7571
1569.00,0.7452
1568.00,0.7473
1567.00,0.7624
1566.00,0.7906
1565.00,0.8346
1564.00,0.8925
1563.00,0.9544
1562.00,1.0093
1561.00,1.0501
1560.00,1.0579
1559.00,1.0000
1558.00,0.9069
1557.00,0.8311
1556.00,0.7716
1555.00,0.7143
1554.00,0.6598
1553.00,0.6151
1552.00,0.5818
1551.00,0.5554
1550.00,0.5325
1549.00,0.5139
1548.00,0.5001
1547.00,0.4896
1546.00,0.4804
1545.00,0.4726
1544.00,0.4666
1543.00,0.4620
1542.00,0.4580
1541.00,0.4541
1540.00,0.4499
1539.00,0.4449
1538.00,0.4404
1537.00,0.4372
1536.00,0.4345
1535.00,0.4314
1534.00,0.4280
1533.00,0.4256
1532.00,0.4248
1531.00,0.4249
1530.00,0.4252
1529.00,0.4259
1528.00,0.4267
1527.00,0.4272
1526.00,0.4271
1525.00,0.4270
1524.00,0.4274
1523.00,0.4279
1522.00,0.4289
1521.00,0.4310
1520.00,0.4340
1519.00,0.4371
1518.00,0.4405
1517.00,0.4446
1516.00,0.4486
1515.00,0.4513
1514.00,0.4525
1513.00,0.4532
1512.00,0.4541
1511.00,0.4555
1510.00,0.4576
1509.00,0.4615
1508.00,0.4682
1507.00,0.4784
1506.00,0.4902
1505.00,0.5013
1504.00,0.5110
1503.00,0.5190
1502.00,0.5264
1501.00,0.5338
1500.00,0.5411
1499.00,0.5481
1498.00,0.5554
1497.00,0.5646
1496.00,0.5754
1495.00,0.5859
1494.00,0.5957
1493.00,0.6061
1492.00,0.6178
1491.00,0.6313
1490.00,0.6474
1489.00,0.6661
1488.00,0.6860
1487.00,0.7064
1486.00,0.7287
1485.00,0.7546
1484.00,0.7845
1483.00,0.8192
1482.00,0.8609
1481.00,0.9109
1480.00,0.9668
1479.00,1.0267
1478.00,1.0943
1477.00,1.1761
1476.00,1.2730
1475.00,1.3829
1474.00,1.5149
1473.00,1.6923
1472.00,1.9288
1471.00,2.2055
1470.00,2.4994
1469.00,2.8215
1468.00,3.1590
1467.00,3.3875
1466.00,3.5740
1465.00,3.9948
1464.00,4.3569
1463.00,3.8769
1462.00,3.8167
1461.00,4.1443
1460.00,3.7906
1459.00,3.5759
1458.00,3.5673
1457.00,3.5434
1456.00,3.6359
1455.00,3.8823
1454.00,3.9382
1453.00,4.0722
1452.00,4.0259
1451.00,3.6620
1450.00,3.4314
1449.00,3.3716
1448.00,3.2201
1447.00,2.9797
1446.00,2.8154
1445.00,2.6963
1444.00,2.5577
1443.00,2.4026
1442.00,2.2651
1441.00,2.1470
1440.00,2.0338
1439.00,1.9199
1438.00,1.8034
1437.00,1.6815
1436.00,1.5624
1435.00,1.4595
1434.00,1.3724
1433.00,1.2907
1432.00,1.2083
1431.00,1.1275
1430.00,1.0537
1429.00,0.9904
1428.00,0.9392
1427.00,0.8993
1426.00,0.8670
1425.00,0.8391
1424.00,0.8151
1423.00,0.7967
1422.00,0.7834
1421.00,0.7723
1420.00,0.7616
1419.00,0.7514
1418.00,0.7426
1417.00,0.7352
1416.00,0.7291
1415.00,0.7245
1414.00,0.7209
1413.00,0.7179
1412.00,0.7157
1411.00,0.7143
1410.00,0.7128
1409.00,0.7102
1408.00,0.7058
1407.00,0.6995
1406.00,0.6908
1405.00,0.6796
1404.00,0.6676
1403.00,0.6567
1402.00,0.6474
1401.00,0.6389
1400.00,0.6314
1399.00,0.6258
1398.00,0.6226
1397.00,0.6213
1396.00,0.6226
1395.00,0.6275
1394.00,0.6366
1393.00,0.6503
1392.00,0.6696
1391.00,0.6966
1390.00,0.7335
1389.00,0.7838
1388.00,0.8524
1387.00,0.9409
1386.00,1.0426
1385.00,1.1483
1384.00,1.2561
1383.00,1.3708
1382.00,1.4968
1381.00,1.6374
1380.00,1.7966
1379.00,1.9669
1378.00,2.1081
1377.00,2.1601
1376.00,2.1030
1375.00,1.9664
1374.00,1.7977
1373.00,1.6399
1372.00,1.5118
1371.00,1.4129
1370.00,1.3393
1369.00,1.2890
1368.00,1.2583
1367.00,1.2369
1366.00,1.2099
1365.00,1.1656
1364.00,1.1027
1363.00,1.0309
1362.00,0.9635
1361.00,0.9090
1360.00,0.8684
1359.00,0.8385
1358.00,0.8165
1357.00,0.8008
1356.00,0.7900
1355.00,0.7833
1354.00,0.7794
1353.00,0.7770
1352.00,0.7750
1351.00,0.7727
1350.00,0.7696
1349.00,0.7658
1348.00,0.7617
1347.00,0.7580
1346.00,0.7548
1345.00,0.7523
1344.00,0.7503
1343.00,0.7485
1342.00,0.7460
1341.00,0.7419
1340.00,0.7355
1339.00,0.7265
1338.00,0.7155
1337.00,0.7028
1336.00,0.6891
1335.00,0.6753
1334.00,0.6619
1333.00,0.6496
1332.00,0.6386
1331.00,0.6293
1330.00,0.6219
1329.00,0.6161
1328.00,0.6117
1327.00,0.6087
1326.00,0.6070
1325.00,0.6064
1324.00,0.6066
1323.00,0.6072
1322.00,0.6081
1321.00,0.6089
1320.00,0.6098
1319.00,0.6108
1318.00,0.6124
1317.00,0.6143
1316.00,0.6166
1315.00,0.6194
1314.00,0.6226
1313.00,0.6262
1312.00,0.6301
1311.00,0.6340
1310.00,0.6376
1309.00,0.6407
1308.00,0.6432
1307.00,0.6451
1306.00,0.6463
1305.00,0.6463
1304.00,0.6450
1303.00,0.6424
1302.00,0.6389
1301.00,0.6345
1300.00,0.6294
1299.00,0.6240
1298.00,0.6184
1297.00,0.6129
1296.00,0.6075
1295.00,0.6027
1294.00,0.5983
1293.00,0.5943
1292.00,0.5906
1291.00,0.5870
1290.00,0.5836
1289.00,0.5803
1288.00,0.5768
1287.00,0.5734
1286.00,0.5699
1285.00,0.5663
1284.00,0.5625
1283.00,0.5588
1282.00,0.5554
1281.00,0.5524
1280.00,0.5496
1279.00,0.5472
1278.00,0.5451
1277.00,0.5429
1276.00,0.5405
1275.00,0.5382
1274.00,0.5361
1273.00,0.5344
1272.00,0.5329
1271.00,0.5319
1270.00,0.5311
1269.00,0.5301
1268.00,0.5286
1267.00,0.5263
1266.00,0.5230
1265.00,0.5192
1264.00,0.5155
1263.00,0.5123
1262.00,0.5098
1261.00,0.5077
1260.00,0.5057
1259.00,0.5039
1258.00,0.5023
1257.00,0.5006
1256.00,0.4987
1255.00,0.4968
1254.00,0.4952
1253.00,0.4936
1252.00,0.4923
1251.00,0.4911
1250.00,0.4900
1249.00,0.4886
1248.00,0.4868
1247.00,0.4847
1246.00,0.4824
1245.00,0.4799
1244.00,0.4770
1243.00,0.4739
1242.00,0.4707
1241.00,0.4674
1240.00,0.4643
1239.00,0.4615
1238.00,0.4592
1237.00,0.4571
1236.00,0.4553
1235.00,0.4540
1234.00,0.4532
1233.00,0.4530
1232.00,0.4531
1231.00,0.4536
1230.00,0.4540
1229.00,0.4538
1228.00,0.4528
1227.00,0.4509
1226.00,0.4484
1225.00,0.4454
1224.00,0.4424
1223.00,0.4399
1222.00,0.4378
1221.00,0.4363
1220.00,0.4351
1219.00,0.4344
1218.00,0.4342
1217.00,0.4343
1216.00,0.4347
1215.00,0.4355
1214.00,0.4364
1213.00,0.4370
1212.00,0.4370
1211.00,0.4364
1210.00,0.4356
1209.00,0.4343
1208.00,0.4329
1207.00,0.4313
1206.00,0.4297
1205.00,0.4281
1204.00,0.4265
1203.00,0.4250
1202.00,0.4236
1201.00,0.4224
1200.00,0.4214
1199.00,0.4206
1198.00,0.4201
1197.00,0.4196
1196.00,0.4189
1195.00,0.4182
1194.00,0.4175
1193.00,0.4168
1192.00,0.4163
1191.00,0.4160
1190.00,0.4157
1189.00,0.4153
1188.00,0.4148
1187.00,0.4144
1186.00,0.4143
1185.00,0.4142
1184.00,0.4140
1183.00,0.4139
1182.00,0.4140
1181.00,0.4143
1180.00,0.4150
1179.00,0.4160
1178.00,0.4172
1177.00,0.4188
1176.00,0.4207
1175.00,0.4235
1174.00,0.4273
1173.00,0.4318
1172.00,0.4365
1171.00,0.4409
1170.00,0.4442
1169.00,0.4458
1168.00,0.4457
1167.00,0.4445
1166.00,0.4429
1165.00,0.4413
1164.00,0.4402
1163.00,0.4398
1162.00,0.4402
1161.00,0.4411
1160.00,0.4423
1159.00,0.4437
1158.00,0.4452
1157.00,0.4463
1156.00,0.4467
1155.00,0.4466
1154.00,0.4457
1153.00,0.4441
1152.00,0.4419
1151.00,0.4394
1150.00,0.4367
1149.00,0.4339
1148.00,0.4312
1147.00,0.4288
1146.00,0.4267
1145.00,0.4250
1144.00,0.4237
1143.00,0.4231
1142.00,0.4233
1141.00,0.4245
1140.00,0.4266
1139.00,0.4299
1138.00,0.4344
1137.00,0.4400
1136.00,0.4465
1135.00,0.4535
1134.00,0.4599
1133.00,0.4638
1132.00,0.4640
1131.00,0.4602
1130.00,0.4537
1129.00,0.4463
1128.00,0.4395
1127.00,0.4342
1126.00,0.4305
1125.00,0.4281
1124.00,0.4263
1123.00,0.4247
1122.00,0.4231
1121.00,0.4214
1120.00,0.4201
1119.00,0.4196
1118.00,0.4202
1117.00,0.4219
1116.00,0.4244
1115.00,0.4272
1114.00,0.4289
1113.00,0.4283
1112.00,0.4250
1111.00,0.4199
1110.00,0.4141
1109.00,0.4089
1108.00,0.4048
1107.00,0.4021
1106.00,0.4004
1105.00,0.3994
1104.00,0.3988
1103.00,0.3983
1102.00,0.3978
1101.00,0.3970
1100.00,0.3959
1099.00,0.3949
1098.00,0.3939
1097.00,0.3931
1096.00,0.3925
1095.00,0.3922
1094.00,0.3922
1093.00,0.3924
1092.00,0.3927
1091.00,0.3932
1090.00,0.3939
1089.00,0.3951
1088.00,0.3969
1087.00,0.3995
1086.00,0.4028
1085.00,0.4067
1084.00,0.4112
1083.00,0.4165
1082.00,0.4226
1081.00,0.4293
1080.00,0.4360
1079.00,0.4422
1078.00,0.4470
1077.00,0.4498
1076.00,0.4500
1075.00,0.4477
1074.00,0.4434
1073.00,0.4381
1072.00,0.4327
1071.00,0.4280
1070.00,0.4243
1069.00,0.4213
1068.00,0.4190
1067.00,0.4174
1066.00,0.4163
1065.00,0.4156
1064.00,0.4153
1063.00,0.4153
1062.00,0.4156
1061.00,0.4162
1060.00,0.4168
1059.00,0.4172
1058.00,0.4173
1057.00,0.4169
1056.00,0.4161
1055.00,0.4154
1054.00,0.4148
1053.00,0.4147
1052.00,0.4149
1051.00,0.4159
1050.00,0.4175
1049.00,0.4194
1048.00,0.4212
1047.00,0.4230
1046.00,0.4243
1045.00,0.4251
1044.00,0.4253
1043.00,0.4251
1042.00,0.4247
1041.00,0.4244
1040.00,0.4242
1039.00,0.4242
1038.00,0.4241
1037.00,0.4237
1036.00,0.4233
1035.00,0.4233
1034.00,0.4239
1033.00,0.4251
1032.00,0.4264
1031.00,0.4279
1030.00,0.4290
1029.00,0.4294
1028.00,0.4288
1027.00,0.4271
1026.00,0.4242
1025.00,0.4202
1024.00,0.4153
1023.00,0.4102
1022.00,0.4055
1021.00,0.4012
1020.00,0.3975
1019.00,0.3941
1018.00,0.3912
1017.00,0.3885
1016.00,0.3860
1015.00,0.3838
1014.00,0.3821
1013.00,0.3806
1012.00,0.3794
1011.00,0.3784
1010.00,0.3778
1009.00,0.3775
1008.00,0.3776
1007.00,0.3781
1006.00,0.3790
1005.00,0.3802
1004.00,0.3816
1003.00,0.3832
1002.00,0.3849
1001.00,0.3864
1000.00,0.3876
999.00,0.3884
998.00,0.3888
997.00,0.3883
996.00,0.3871
995.00,0.3854
994.00,0.3832
993.00,0.3807
992.00,0.3779
991.00,0.3752
990.00,0.3726
989.00,0.3705
988.00,0.3690
987.00,0.3683
986.00,0.3683
985.00,0.3688
984.00,0.3699
983.00,0.3716
982.00,0.3739
981.00,0.3764
980.00,0.3789
979.00,0.3815
978.00,0.3841
977.00,0.3864
976.00,0.3883
975.00,0.3897
974.00,0.3908
973.00,0.3913
972.00,0.3916
971.00,0.3918
970.00,0.3919
969.00,0.3919
968.00,0.3918
967.00,0.3918
966.00,0.3917
965.00,0.3912
964.00,0.3904
963.00,0.3893
962.00,0.3880
961.00,0.3867
960.00,0.3855
959.00,0.3846
958.00,0.3840
957.00,0.3836
956.00,0.3833
955.00,0.3829
954.00,0.3823
953.00,0.3815
952.00,0.3804
951.00,0.3794
950.00,0.3787
949.00,0.3784
948.00,0.3784
947.00,0.3790
946.00,0.3798
945.00,0.3810
944.00,0.3822
943.00,0.3836
942.00,0.3851
941.00,0.3865
940.00,0.3877
939.00,0.3886
938.00,0.3891
937.00,0.3891
936.00,0.3883
935.00,0.3870
934.00,0.3852
933.00,0.3829
932.00,0.3804
931.00,0.3781
930.00,0.3761
929.00,0.3745
928.00,0.3734
927.00,0.3732
926.00,0.3743
925.00,0.3767
924.00,0.3805
923.00,0.3849
922.00,0.3891
921.00,0.3916
920.00,0.3916
919.00,0.3886
918.00,0.3830
917.00,0.3758
916.00,0.3681
915.00,0.3611
914.00,0.3552
913.00,0.3506
912.00,0.3471
911.00,0.3445
910.00,0.3425
909.00,0.3409
908.00,0.3396
907.00,0.3386
906.00,0.3380
905.00,0.3377
904.00,0.3379
903.00,0.3386
902.00,0.3400
901.00,0.3418
900.00,0.3441
899.00,0.3470
898.00,0.3503
897.00,0.3539
896.00,0.3576
895.00,0.3614
894.00,0.3652
893.00,0.3689
892.00,0.3725
891.00,0.3758
890.00,0.3784
889.00,0.3799
888.00,0.3799
887.00,0.3788
886.00,0.3769
885.00,0.3749
884.00,0.3731
883.00,0.3721
882.00,0.3720
881.00,0.3727
880.00,0.3738
879.00,0.3749
878.00,0.3756
877.00,0.3758
876.00,0.3755
875.00,0.3752
874.00,0.3751
873.00,0.3752
872.00,0.3756
871.00,0.3763
870.00,0.3775
869.00,0.3788
868.00,0.3803
867.00,0.3822
866.00,0.3845
865.00,0.3874
864.00,0.3904
863.00,0.3928
862.00,0.3936
861.00,0.3919
860.00,0.3876
859.00,0.3817
858.00,0.3755
857.00,0.3702
856.00,0.3661
855.00,0.3634
854.00,0.3617
853.00,0.3605
852.00,0.3595
851.00,0.3585
850.00,0.3572
849.00,0.3553
848.00,0.3530
847.00,0.3504
846.00,0.3478
845.00,0.3450
844.00,0.3422
843.00,0.3397
842.00,0.3382
841.00,0.3381
840.00,0.3401
839.00,0.3441
838.00,0.3496
837.00,0.3551
836.00,0.3591
835.00,0.3604
834.00,0.3589
833.00,0.3557
832.00,0.3525
831.00,0.3506
830.00,0.3506
829.00,0.3525
828.00,0.3558
827.00,0.3603
826.00,0.3656
825.00,0.3713
824.00,0.3775
823.00,0.3843
822.00,0.3914
821.00,0.3985
820.00,0.4053
819.00,0.4116
818.00,0.4171
817.00,0.4212
816.00,0.4234
815.00,0.4236
814.00,0.4218
813.00,0.4181
812.00,0.4129
811.00,0.4070
810.00,0.4007
809.00,0.3947
808.00,0.3891
807.00,0.3841
806.00,0.3795
805.00,0.3748
804.00,0.3696
803.00,0.3641
802.00,0.3583
801.00,0.3525
800.00,0.3470
799.00,0.3426
798.00,0.3394
797.00,0.3371
796.00,0.3356
795.00,0.3348
794.00,0.3347
793.00,0.3351
792.00,0.3361
791.00,0.3375
790.00,0.3397
789.00,0.3423
788.00,0.3455
787.00,0.3490
786.00,0.3529
785.00,0.3570
784.00,0.3614
783.00,0.3658
782.00,0.3698
781.00,0.3730
780.00,0.3754
779.00,0.3774
778.00,0.3792
777.00,0.3808
776.00,0.3823
775.00,0.3839
774.00,0.3857
773.00,0.3877
772.00,0.3900
771.00,0.3928
770.00,0.3961
769.00,0.3995
768.00,0.4027
767.00,0.4055
766.00,0.4077
765.00,0.4091
764.00,0.4101
763.00,0.4114
762.00,0.4135
761.00,0.4165
760.00,0.4201
759.00,0.4240
758.00,0.4279
757.00,0.4315
756.00,0.4346
755.00,0.4374
754.00,0.4406
753.00,0.4444
752.00,0.4489
751.00,0.4538
750.00,0.4587
749.00,0.4633
748.00,0.4673
747.00,0.4712
746.00,0.4751
745.00,0.4791
744.00,0.4831
743.00,0.4872
742.00,0.4918
741.00,0.4966
740.00,0.5011
739.00,0.5051
738.00,0.5085
737.00,0.5114
736.00,0.5145
735.00,0.5185
734.00,0.5237
733.00,0.5300
732.00,0.5373
731.00,0.5464
730.00,0.5580
729.00,0.5727
728.00,0.5906
727.00,0.6118
726.00,0.6359
725.00,0.6623
724.00,0.6886
723.00,0.7107
722.00,0.7215
721.00,0.7140
720.00,0.6868
719.00,0.6464
718.00,0.6021
717.00,0.5605
716.00,0.5248
715.00,0.4958
714.00,0.4727
713.00,0.4543
712.00,0.4391
711.00,0.4265
710.00,0.4164
709.00,0.4084
708.00,0.4019
707.00,0.3967
706.00,0.3924
705.00,0.3884
704.00,0.3847
703.00,0.3818
702.00,0.3803
701.00,0.3796
700.00,0.3781
699.00,0.3734
698.00,0.3638
697.00,0.3501
696.00,0.3347
695.00,0.3203
694.00,0.3085
693.00,0.2996
692.00,0.2929
691.00,0.2881
690.00,0.2844
689.00,0.2814
688.00,0.2791
687.00,0.2775
686.00,0.2764
685.00,0.2755
684.00,0.2744
683.00,0.2734
682.00,0.2728
681.00,0.2726
680.00,0.2725
679.00,0.2726
678.00,0.2725
677.00,0.2723
676.00,0.2721
675.00,0.2723
674.00,0.2727
673.00,0.2731
672.00,0.2733
671.00,0.2734
670.00,0.2738
669.00,0.2747
668.00,0.2761
667.00,0.2774
666.00,0.2779
665.00,0.2777
664.00,0.2776
663.00,0.2780
662.00,0.2789
661.00,0.2801
660.00,0.2811
659.00,0.2822
658.00,0.2835
657.00,0.2849
656.00,0.2863
655.00,0.2877
654.00,0.2889
653.00,0.2900
652.00,0.2909
651.00,0.2918
650.00,0.2928
649.00,0.2939
648.00,0.2951
647.00,0.2966
646.00,0.2982
645.00,0.2997
644.00,0.3009
643.00,0.3022
642.00,0.3038
641.00,0.3054
640.00,0.3069
639.00,0.3080
638.00,0.3090
637.00,0.3098
636.00,0.3105
635.00,0.3110
634.00,0.3114
633.00,0.3117
632.00,0.3122
631.00,0.3130
630.00,0.3143
629.00,0.3159
628.00,0.3178
627.00,0.3202
626.00,0.3231
625.00,0.3261
624.00,0.3288
623.00,0.3311
622.00,0.3330
621.00,0.3345
620.00,0.3358
619.00,0.3369
618.00,0.3379
617.00,0.3390
616.00,0.3397
615.00,0.3401
614.00,0.3398
613.00,0.3390
612.00,0.3380
611.00,0.3370
610.00,0.3361
609.00,0.3350
608.00,0.3336
607.00,0.3319
606.00,0.3303
605.00,0.3291
604.00,0.3285
603.00,0.3283
602.00,0.3281
601.00,0.3278
600.00,0.3279
599.00,0.3285
598.00,0.3297
597.00,0.3308
596.00,0.3319
595.00,0.3330
594.00,0.3346
593.00,0.3363
592.00,0.3381
591.00,0.3398
590.00,0.3414
589.00,0.3430
588.00,0.3448
587.00,0.3469
586.00,0.3493
585.00,0.3518
584.00,0.3547
583.00,0.3579
582.00,0.3608
581.00,0.3632
580.00,0.3652
579.00,0.3673
578.00,0.3697
577.00,0.3724
576.00,0.3749
575.00,0.3771
574.00,0.3788
573.00,0.3800
572.00,0.3811
571.00,0.3825
570.00,0.3841
569.00,0.3856
568.00,0.3869
567.00,0.3881
566.00,0.3894
565.00,0.3904
564.00,0.3911
563.00,0.3915
562.00,0.3916
561.00,0.3913
560.00,0.3912
559.00,0.3919
558.00,0.3932
557.00,0.3947
556.00,0.3958
555.00,0.3965
554.00,0.3971
553.00,0.3976
552.00,0.3983
551.00,0.3993
550.00,0.4006
