Created as New Dataset,
cm-1,A
4000.00,0.4483
3999.00,0.4480
3998.00,0.4478
3997.00,0.4476
3996.00,0.4473
3995.00,0.4471
3994.00,0.4468
3993.00,0.4465
3992.00,0.4462
3991.00,0.4458
3990.00,0.4455
3989.00,0.4452
3988.00,0.4449
3987.00,0.4445
3986.00,0.4441
3985.00,0.4436
3984.00,0.4432
3983.00,0.4428
3982.00,0.4424
3981.00,0.4420
3980.00,0.4416
3979.00,0.4413
3978.00,0.4410
3977.00,0.4408
3976.00,0.4405
3975.00,0.4402
3974.00,0.4398
3973.00,0.4394
3972.00,0.4392
3971.00,0.4390
3970.00,0.4389
3969.00,0.4388
3968.00,0.4386
3967.00,0.4384
3966.00,0.4382
3965.00,0.4381
3964.00,0.4379
3963.00,0.4377
3962.00,0.4375
3961.00,0.4374
3960.00,0.4372
3959.00,0.4371
3958.00,0.4370
3957.00,0.4369
3956.00,0.4368
3955.00,0.4367
3954.00,0.4365
3953.00,0.4364
3952.00,0.4363
3951.00,0.4360
3950.00,0.4358
3949.00,0.4355
3948.00,0.4353
3947.00,0.4352
3946.00,0.4350
3945.00,0.4349
3944.00,0.4348
3943.00,0.4347
3942.00,0.4346
3941.00,0.4344
3940.00,0.4342
3939.00,0.4340
3938.00,0.4339
3937.00,0.4338
3936.00,0.4338
3935.00,0.4337
3934.00,0.4337
3933.00,0.4336
3932.00,0.4336
3931.00,0.4337
3930.00,0.4337
3929.00,0.4337
3928.00,0.4336
3927.00,0.4336
3926.00,0.4335
3925.00,0.4335
3924.00,0.4335
3923.00,0.4335
3922.00,0.4336
3921.00,0.4336
3920.00,0.4337
3919.00,0.4338
3918.00,0.4338
3917.00,0.4337
3916.00,0.4337
3915.00,0.4336
3914.00,0.4335
3913.00,0.4334
3912.00,0.4332
3911.00,0.4332
3910.00,0.4331
3909.00,0.4331
3908.00,0.4331
3907.00,0.4332
3906.00,0.4332
3905.00,0.4332
3904.00,0.4331
3903.00,0.4331
3902.00,0.4331
3901.00,0.4331
3900.00,0.4330
3899.00,0.4329
3898.00,0.4328
3897.00,0.4326
3896.00,0.4324
3895.00,0.4323
3894.00,0.4322
3893.00,0.4321
3892.00,0.4320
3891.00,0.4318
3890.00,0.4317
3889.00,0.4316
3888.00,0.4315
3887.00,0.4315
3886.00,0.4316
3885.00,0.4318
3884.00,0.4319
3883.00,0.4320
3882.00,0.4320
3881.00,0.4319
3880.00,0.4318
3879.00,0.4315
3878.00,0.4312
3877.00,0.4310
3876.00,0.4310
3875.00,0.4309
3874.00,0.4309
3873.00,0.4309
3872.00,0.4308
3871.00,0.4307
3870.00,0.4307
3869.00,0.4307
3868.00,0.4307
3867.00,0.4305
3866.00,0.4303
3865.00,0.4301
3864.00,0.4298
3863.00,0.4295
3862.00,0.4293
3861.00,0.4291
3860.00,0.4289
3859.00,0.4289
3858.00,0.4289
3857.00,0.4290
3856.00,0.4292
3855.00,0.4293
3854.00,0.4294
3853.00,0.4295
3852.00,0.4296
3851.00,0.4295
3850.00,0.4294
3849.00,0.4291
3848.00,0.4289
3847.00,0.4286
3846.00,0.4283
3845.00,0.4281
3844.00,0.4280
3843.00,0.4280
3842.00,0.4281
3841.00,0.4282
3840.00,0.4283
3839.00,0.4284
3838.00,0.4284
3837.00,0.4284
3836.00,0.4284
3835.00,0.4284
3834.00,0.4282
3833.00,0.4280
3832.00,0.4277
3831.00,0.4274
3830.00,0.4271
3829.00,0.4269
3828.00,0.4266
3827.00,0.4265
3826.00,0.4264
3825.00,0.4264
3824.00,0.4265
3823.00,0.4265
3822.00,0.4266
3821.00,0.4266
3820.00,0.4266
3819.00,0.4265
3818.00,0.4262
3817.00,0.4260
3816.00,0.4257
3815.00,0.4254
3814.00,0.4251
3813.00,0.4248
3812.00,0.4245
3811.00,0.4243
3810.00,0.4242
3809.00,0.4240
3808.00,0.4239
3807.00,0.4238
3806.00,0.4237
3805.00,0.4237
3804.00,0.4237
3803.00,0.4236
3802.00,0.4235
3801.00,0.4234
3800.00,0.4233
3799.00,0.4231
3798.00,0.4228
3797.00,0.4225
3796.00,0.4222
3795.00,0.4219
3794.00,0.4215
3793.00,0.4212
3792.00,0.4208
3791.00,0.4206
3790.00,0.4204
3789.00,0.4202
3788.00,0.4201
3787.00,0.4199
3786.00,0.4197
3785.00,0.4195
3784.00,0.4194
3783.00,0.4192
3782.00,0.4191
3781.00,0.4190
3780.00,0.4189
3779.00,0.4187
3778.00,0.4185
3777.00,0.4183
3776.00,0.4181
3775.00,0.4179
3774.00,0.4177
3773.00,0.4175
3772.00,0.4174
3771.00,0.4174
3770.00,0.4174
3769.00,0.4174
3768.00,0.4173
3767.00,0.4172
3766.00,0.4170
3765.00,0.4168
3764.00,0.4166
3763.00,0.4164
3762.00,0.4162
3761.00,0.4161
3760.00,0.4159
3759.00,0.4158
3758.00,0.4157
3757.00,0.4156
3756.00,0.4156
3755.00,0.4155
3754.00,0.4155
3753.00,0.4155
3752.00,0.4156
3751.00,0.4156
3750.00,0.4157
3749.00,0.4158
3748.00,0.4158
3747.00,0.4158
3746.00,0.4158
3745.00,0.4156
3744.00,0.4153
3743.00,0.4149
3742.00,0.4145
3741.00,0.4141
3740.00,0.4138
3739.00,0.4136
3738.00,0.4135
3737.00,0.4134
3736.00,0.4134
3735.00,0.4135
3734.00,0.4135
3733.00,0.4134
3732.00,0.4132
3731.00,0.4130
3730.00,0.4127
3729.00,0.4124
3728.00,0.4122
3727.00,0.4119
3726.00,0.4116
3725.00,0.4113
3724.00,0.4111
3723.00,0.4109
3722.00,0.4107
3721.00,0.4105
3720.00,0.4104
3719.00,0.4102
3718.00,0.4100
3717.00,0.4099
3716.00,0.4097
3715.00,0.4096
3714.00,0.4096
3713.00,0.4096
3712.00,0.4096
3711.00,0.4096
3710.00,0.4096
3709.00,0.4096
3708.00,0.4096
3707.00,0.4096
3706.00,0.4095
3705.00,0.4094
3704.00,0.4093
3703.00,0.4092
3702.00,0.4091
3701.00,0.4090
3700.00,0.4089
3699.00,0.4088
3698.00,0.4088
3697.00,0.4089
3696.00,0.4089
3695.00,0.4090
3694.00,0.4090
3693.00,0.4091
3692.00,0.4093
3691.00,0.4095
3690.00,0.4097
3689.00,0.4099
3688.00,0.4100
3687.00,0.4101
3686.00,0.4099
3685.00,0.4097
3684.00,0.4095
3683.00,0.4093
3682.00,0.4091
3681.00,0.4089
3680.00,0.4089
3679.00,0.4088
3678.00,0.4089
3677.00,0.4089
3676.00,0.4091
3675.00,0.4094
3674.00,0.4096
3673.00,0.4097
3672.00,0.4096
3671.00,0.4095
3670.00,0.4093
3669.00,0.4091
3668.00,0.4089
3667.00,0.4087
3666.00,0.4085
3665.00,0.4083
3664.00,0.4082
3663.00,0.4081
3662.00,0.4081
3661.00,0.4081
3660.00,0.4081
3659.00,0.4081
3658.00,0.4082
3657.00,0.4084
3656.00,0.4087
3655.00,0.4090
3654.00,0.4093
3653.00,0.4096
3652.00,0.4099
3651.00,0.4100
3650.00,0.4102
3649.00,0.4105
3648.00,0.4108
3647.00,0.4110
3646.00,0.4110
3645.00,0.4109
3644.00,0.4108
3643.00,0.4107
3642.00,0.4106
3641.00,0.4106
3640.00,0.4107
3639.00,0.4109
3638.00,0.4111
3637.00,0.4113
3636.00,0.4115
3635.00,0.4118
3634.00,0.4122
3633.00,0.4126
3632.00,0.4131
3631.00,0.4136
3630.00,0.4141
3629.00,0.4148
3628.00,0.4156
3627.00,0.4163
3626.00,0.4169
3625.00,0.4173
3624.00,0.4177
3623.00,0.4181
3622.00,0.4183
3621.00,0.4185
3620.00,0.4185
3619.00,0.4186
3618.00,0.4185
3617.00,0.4184
3616.00,0.4183
3615.00,0.4182
3614.00,0.4181
3613.00,0.4182
3612.00,0.4183
3611.00,0.4184
3610.00,0.4185
3609.00,0.4186
3608.00,0.4187
3607.00,0.4187
3606.00,0.4187
3605.00,0.4185
3604.00,0.4184
3603.00,0.4181
3602.00,0.4178
3601.00,0.4174
3600.00,0.4169
3599.00,0.4164
3598.00,0.4158
3597.00,0.4151
3596.00,0.4144
3595.00,0.4137
3594.00,0.4131
3593.00,0.4124
3592.00,0.4119
3591.00,0.4114
3590.00,0.4110
3589.00,0.4106
3588.00,0.4103
3587.00,0.4101
3586.00,0.4099
3585.00,0.4098
3584.00,0.4097
3583.00,0.4096
3582.00,0.4094
3581.00,0.4093
3580.00,0.4092
3579.00,0.4092
3578.00,0.4092
3577.00,0.4092
3576.00,0.4093
3575.00,0.4093
3574.00,0.4095
3573.00,0.4096
3572.00,0.4098
3571.00,0.4100
3570.00,0.4102
3569.00,0.4104
3568.00,0.4106
3567.00,0.4108
3566.00,0.4110
3565.00,0.4112
3564.00,0.4115
3563.00,0.4117
3562.00,0.4120
3561.00,0.4122
3560.00,0.4123
3559.00,0.4125
3558.00,0.4127
3557.00,0.4129
3556.00,0.4133
3555.00,0.4136
3554.00,0.4138
3553.00,0.4141
3552.00,0.4145
3551.00,0.4149
3550.00,0.4153
3549.00,0.4157
3548.00,0.4160
3547.00,0.4165
3546.00,0.4169
3545.00,0.4174
3544.00,0.4178
3543.00,0.4183
3542.00,0.4187
3541.00,0.4191
3540.00,0.4195
3539.00,0.4199
3538.00,0.4201
3537.00,0.4204
3536.00,0.4207
3535.00,0.4211
3534.00,0.4214
3533.00,0.4218
3532.00,0.4221
3531.00,0.4224
3530.00,0.4228
3529.00,0.4232
3528.00,0.4236
3527.00,0.4239
3526.00,0.4242
3525.00,0.4245
3524.00,0.4249
3523.00,0.4253
3522.00,0.4257
3521.00,0.4261
3520.00,0.4264
3519.00,0.4267
3518.00,0.4271
3517.00,0.4275
3516.00,0.4279
3515.00,0.4283
3514.00,0.4288
3513.00,0.4291
3512.00,0.4295
3511.00,0.4299
3510.00,0.4303
3509.00,0.4309
3508.00,0.4315
3507.00,0.4321
3506.00,0.4327
3505.00,0.4332
3504.00,0.4336
3503.00,0.4341
3502.00,0.4345
3501.00,0.4350
3500.00,0.4356
3499.00,0.4362
3498.00,0.4367
3497.00,0.4373
3496.00,0.4378
3495.00,0.4383
3494.00,0.4390
3493.00,0.4397
3492.00,0.4405
3491.00,0.4411
3490.00,0.4418
3489.00,0.4424
3488.00,0.4431
3487.00,0.4438
3486.00,0.4445
3485.00,0.4451
3484.00,0.4458
3483.00,0.4464
3482.00,0.4470
3481.00,0.4476
3480.00,0.4482
3479.00,0.4488
3478.00,0.4493
3477.00,0.4498
3476.00,0.4503
3475.00,0.4508
3474.00,0.4514
3473.00,0.4520
3472.00,0.4526
3471.00,0.4533
3470.00,0.4539
3469.00,0.4544
3468.00,0.4550
3467.00,0.4555
3466.00,0.4561
3465.00,0.4567
3464.00,0.4573
3463.00,0.4579
3462.00,0.4585
3461.00,0.4592
3460.00,0.4598
3459.00,0.4605
3458.00,0.4612
3457.00,0.4619
3456.00,0.4626
3455.00,0.4633
3454.00,0.4640
3453.00,0.4647
3452.00,0.4653
3451.00,0.4660
3450.00,0.4668
3449.00,0.4675
3448.00,0.4683
3447.00,0.4691
3446.00,0.4698
3445.00,0.4706
3444.00,0.4713
3443.00,0.4721
3442.00,0.4728
3441.00,0.4735
3440.00,0.4742
3439.00,0.4748
3438.00,0.4755
3437.00,0.4762
3436.00,0.4770
3435.00,0.4777
3434.00,0.4784
3433.00,0.4791
3432.00,0.4798
3431.00,0.4806
3430.00,0.4815
3429.00,0.4824
3428.00,0.4833
3427.00,0.4841
3426.00,0.4849
3425.00,0.4857
3424.00,0.4864
3423.00,0.4873
3422.00,0.4882
3421.00,0.4892
3420.00,0.4901
3419.00,0.4911
3418.00,0.4921
3417.00,0.4931
3416.00,0.4941
3415.00,0.4950
3414.00,0.4960
3413.00,0.4970
3412.00,0.4979
3411.00,0.4989
3410.00,0.4999
3409.00,0.5009
3408.00,0.5019
3407.00,0.5029
3406.00,0.5040
3405.00,0.5050
3404.00,0.5061
3403.00,0.5072
3402.00,0.5082
3401.00,0.5091
3400.00,0.5101
3399.00,0.5110
3398.00,0.5120
3397.00,0.5130
3396.00,0.5141
3395.00,0.5152
3394.00,0.5163
3393.00,0.5174
3392.00,0.5184
3391.00,0.5194
3390.00,0.5205
3389.00,0.5215
3388.00,0.5226
3387.00,0.5236
3386.00,0.5247
3385.00,0.5258
3384.00,0.5269
3383.00,0.5281
3382.00,0.5293
3381.00,0.5304
3380.00,0.5316
3379.00,0.5328
3378.00,0.5341
3377.00,0.5354
3376.00,0.5367
3375.00,0.5380
3374.00,0.5392
3373.00,0.5405
3372.00,0.5418
3371.00,0.5431
3370.00,0.5444
3369.00,0.5457
3368.00,0.5472
3367.00,0.5486
3366.00,0.5501
3365.00,0.5515
3364.00,0.5528
3363.00,0.5542
3362.00,0.5555
3361.00,0.5569
3360.00,0.5585
3359.00,0.5601
3358.00,0.5617
3357.00,0.5633
3356.00,0.5649
3355.00,0.5666
3354.00,0.5682
3353.00,0.5698
3352.00,0.5713
3351.00,0.5728
3350.00,0.5742
3349.00,0.5757
3348.00,0.5772
3347.00,0.5788
3346.00,0.5803
3345.00,0.5818
3344.00,0.5833
3343.00,0.5847
3342.00,0.5860
3341.00,0.5873
3340.00,0.5886
3339.00,0.5897
3338.00,0.5909
3337.00,0.5919
3336.00,0.5929
3335.00,0.5937
3334.00,0.5945
3333.00,0.5952
3332.00,0.5959
3331.00,0.5964
3330.00,0.5968
3329.00,0.5972
3328.00,0.5975
3327.00,0.5976
3326.00,0.5978
3325.00,0.5978
3324.00,0.5979
3323.00,0.5977
3322.00,0.5975
3321.00,0.5970
3320.00,0.5965
3319.00,0.5959
3318.00,0.5954
3317.00,0.5949
3316.00,0.5944
3315.00,0.5938
3314.00,0.5932
3313.00,0.5925
3312.00,0.5916
3311.00,0.5908
3310.00,0.5899
3309.00,0.5891
3308.00,0.5882
3307.00,0.5873
3306.00,0.5864
3305.00,0.5856
3304.00,0.5847
3303.00,0.5839
3302.00,0.5831
3301.00,0.5823
3300.00,0.5816
3299.00,0.5807
3298.00,0.5799
3297.00,0.5791
3296.00,0.5784
3295.00,0.5777
3294.00,0.5771
3293.00,0.5766
3292.00,0.5762
3291.00,0.5757
3290.00,0.5753
3289.00,0.5749
3288.00,0.5745
3287.00,0.5742
3286.00,0.5739
3285.00,0.5737
3284.00,0.5736
3283.00,0.5735
3282.00,0.5735
3281.00,0.5734
3280.00,0.5735
3279.00,0.5736
3278.00,0.5737
3277.00,0.5738
3276.00,0.5740
3275.00,0.5742
3274.00,0.5744
3273.00,0.5747
3272.00,0.5749
3271.00,0.5752
3270.00,0.5756
3269.00,0.5759
3268.00,0.5764
3267.00,0.5768
3266.00,0.5772
3265.00,0.5776
3264.00,0.5781
3263.00,0.5785
3262.00,0.5790
3261.00,0.5795
3260.00,0.5800
3259.00,0.5804
3258.00,0.5809
3257.00,0.5814
3256.00,0.5819
3255.00,0.5824
3254.00,0.5829
3253.00,0.5835
3252.00,0.5839
3251.00,0.5843
3250.00,0.5845
3249.00,0.5849
3248.00,0.5852
3247.00,0.5856
3246.00,0.5859
3245.00,0.5862
3244.00,0.5865
3243.00,0.5868
3242.00,0.5870
3241.00,0.5872
3240.00,0.5874
3239.00,0.5876
3238.00,0.5877
3237.00,0.5878
3236.00,0.5880
3235.00,0.5881
3234.00,0.5881
3233.00,0.5882
3232.00,0.5881
3231.00,0.5880
3230.00,0.5880
3229.00,0.5879
3228.00,0.5878
3227.00,0.5876
3226.00,0.5874
3225.00,0.5873
3224.00,0.5871
3223.00,0.5869
3222.00,0.5866
3221.00,0.5863
3220.00,0.5860
3219.00,0.5856
3218.00,0.5852
3217.00,0.5849
3216.00,0.5846
3215.00,0.5843
3214.00,0.5839
3213.00,0.5835
3212.00,0.5832
3211.00,0.5828
3210.00,0.5825
3209.00,0.5820
3208.00,0.5816
3207.00,0.5812
3206.00,0.5808
3205.00,0.5804
3204.00,0.5800
3203.00,0.5796
3202.00,0.5793
3201.00,0.5791
3200.00,0.5788
3199.00,0.5785
3198.00,0.5782
3197.00,0.5777
3196.00,0.5771
3195.00,0.5765
3194.00,0.5759
3193.00,0.5754
3192.00,0.5750
3191.00,0.5745
3190.00,0.5740
3189.00,0.5735
3188.00,0.5729
3187.00,0.5723
3186.00,0.5716
3185.00,0.5708
3184.00,0.5701
3183.00,0.5693
3182.00,0.5686
3181.00,0.5678
3180.00,0.5670
3179.00,0.5662
3178.00,0.5655
3177.00,0.5648
3176.00,0.5641
3175.00,0.5633
3174.00,0.5624
3173.00,0.5615
3172.00,0.5606
3171.00,0.5596
3170.00,0.5587
3169.00,0.5579
3168.00,0.5572
3167.00,0.5564
3166.00,0.5556
3165.00,0.5548
3164.00,0.5540
3163.00,0.5531
3162.00,0.5522
3161.00,0.5514
3160.00,0.5506
3159.00,0.5499
3158.00,0.5492
3157.00,0.5484
3156.00,0.5475
3155.00,0.5466
3154.00,0.5456
3153.00,0.5448
3152.00,0.5440
3151.00,0.5432
3150.00,0.5424
3149.00,0.5416
3148.00,0.5408
3147.00,0.5401
3146.00,0.5394
3145.00,0.5387
3144.00,0.5380
3143.00,0.5373
3142.00,0.5367
3141.00,0.5361
3140.00,0.5356
3139.00,0.5352
3138.00,0.5347
3137.00,0.5342
3136.00,0.5337
3135.00,0.5332
3134.00,0.5328
3133.00,0.5325
3132.00,0.5322
3131.00,0.5320
3130.00,0.5319
3129.00,0.5317
3128.00,0.5316
3127.00,0.5316
3126.00,0.5316
3125.00,0.5317
3124.00,0.5317
3123.00,0.5317
3122.00,0.5317
3121.00,0.5317
3120.00,0.5317
3119.00,0.5318
3118.00,0.5320
3117.00,0.5322
3116.00,0.5325
3115.00,0.5329
3114.00,0.5332
3113.00,0.5336
3112.00,0.5340
3111.00,0.5344
3110.00,0.5349
3109.00,0.5355
3108.00,0.5361
3107.00,0.5369
3106.00,0.5377
3105.00,0.5386
3104.00,0.5394
3103.00,0.5402
3102.00,0.5411
3101.00,0.5419
3100.00,0.5428
3099.00,0.5437
3098.00,0.5446
3097.00,0.5457
3096.00,0.5470
3095.00,0.5485
3094.00,0.5501
3093.00,0.5518
3092.00,0.5536
3091.00,0.5555
3090.00,0.5577
3089.00,0.5600
3088.00,0.5625
3087.00,0.5650
3086.00,0.5675
3085.00,0.5700
3084.00,0.5727
3083.00,0.5756
3082.00,0.5787
3081.00,0.5820
3080.00,0.5855
3079.00,0.5891
3078.00,0.5930
3077.00,0.5971
3076.00,0.6012
3075.00,0.6055
3074.00,0.6098
3073.00,0.6141
3072.00,0.6185
3071.00,0.6229
3070.00,0.6273
3069.00,0.6318
3068.00,0.6362
3067.00,0.6406
3066.00,0.6448
3065.00,0.6489
3064.00,0.6526
3063.00,0.6561
3062.00,0.6592
3061.00,0.6621
3060.00,0.6648
3059.00,0.6674
3058.00,0.6700
3057.00,0.6725
3056.00,0.6752
3055.00,0.6780
3054.00,0.6810
3053.00,0.6842
3052.00,0.6876
3051.00,0.6913
3050.00,0.6953
3049.00,0.6996
3048.00,0.7041
3047.00,0.7087
3046.00,0.7133
3045.00,0.7179
3044.00,0.7225
3043.00,0.7273
3042.00,0.7320
3041.00,0.7367
3040.00,0.7413
3039.00,0.7459
3038.00,0.7506
3037.00,0.7556
3036.00,0.7609
3035.00,0.7665
3034.00,0.7725
3033.00,0.7791
3032.00,0.7863
3031.00,0.7939
3030.00,0.8019
3029.00,0.8104
3028.00,0.8192
3027.00,0.8285
3026.00,0.8381
3025.00,0.8480
3024.00,0.8581
3023.00,0.8685
3022.00,0.8792
3021.00,0.8902
3020.00,0.9015
3019.00,0.9130
3018.00,0.9247
3017.00,0.9363
3016.00,0.9481
3015.00,0.9599
3014.00,0.9720
3013.00,0.9843
3012.00,0.9969
3011.00,1.0100
3010.00,1.0237
3009.00,1.0384
3008.00,1.0537
3007.00,1.0696
3006.00,1.0861
3005.00,1.1032
3004.00,1.1209
3003.00,1.1392
3002.00,1.1581
3001.00,1.1774
3000.00,1.1976
2999.00,1.2188
2998.00,1.2416
2997.00,1.2666
2996.00,1.2943
2995.00,1.3252
2994.00,1.3596
2993.00,1.3974
2992.00,1.4392
2991.00,1.4854
2990.00,1.5369
2989.00,1.5944
2988.00,1.6585
2987.00,1.7297
2986.00,1.8090
2985.00,1.8969
2984.00,1.9942
2983.00,2.1022
2982.00,2.2219
2981.00,2.3529
2980.00,2.4920
2979.00,2.6345
2978.00,2.7761
2977.00,2.9149
2976.00,3.0534
2975.00,3.1972
2974.00,3.3427
2973.00,3.4622
2972.00,3.5296
2971.00,3.5728
2970.00,3.6424
2969.00,3.7193
2968.00,3.7443
2967.00,3.7521
2966.00,3.7734
2965.00,3.7789
2964.00,3.7410
2963.00,3.7076
2962.00,3.7109
2961.00,3.6978
2960.00,3.6483
2959.00,3.6102
2958.00,3.6243
2957.00,3.6929
2956.00,3.7978
2955.00,3.9416
2954.00,4.0913
2953.00,4.1572
2952.00,4.1489
2951.00,4.1643
2950.00,4.1653
2949.00,4.0743
2948.00,4.0260
2947.00,4.1786
2946.00,4.4420
2945.00,4.2349
2944.00,3.9482
2943.00,3.7888
2942.00,3.7742
2941.00,3.8413
2940.00,3.9505
2939.00,3.9805
2938.00,3.8986
2937.00,3.8373
2936.00,3.8706
2935.00,3.9718
2934.00,4.1968
2933.00,4.6606
2932.00,4.5765
2931.00,4.5697
2930.00,4.4344
2929.00,4.1550
2928.00,3.8992
2927.00,3.7791
2926.00,3.8219
2925.00,3.8648
2924.00,3.8759
2923.00,3.8859
2922.00,3.9057
2921.00,3.9217
2920.00,3.9316
2919.00,3.9719
2918.00,4.1832
2917.00,4.6133
2916.00,4.4032
2915.00,4.2334
2914.00,4.2021
2913.00,4.2423
2912.00,4.0597
2911.00,3.8811
2910.00,3.8199
2909.00,3.8152
2908.00,3.8482
2907.00,3.8958
2906.00,3.9487
2905.00,4.1146
2904.00,4.5126
2903.00,4.5373
2902.00,4.1901
2901.00,3.9227
2900.00,3.7955
2899.00,3.7092
2898.00,3.6619
2897.00,3.6606
2896.00,3.6841
2895.00,3.7646
2894.00,3.9012
2893.00,4.0247
2892.00,4.0626
2891.00,4.0850
2890.00,4.1584
2889.00,4.0997
2888.00,3.8789
2887.00,3.7198
2886.00,3.7094
2885.00,3.8361
2884.00,3.9664
2883.00,3.9256
2882.00,3.7661
2881.00,3.6647
2880.00,3.6775
2879.00,3.8508
2878.00,4.1841
2877.00,4.2673
2876.00,4.1327
2875.00,4.0451
2874.00,4.1592
2873.00,4.3362
2872.00,4.0966
2871.00,3.8164
2870.00,3.6393
2869.00,3.6044
2868.00,3.6425
2867.00,3.7415
2866.00,3.8961
2865.00,3.9225
2864.00,3.7884
2863.00,3.6699
2862.00,3.6391
2861.00,3.6633
2860.00,3.6590
2859.00,3.5975
2858.00,3.5550
2857.00,3.6032
2856.00,3.7606
2855.00,3.9434
2854.00,3.9900
2853.00,3.9547
2852.00,4.0019
2851.00,4.1879
2850.00,4.4148
2849.00,4.3880
2848.00,4.1828
2847.00,4.0741
2846.00,4.1063
2845.00,4.2260
2844.00,4.4067
2843.00,4.4856
2842.00,4.1783
2841.00,3.8577
2840.00,3.6414
2839.00,3.4961
2838.00,3.3422
2837.00,3.1547
2836.00,2.9629
2835.00,2.7855
2834.00,2.6208
2833.00,2.4645
2832.00,2.3194
2831.00,2.1895
2830.00,2.0745
2829.00,1.9712
2828.00,1.8771
2827.00,1.7915
2826.00,1.7142
2825.00,1.6444
2824.00,1.5812
2823.00,1.5236
2822.00,1.4709
2821.00,1.4223
2820.00,1.3775
2819.00,1.3361
2818.00,1.2979
2817.00,1.2625
2816.00,1.2295
2815.00,1.1986
2814.00,1.1697
2813.00,1.1425
2812.00,1.1168
2811.00,1.0925
2810.00,1.0694
2809.00,1.0476
2808.00,1.0268
2807.00,1.0071
2806.00,0.9884
2805.00,0.9705
2804.00,0.9535
2803.00,0.9375
2802.00,0.9224
2801.00,0.9080
2800.00,0.8943
2799.00,0.8812
2798.00,0.8686
2797.00,0.8565
2796.00,0.8447
2795.00,0.8333
2794.00,0.8223
2793.00,0.8117
2792.00,0.8015
2791.00,0.7915
2790.00,0.7818
2789.00,0.7723
2788.00,0.7630
2787.00,0.7540
2786.00,0.7451
2785.00,0.7364
2784.00,0.7279
2783.00,0.7197
2782.00,0.7118
2781.00,0.7042
2780.00,0.6969
2779.00,0.6900
2778.00,0.6835
2777.00,0.6772
2776.00,0.6711
2775.00,0.6654
2774.00,0.6600
2773.00,0.6549
2772.00,0.6502
2771.00,0.6458
2770.00,0.6418
2769.00,0.6382
2768.00,0.6349
2767.00,0.6320
2766.00,0.6294
2765.00,0.6271
2764.00,0.6251
2763.00,0.6234
2762.00,0.6220
2761.00,0.6207
2760.00,0.6196
2759.00,0.6184
2758.00,0.6171
2757.00,0.6159
2756.00,0.6147
2755.00,0.6136
2754.00,0.6128
2753.00,0.6121
2752.00,0.6117
2751.00,0.6116
2750.00,0.6116
2749.00,0.6116
2748.00,0.6117
2747.00,0.6121
2746.00,0.6128
2745.00,0.6138
2744.00,0.6152
2743.00,0.6168
2742.00,0.6186
2741.00,0.6208
2740.00,0.6235
2739.00,0.6268
2738.00,0.6307
2737.00,0.6350
2736.00,0.6398
2735.00,0.6449
2734.00,0.6501
2733.00,0.6553
2732.00,0.6601
2731.00,0.6641
2730.00,0.6671
2729.00,0.6691
2728.00,0.6699
2727.00,0.6698
2726.00,0.6689
2725.00,0.6673
2724.00,0.6653
2723.00,0.6630
2722.00,0.6603
2721.00,0.6573
2720.00,0.6541
2719.00,0.6506
2718.00,0.6468
2717.00,0.6427
2716.00,0.6384
2715.00,0.6338
2714.00,0.6291
2713.00,0.6245
2712.00,0.6201
2711.00,0.6161
2710.00,0.6126
2709.00,0.6096
2708.00,0.6070
2707.00,0.6048
2706.00,0.6029
2705.00,0.6014
2704.00,0.6002
2703.00,0.5993
2702.00,0.5987
2701.00,0.5983
2700.00,0.5982
2699.00,0.5983
2698.00,0.5985
2697.00,0.5988
2696.00,0.5993
2695.00,0.5999
2694.00,0.6006
2693.00,0.6014
2692.00,0.6022
2691.00,0.6029
2690.00,0.6037
2689.00,0.6045
2688.00,0.6052
2687.00,0.6059
2686.00,0.6065
2685.00,0.6069
2684.00,0.6073
2683.00,0.6075
2682.00,0.6077
2681.00,0.6080
2680.00,0.6082
2679.00,0.6084
2678.00,0.6088
2677.00,0.6091
2676.00,0.6095
2675.00,0.6099
2674.00,0.6102
2673.00,0.6106
2672.00,0.6108
2671.00,0.6109
2670.00,0.6106
2669.00,0.6101
2668.00,0.6093
2667.00,0.6083
2666.00,0.6072
2665.00,0.6058
2664.00,0.6043
2663.00,0.6025
2662.00,0.6006
2661.00,0.5986
2660.00,0.5965
2659.00,0.5944
2658.00,0.5923
2657.00,0.5903
2656.00,0.5883
2655.00,0.5864
2654.00,0.5846
2653.00,0.5828
2652.00,0.5811
2651.00,0.5793
2650.00,0.5776
2649.00,0.5760
2648.00,0.5744
2647.00,0.5730
2646.00,0.5718
2645.00,0.5706
2644.00,0.5696
2643.00,0.5684
2642.00,0.5673
2641.00,0.5662
2640.00,0.5652
2639.00,0.5642
2638.00,0.5634
2637.00,0.5626
2636.00,0.5619
2635.00,0.5611
2634.00,0.5604
2633.00,0.5597
2632.00,0.5591
2631.00,0.5585
2630.00,0.5579
2629.00,0.5571
2628.00,0.5561
2627.00,0.5552
2626.00,0.5542
2625.00,0.5534
2624.00,0.5525
2623.00,0.5517
2622.00,0.5507
2621.00,0.5498
2620.00,0.5488
2619.00,0.5478
2618.00,0.5468
2617.00,0.5458
2616.00,0.5448
2615.00,0.5439
2614.00,0.5429
2613.00,0.5418
2612.00,0.5407
2611.00,0.5397
2610.00,0.5386
2609.00,0.5377
2608.00,0.5368
2607.00,0.5358
2606.00,0.5349
2605.00,0.5339
2604.00,0.5330
2603.00,0.5320
2602.00,0.5310
2601.00,0.5300
2600.00,0.5290
2599.00,0.5279
2598.00,0.5267
2597.00,0.5255
2596.00,0.5242
2595.00,0.5228
2594.00,0.5214
2593.00,0.5199
2592.00,0.5185
2591.00,0.5170
2590.00,0.5155
2589.00,0.5139
2588.00,0.5123
2587.00,0.5105
2586.00,0.5087
2585.00,0.5069
2584.00,0.5051
2583.00,0.5032
2582.00,0.5014
2581.00,0.4997
2580.00,0.4979
2579.00,0.4961
2578.00,0.4943
2577.00,0.4925
2576.00,0.4907
2575.00,0.4889
2574.00,0.4872
2573.00,0.4856
2572.00,0.4841
2571.00,0.4826
2570.00,0.4812
2569.00,0.4798
2568.00,0.4785
2567.00,0.4772
2566.00,0.4760
2565.00,0.4747
2564.00,0.4735
2563.00,0.4722
2562.00,0.4709
2561.00,0.4697
2560.00,0.4684
2559.00,0.4672
2558.00,0.4661
2557.00,0.4649
2556.00,0.4638
2555.00,0.4627
2554.00,0.4616
2553.00,0.4604
2552.00,0.4592
2551.00,0.4580
2550.00,0.4569
2549.00,0.4558
2548.00,0.4548
2547.00,0.4538
2546.00,0.4528
2545.00,0.4518
2544.00,0.4508
2543.00,0.4498
2542.00,0.4489
2541.00,0.4480
2540.00,0.4472
2539.00,0.4464
2538.00,0.4457
2537.00,0.4450
2536.00,0.4445
2535.00,0.4439
2534.00,0.4433
2533.00,0.4427
2532.00,0.4421
2531.00,0.4414
2530.00,0.4407
2529.00,0.4400
2528.00,0.4392
2527.00,0.4384
2526.00,0.4376
2525.00,0.4368
2524.00,0.4359
2523.00,0.4351
2522.00,0.4342
2521.00,0.4332
2520.00,0.4323
2519.00,0.4313
2518.00,0.4304
2517.00,0.4295
2516.00,0.4287
2515.00,0.4278
2514.00,0.4270
2513.00,0.4261
2512.00,0.4252
2511.00,0.4244
2510.00,0.4236
2509.00,0.4228
2508.00,0.4221
2507.00,0.4214
2506.00,0.4207
2505.00,0.4201
2504.00,0.4195
2503.00,0.4189
2502.00,0.4184
2501.00,0.4179
2500.00,0.4174
2499.00,0.4169
2498.00,0.4166
2497.00,0.4163
2496.00,0.4161
2495.00,0.4158
2494.00,0.4155
2493.00,0.4151
2492.00,0.4148
2491.00,0.4144
2490.00,0.4141
2489.00,0.4138
2488.00,0.4135
2487.00,0.4132
2486.00,0.4129
2485.00,0.4126
2484.00,0.4122
2483.00,0.4119
2482.00,0.4115
2481.00,0.4112
2480.00,0.4108
2479.00,0.4103
2478.00,0.4097
2477.00,0.4092
2476.00,0.4087
2475.00,0.4083
2474.00,0.4079
2473.00,0.4076
2472.00,0.4072
2471.00,0.4068
2470.00,0.4064
2469.00,0.4060
2468.00,0.4057
2467.00,0.4054
2466.00,0.4052
2465.00,0.4050
2464.00,0.4048
2463.00,0.4045
2462.00,0.4042
2461.00,0.4040
2460.00,0.4038
2459.00,0.4037
2458.00,0.4035
2457.00,0.4034
2456.00,0.4033
2455.00,0.4032
2454.00,0.4031
2453.00,0.4031
2452.00,0.4030
2451.00,0.4030
2450.00,0.4029
2449.00,0.4029
2448.00,0.4029
2447.00,0.4029
2446.00,0.4028
2445.00,0.4027
2444.00,0.4027
2443.00,0.4026
2442.00,0.4025
2441.00,0.4024
2440.00,0.4023
2439.00,0.4022
2438.00,0.4021
2437.00,0.4020
2436.00,0.4020
2435.00,0.4020
2434.00,0.4020
2433.00,0.4020
2432.00,0.4020
2431.00,0.4020
2430.00,0.4021
2429.00,0.4021
2428.00,0.4021
2427.00,0.4021
2426.00,0.4021
2425.00,0.4022
2424.00,0.4023
2423.00,0.4025
2422.00,0.4027
2421.00,0.4028
2420.00,0.4029
2419.00,0.4029
2418.00,0.4030
2417.00,0.4031
2416.00,0.4032
2415.00,0.4033
2414.00,0.4034
2413.00,0.4035
2412.00,0.4035
2411.00,0.4035
2410.00,0.4035
2409.00,0.4034
2408.00,0.4033
2407.00,0.4032
2406.00,0.4031
2405.00,0.4030
2404.00,0.4028
2403.00,0.4026
2402.00,0.4024
2401.00,0.4022
2400.00,0.4020
2399.00,0.4018
2398.00,0.4016
2397.00,0.4015
2396.00,0.4013
2395.00,0.4012
2394.00,0.4010
2393.00,0.4008
2392.00,0.4006
2391.00,0.4004
2390.00,0.4002
2389.00,0.4002
2388.00,0.4001
2387.00,0.4000
2386.00,0.4000
2385.00,0.3999
2384.00,0.3998
2383.00,0.3998
2382.00,0.3997
2381.00,0.3997
2380.00,0.3996
2379.00,0.3996
2378.00,0.3995
2377.00,0.3994
2376.00,0.3993
2375.00,0.3992
2374.00,0.3990
2373.00,0.3989
2372.00,0.3988
2371.00,0.3987
2370.00,0.3985
2369.00,0.3984
2368.00,0.3982
2367.00,0.3982
2366.00,0.3982
2365.00,0.3982
2364.00,0.3982
2363.00,0.3982
2362.00,0.3980
2361.00,0.3979
2360.00,0.3977
2359.00,0.3977
2358.00,0.3976
2357.00,0.3976
2356.00,0.3975
2355.00,0.3974
2354.00,0.3973
2353.00,0.3972
2352.00,0.3971
2351.00,0.3970
2350.00,0.3969
2349.00,0.3968
2348.00,0.3968
2347.00,0.3966
2346.00,0.3964
2345.00,0.3961
2344.00,0.3960
2343.00,0.3960
2342.00,0.3961
2341.00,0.3961
2340.00,0.3961
2339.00,0.3960
2338.00,0.3960
2337.00,0.3959
2336.00,0.3959
2335.00,0.3957
2334.00,0.3954
2333.00,0.3951
2332.00,0.3948
2331.00,0.3944
2330.00,0.3941
2329.00,0.3939
2328.00,0.3937
2327.00,0.3936
2326.00,0.3934
2325.00,0.3932
2324.00,0.3931
2323.00,0.3928
2322.00,0.3926
2321.00,0.3922
2320.00,0.3919
2319.00,0.3916
2318.00,0.3914
2317.00,0.3912
2316.00,0.3911
2315.00,0.3909
2314.00,0.3907
2313.00,0.3904
2312.00,0.3901
2311.00,0.3898
2310.00,0.3894
2309.00,0.3891
2308.00,0.3888
2307.00,0.3885
2306.00,0.3883
2305.00,0.3880
2304.00,0.3878
2303.00,0.3876
2302.00,0.3874
2301.00,0.3871
2300.00,0.3868
2299.00,0.3865
2298.00,0.3862
2297.00,0.3859
2296.00,0.3857
2295.00,0.3853
2294.00,0.3850
2293.00,0.3847
2292.00,0.3845
2291.00,0.3843
2290.00,0.3840
2289.00,0.3838
2288.00,0.3835
2287.00,0.3832
2286.00,0.3829
2285.00,0.3827
2284.00,0.3824
2283.00,0.3821
2282.00,0.3818
2281.00,0.3815
2280.00,0.3812
2279.00,0.3808
2278.00,0.3805
2277.00,0.3802
2276.00,0.3800
2275.00,0.3797
2274.00,0.3794
2273.00,0.3791
2272.00,0.3789
2271.00,0.3786
2270.00,0.3784
2269.00,0.3783
2268.00,0.3781
2267.00,0.3779
2266.00,0.3777
2265.00,0.3775
2264.00,0.3772
2263.00,0.3770
2262.00,0.3767
2261.00,0.3765
2260.00,0.3763
2259.00,0.3761
2258.00,0.3759
2257.00,0.3756
2256.00,0.3753
2255.00,0.3750
2254.00,0.3748
2253.00,0.3746
2252.00,0.3744
2251.00,0.3742
2250.00,0.3740
2249.00,0.3737
2248.00,0.3735
2247.00,0.3733
2246.00,0.3730
2245.00,0.3728
2244.00,0.3726
2243.00,0.3724
2242.00,0.3722
2241.00,0.3720
2240.00,0.3718
2239.00,0.3716
2238.00,0.3714
2237.00,0.3712
2236.00,0.3711
2235.00,0.3709
2234.00,0.3707
2233.00,0.3706
2232.00,0.3705
2231.00,0.3703
2230.00,0.3701
2229.00,0.3700
2228.00,0.3699
2227.00,0.3698
2226.00,0.3697
2225.00,0.3695
2224.00,0.3694
2223.00,0.3692
2222.00,0.3691
2221.00,0.3691
2220.00,0.3691
2219.00,0.3690
2218.00,0.3689
2217.00,0.3689
2216.00,0.3689
2215.00,0.3689
2214.00,0.3689
2213.00,0.3688
2212.00,0.3688
2211.00,0.3688
2210.00,0.3687
2209.00,0.3687
2208.00,0.3686
2207.00,0.3686
2206.00,0.3685
2205.00,0.3684
2204.00,0.3683
2203.00,0.3683
2202.00,0.3682
2201.00,0.3681
2200.00,0.3680
2199.00,0.3679
2198.00,0.3678
2197.00,0.3678
2196.00,0.3678
2195.00,0.3678
2194.00,0.3677
2193.00,0.3677
2192.00,0.3677
2191.00,0.3677
2190.00,0.3677
2189.00,0.3677
2188.00,0.3676
2187.00,0.3676
2186.00,0.3676
2185.00,0.3675
2184.00,0.3675
2183.00,0.3675
2182.00,0.3674
2181.00,0.3673
2180.00,0.3673
2179.00,0.3672
2178.00,0.3671
2177.00,0.3671
2176.00,0.3670
2175.00,0.3669
2174.00,0.3668
2173.00,0.3667
2172.00,0.3666
2171.00,0.3664
2170.00,0.3662
2169.00,0.3661
2168.00,0.3659
2167.00,0.3657
2166.00,0.3655
2165.00,0.3653
2164.00,0.3651
2163.00,0.3650
2162.00,0.3649
2161.00,0.3649
2160.00,0.3648
2159.00,0.3646
2158.00,0.3644
2157.00,0.3641
2156.00,0.3639
2155.00,0.3637
2154.00,0.3635
2153.00,0.3633
2152.00,0.3631
2151.00,0.3629
2150.00,0.3627
2149.00,0.3626
2148.00,0.3624
2147.00,0.3621
2146.00,0.3617
2145.00,0.3613
2144.00,0.3609
2143.00,0.3605
2142.00,0.3601
2141.00,0.3597
2140.00,0.3594
2139.00,0.3591
2138.00,0.3589
2137.00,0.3586
2136.00,0.3584
2135.00,0.3581
2134.00,0.3578
2133.00,0.3575
2132.00,0.3573
2131.00,0.3571
2130.00,0.3570
2129.00,0.3568
2128.00,0.3567
2127.00,0.3565
2126.00,0.3564
2125.00,0.3562
2124.00,0.3561
2123.00,0.3560
2122.00,0.3558
2121.00,0.3557
2120.00,0.3555
2119.00,0.3553
2118.00,0.3551
2117.00,0.3549
2116.00,0.3549
2115.00,0.3547
2114.00,0.3546
2113.00,0.3545
2112.00,0.3544
2111.00,0.3542
2110.00,0.3541
2109.00,0.3540
2108.00,0.3540
2107.00,0.3540
2106.00,0.3539
2105.00,0.3539
2104.00,0.3538
2103.00,0.3537
2102.00,0.3536
2101.00,0.3536
2100.00,0.3536
2099.00,0.3536
2098.00,0.3535
2097.00,0.3535
2096.00,0.3535
2095.00,0.3534
2094.00,0.3533
2093.00,0.3533
2092.00,0.3534
2091.00,0.3534
2090.00,0.3533
2089.00,0.3532
2088.00,0.3531
2087.00,0.3530
2086.00,0.3530
2085.00,0.3529
2084.00,0.3529
2083.00,0.3528
2082.00,0.3527
2081.00,0.3526
2080.00,0.3526
2079.00,0.3526
2078.00,0.3525
2077.00,0.3524
2076.00,0.3524
2075.00,0.3524
2074.00,0.3524
2073.00,0.3524
2072.00,0.3525
2071.00,0.3526
2070.00,0.3526
2069.00,0.3526
2068.00,0.3528
2067.00,0.3530
2066.00,0.3532
2065.00,0.3533
2064.00,0.3534
2063.00,0.3534
2062.00,0.3534
2061.00,0.3534
2060.00,0.3535
2059.00,0.3535
2058.00,0.3536
2057.00,0.3536
2056.00,0.3537
2055.00,0.3538
2054.00,0.3539
2053.00,0.3541
2052.00,0.3543
2051.00,0.3544
2050.00,0.3545
2049.00,0.3546
2048.00,0.3548
2047.00,0.3550
2046.00,0.3552
2045.00,0.3553
2044.00,0.3555
2043.00,0.3557
2042.00,0.3558
2041.00,0.3558
2040.00,0.3558
2039.00,0.3558
2038.00,0.3558
2037.00,0.3558
2036.00,0.3559
2035.00,0.3559
2034.00,0.3558
2033.00,0.3558
2032.00,0.3558
2031.00,0.3558
2030.00,0.3558
2029.00,0.3558
2028.00,0.3558
2027.00,0.3557
2026.00,0.3556
2025.00,0.3556
2024.00,0.3554
2023.00,0.3553
2022.00,0.3550
2021.00,0.3547
2020.00,0.3545
2019.00,0.3542
2018.00,0.3538
2017.00,0.3533
2016.00,0.3527
2015.00,0.3519
2014.00,0.3512
2013.00,0.3506
2012.00,0.3500
2011.00,0.3495
2010.00,0.3491
2009.00,0.3487
2008.00,0.3483
2007.00,0.3480
2006.00,0.3476
2005.00,0.3474
2004.00,0.3471
2003.00,0.3468
2002.00,0.3466
2001.00,0.3464
2000.00,0.3462
1999.00,0.3459
1998.00,0.3458
1997.00,0.3456
1996.00,0.3456
1995.00,0.3456
1994.00,0.3456
1993.00,0.3457
1992.00,0.3457
1991.00,0.3455
1990.00,0.3453
1989.00,0.3451
1988.00,0.3451
1987.00,0.3450
1986.00,0.3448
1985.00,0.3447
1984.00,0.3446
1983.00,0.3446
1982.00,0.3445
1981.00,0.3445
1980.00,0.3445
1979.00,0.3444
1978.00,0.3444
1977.00,0.3444
1976.00,0.3443
1975.00,0.3443
1974.00,0.3443
1973.00,0.3443
1972.00,0.3443
1971.00,0.3443
1970.00,0.3444
1969.00,0.3446
1968.00,0.3450
1967.00,0.3451
1966.00,0.3450
1965.00,0.3448
1964.00,0.3445
1963.00,0.3443
1962.00,0.3443
1961.00,0.3443
1960.00,0.3443
1959.00,0.3443
1958.00,0.3444
1957.00,0.3445
1956.00,0.3447
1955.00,0.3448
1954.00,0.3448
1953.00,0.3449
1952.00,0.3449
1951.00,0.3449
1950.00,0.3450
1949.00,0.3451
1948.00,0.3454
1947.00,0.3457
1946.00,0.3460
1945.00,0.3465
1944.00,0.3471
1943.00,0.3478
1942.00,0.3483
1941.00,0.3486
1940.00,0.3488
1939.00,0.3491
1938.00,0.3493
1937.00,0.3494
1936.00,0.3493
1935.00,0.3492
1934.00,0.3491
1933.00,0.3490
1932.00,0.3489
1931.00,0.3489
1930.00,0.3489
1929.00,0.3489
1928.00,0.3490
1927.00,0.3490
1926.00,0.3491
1925.00,0.3495
1924.00,0.3500
1923.00,0.3505
1922.00,0.3507
1921.00,0.3506
1920.00,0.3505
1919.00,0.3506
1918.00,0.3508
1917.00,0.3511
1916.00,0.3514
1915.00,0.3516
1914.00,0.3517
1913.00,0.3518
1912.00,0.3520
1911.00,0.3523
1910.00,0.3526
1909.00,0.3528
1908.00,0.3529
1907.00,0.3527
1906.00,0.3526
1905.00,0.3525
1904.00,0.3525
1903.00,0.3526
1902.00,0.3526
1901.00,0.3527
1900.00,0.3528
1899.00,0.3530
1898.00,0.3531
1897.00,0.3534
1896.00,0.3537
1895.00,0.3540
1894.00,0.3541
1893.00,0.3541
1892.00,0.3541
1891.00,0.3541
1890.00,0.3542
1889.00,0.3542
1888.00,0.3541
1887.00,0.3540
1886.00,0.3540
1885.00,0.3539
1884.00,0.3539
1883.00,0.3537
1882.00,0.3536
1881.00,0.3535
1880.00,0.3535
1879.00,0.3533
1878.00,0.3531
1877.00,0.3529
1876.00,0.3528
1875.00,0.3526
1874.00,0.3524
1873.00,0.3523
1872.00,0.3522
1871.00,0.3521
1870.00,0.3522
1869.00,0.3525
1868.00,0.3528
1867.00,0.3527
1866.00,0.3523
1865.00,0.3518
1864.00,0.3515
1863.00,0.3512
1862.00,0.3510
1861.00,0.3509
1860.00,0.3507
1859.00,0.3505
1858.00,0.3502
1857.00,0.3499
1856.00,0.3496
1855.00,0.3493
1854.00,0.3489
1853.00,0.3486
1852.00,0.3485
1851.00,0.3483
1850.00,0.3483
1849.00,0.3485
1848.00,0.3486
1847.00,0.3484
1846.00,0.3479
1845.00,0.3475
1844.00,0.3473
1843.00,0.3473
1842.00,0.3472
1841.00,0.3472
1840.00,0.3471
1839.00,0.3471
1838.00,0.3471
1837.00,0.3472
1836.00,0.3472
1835.00,0.3472
1834.00,0.3471
1833.00,0.3470
1832.00,0.3469
1831.00,0.3470
1830.00,0.3473
1829.00,0.3475
1828.00,0.3475
1827.00,0.3474
1826.00,0.3473
1825.00,0.3474
1824.00,0.3474
1823.00,0.3475
1822.00,0.3474
1821.00,0.3473
1820.00,0.3473
1819.00,0.3473
1818.00,0.3473
1817.00,0.3474
1816.00,0.3474
1815.00,0.3474
1814.00,0.3475
1813.00,0.3478
1812.00,0.3482
1811.00,0.3485
1810.00,0.3486
1809.00,0.3488
1808.00,0.3490
1807.00,0.3492
1806.00,0.3493
1805.00,0.3496
1804.00,0.3501
1803.00,0.3507
1802.00,0.3514
1801.00,0.3519
1800.00,0.3524
1799.00,0.3530
1798.00,0.3538
1797.00,0.3547
1796.00,0.3555
1795.00,0.3558
1794.00,0.3560
1793.00,0.3564
1792.00,0.3571
1791.00,0.3578
1790.00,0.3583
1789.00,0.3586
1788.00,0.3591
1787.00,0.3595
1786.00,0.3599
1785.00,0.3605
1784.00,0.3612
1783.00,0.3618
1782.00,0.3625
1781.00,0.3632
1780.00,0.3639
1779.00,0.3643
1778.00,0.3647
1777.00,0.3652
1776.00,0.3658
1775.00,0.3666
1774.00,0.3673
1773.00,0.3681
1772.00,0.3688
1771.00,0.3692
1770.00,0.3697
1769.00,0.3705
1768.00,0.3716
1767.00,0.3726
1766.00,0.3735
1765.00,0.3744
1764.00,0.3755
1763.00,0.3769
1762.00,0.3786
1761.00,0.3806
1760.00,0.3828
1759.00,0.3851
1758.00,0.3876
1757.00,0.3905
1756.00,0.3938
1755.00,0.3972
1754.00,0.4008
1753.00,0.4049
1752.00,0.4096
1751.00,0.4147
1750.00,0.4196
1749.00,0.4242
1748.00,0.4281
1747.00,0.4315
1746.00,0.4345
1745.00,0.4374
1744.00,0.4400
1743.00,0.4419
1742.00,0.4429
1741.00,0.4436
1740.00,0.4445
1739.00,0.4454
1738.00,0.4462
1737.00,0.4466
1736.00,0.4469
1735.00,0.4471
1734.00,0.4476
1733.00,0.4481
1732.00,0.4480
1731.00,0.4473
1730.00,0.4464
1729.00,0.4460
1728.00,0.4461
1727.00,0.4468
1726.00,0.4482
1725.00,0.4506
1724.00,0.4536
1723.00,0.4571
1722.00,0.4605
1721.00,0.4641
1720.00,0.4684
1719.00,0.4745
1718.00,0.4828
1717.00,0.4916
1716.00,0.4992
1715.00,0.5059
1714.00,0.5129
1713.00,0.5206
1712.00,0.5286
1711.00,0.5362
1710.00,0.5429
1709.00,0.5477
1708.00,0.5498
1707.00,0.5492
1706.00,0.5462
1705.00,0.5409
1704.00,0.5343
1703.00,0.5269
1702.00,0.5179
1701.00,0.5063
1700.00,0.4949
1699.00,0.4875
1698.00,0.4834
1697.00,0.4793
1696.00,0.4731
1695.00,0.4658
1694.00,0.4599
1693.00,0.4560
1692.00,0.4533
1691.00,0.4513
1690.00,0.4498
1689.00,0.4485
1688.00,0.4477
1687.00,0.4473
1686.00,0.4466
1685.00,0.4453
1684.00,0.4430
1683.00,0.4400
1682.00,0.4378
1681.00,0.4367
1680.00,0.4355
1679.00,0.4337
1678.00,0.4315
1677.00,0.4291
1676.00,0.4270
1675.00,0.4257
1674.00,0.4253
1673.00,0.4255
1672.00,0.4255
1671.00,0.4251
1670.00,0.4247
1669.00,0.4244
1668.00,0.4244
1667.00,0.4245
1666.00,0.4246
1665.00,0.4244
1664.00,0.4243
1663.00,0.4244
1662.00,0.4249
1661.00,0.4257
1660.00,0.4265
1659.00,0.4273
1658.00,0.4279
1657.00,0.4286
1656.00,0.4295
1655.00,0.4308
1654.00,0.4328
1653.00,0.4354
1652.00,0.4375
1651.00,0.4387
1650.00,0.4390
1649.00,0.4395
1648.00,0.4417
1647.00,0.4445
1646.00,0.4467
1645.00,0.4486
1644.00,0.4508
1643.00,0.4528
1642.00,0.4549
1641.00,0.4574
1640.00,0.4600
1639.00,0.4626
1638.00,0.4652
1637.00,0.4683
1636.00,0.4715
1635.00,0.4740
1634.00,0.4767
1633.00,0.4799
1632.00,0.4831
1631.00,0.4859
1630.00,0.4885
1629.00,0.4917
1628.00,0.4954
1627.00,0.4992
1626.00,0.5032
1625.00,0.5077
1624.00,0.5134
1623.00,0.5200
1622.00,0.5270
1621.00,0.5342
1620.00,0.5415
1619.00,0.5494
1618.00,0.5588
1617.00,0.5700
1616.00,0.5814
1615.00,0.5909
1614.00,0.5987
1613.00,0.6065
1612.00,0.6151
1611.00,0.6240
1610.00,0.6329
1609.00,0.6419
1608.00,0.6506
1607.00,0.6582
1606.00,0.6644
1605.00,0.6701
1604.00,0.6758
1603.00,0.6812
1602.00,0.6861
1601.00,0.6915
1600.00,0.6978
1599.00,0.7050
1598.00,0.7137
1597.00,0.7251
1596.00,0.7402
1595.00,0.7591
1594.00,0.7824
1593.00,0.8122
1592.00,0.8506
1591.00,0.8990
1590.00,0.9597
1589.00,1.0375
1588.00,1.1378
1587.00,1.2644
1586.00,1.4198
1585.00,1.6094
1584.00,1.8403
1583.00,2.0983
1582.00,2.3077
1581.00,2.3794
1580.00,2.3167
1579.00,2.1450
1578.00,1.9073
1577.00,1.6679
1576.00,1.4663
1575.00,1.3162
1574.00,1.2118
1573.00,1.1388
1572.00,1.0841
1571.00,1.0405
1570.00,1.0080
1569.00,0.9912
1568.00,0.9921
1567.00,1.0093
1566.00,1.0434
1565.00,1.0973
1564.00,1.1694
1563.00,1.2491
1562.00,1.3227
1561.00,1.3786
1560.00,1.3892
1559.00,1.3150
1558.00,1.1962
1557.00,1.0957
1556.00,1.0156
1555.00,0.9409
1554.00,0.8720
1553.00,0.8159
1552.00,0.7737
1551.00,0.7403
1550.00,0.7116
1549.00,0.6877
1548.00,0.6692
1547.00,0.6549
1546.00,0.6428
1545.00,0.6327
1544.00,0.6244
1543.00,0.6172
1542.00,0.6108
1541.00,0.6055
1540.00,0.6002
1539.00,0.5935
1538.00,0.5872
1537.00,0.5822
1536.00,0.5778
1535.00,0.5736
1534.00,0.5696
1533.00,0.5668
1532.00,0.5655
1531.00,0.5654
1530.00,0.5657
1529.00,0.5663
1528.00,0.5671
1527.00,0.5673
1526.00,0.5662
1525.00,0.5647
1524.00,0.5636
1523.00,0.5633
1522.00,0.5637
1521.00,0.5644
1520.00,0.5652
1519.00,0.5665
1518.00,0.5690
1517.00,0.5729
1516.00,0.5769
1515.00,0.5796
1514.00,0.5815
1513.00,0.5834
1512.00,0.5858
1511.00,0.5888
1510.00,0.5928
1509.00,0.5987
1508.00,0.6073
1507.00,0.6172
1506.00,0.6258
1505.00,0.6344
1504.00,0.6432
1503.00,0.6508
1502.00,0.6579
1501.00,0.6648
1500.00,0.6716
1499.00,0.6783
1498.00,0.6859
1497.00,0.6956
1496.00,0.7066
1495.00,0.7171
1494.00,0.7270
1493.00,0.7377
1492.00,0.7503
1491.00,0.7653
1490.00,0.7826
1489.00,0.8014
1488.00,0.8207
1487.00,0.8406
1486.00,0.8630
1485.00,0.8895
1484.00,0.9206
1483.00,0.9567
1482.00,0.9999
1481.00,1.0508
1480.00,1.1078
1479.00,1.1699
1478.00,1.2410
1477.00,1.3268
1476.00,1.4279
1475.00,1.5432
1474.00,1.6810
1473.00,1.8607
1472.00,2.0918
1471.00,2.3573
1470.00,2.6393
1469.00,2.9492
1468.00,3.2700
1467.00,3.4802
1466.00,3.6209
1465.00,3.8690
1464.00,3.8873
1463.00,3.6682
1462.00,3.6170
1461.00,3.7665
1460.00,3.8623
1459.00,3.6333
1458.00,3.5079
1457.00,3.5657
1456.00,3.6169
1455.00,3.5901
1454.00,3.6091
1453.00,3.6726
1452.00,3.6068
1451.00,3.4375
1450.00,3.3443
1449.00,3.3294
1448.00,3.2510
1447.00,3.0945
1446.00,2.9634
1445.00,2.8542
1444.00,2.7200
1443.00,2.5709
1442.00,2.4392
1441.00,2.3249
1440.00,2.2127
1439.00,2.0976
1438.00,1.9806
1437.00,1.8606
1436.00,1.7437
1435.00,1.6401
1434.00,1.5495
1433.00,1.4640
1432.00,1.3793
1431.00,1.2980
1430.00,1.2250
1429.00,1.1628
1428.00,1.1121
1427.00,1.0724
1426.00,1.0409
1425.00,1.0147
1424.00,0.9929
1423.00,0.9762
1422.00,0.9638
1421.00,0.9539
1420.00,0.9451
1419.00,0.9373
1418.00,0.9305
1417.00,0.9242
1416.00,0.9188
1415.00,0.9147
1414.00,0.9119
1413.00,0.9099
1412.00,0.9088
1411.00,0.9081
1410.00,0.9066
1409.00,0.9033
1408.00,0.8975
1407.00,0.8891
1406.00,0.8777
1405.00,0.8635
1404.00,0.8482
1403.00,0.8337
1402.00,0.8207
1401.00,0.8089
1400.00,0.7985
1399.00,0.7907
1398.00,0.7856
1397.00,0.7827
1396.00,0.7822
1395.00,0.7850
1394.00,0.7918
1393.00,0.8034
1392.00,0.8213
1391.00,0.8476
1390.00,0.8846
1389.00,0.9358
1388.00,1.0052
1387.00,1.0933
1386.00,1.1940
1385.00,1.2994
1384.00,1.4078
1383.00,1.5232
1382.00,1.6498
1381.00,1.7908
1380.00,1.9488
1379.00,2.1133
1378.00,2.2444
1377.00,2.2893
1376.00,2.2338
1375.00,2.1044
1374.00,1.9428
1373.00,1.7875
1372.00,1.6579
1371.00,1.5568
1370.00,1.4822
1369.00,1.4322
1368.00,1.4020
1367.00,1.3804
1366.00,1.3527
1365.00,1.3077
1364.00,1.2450
1363.00,1.1739
1362.00,1.1066
1361.00,1.0511
1360.00,1.0088
1359.00,0.9777
1358.00,0.9552
1357.00,0.9395
1356.00,0.9289
1355.00,0.9223
1354.00,0.9184
1353.00,0.9160
1352.00,0.9141
1351.00,0.9121
1350.00,0.9097
1349.00,0.9066
1348.00,0.9031
1347.00,0.8998
1346.00,0.8968
1345.00,0.8944
1344.00,0.8924
1343.00,0.8905
1342.00,0.8882
1341.00,0.8845
1340.00,0.8783
1339.00,0.8691
1338.00,0.8570
1337.00,0.8429
1336.00,0.8276
1335.00,0.8122
1334.00,0.7974
1333.00,0.7839
1332.00,0.7721
1331.00,0.7622
1330.00,0.7543
1329.00,0.7483
1328.00,0.7439
1327.00,0.7411
1326.00,0.7396
1325.00,0.7390
1324.00,0.7391
1323.00,0.7398
1322.00,0.7408
1321.00,0.7417
1320.00,0.7423
1319.00,0.7429
1318.00,0.7438
1317.00,0.7451
1316.00,0.7470
1315.00,0.7496
1314.00,0.7529
1313.00,0.7565
1312.00,0.7603
1311.00,0.7638
1310.00,0.7672
1309.00,0.7701
1308.00,0.7727
1307.00,0.7748
1306.00,0.7759
1305.00,0.7756
1304.00,0.7739
1303.00,0.7709
1302.00,0.7668
1301.00,0.7621
1300.00,0.7570
1299.00,0.7517
1298.00,0.7461
1297.00,0.7403
1296.00,0.7346
1295.00,0.7294
1294.00,0.7248
1293.00,0.7207
1292.00,0.7169
1291.00,0.7133
1290.00,0.7099
1289.00,0.7066
1288.00,0.7033
1287.00,0.7000
1286.00,0.6965
1285.00,0.6926
1284.00,0.6885
1283.00,0.6847
1282.00,0.6813
1281.00,0.6784
1280.00,0.6760
1279.00,0.6739
1278.00,0.6718
1277.00,0.6695
1276.00,0.6672
1275.00,0.6651
1274.00,0.6633
1273.00,0.6617
1272.00,0.6606
1271.00,0.6599
1270.00,0.6597
1269.00,0.6593
1268.00,0.6582
1267.00,0.6560
1266.00,0.6525
1265.00,0.6480
1264.00,0.6436
1263.00,0.6400
1262.00,0.6374
1261.00,0.6355
1260.00,0.6339
1259.00,0.6323
1258.00,0.6307
1257.00,0.6289
1256.00,0.6270
1255.00,0.6250
1254.00,0.6232
1253.00,0.6218
1252.00,0.6208
1251.00,0.6201
1250.00,0.6193
1249.00,0.6180
1248.00,0.6161
1247.00,0.6138
1246.00,0.6114
1245.00,0.6087
1244.00,0.6058
1243.00,0.6027
1242.00,0.5995
1241.00,0.5961
1240.00,0.5928
1239.00,0.5898
1238.00,0.5874
1237.00,0.5856
1236.00,0.5841
1235.00,0.5832
1234.00,0.5829
1233.00,0.5830
1232.00,0.5833
1231.00,0.5840
1230.00,0.5847
1229.00,0.5849
1228.00,0.5840
1227.00,0.5822
1226.00,0.5796
1225.00,0.5766
1224.00,0.5733
1223.00,0.5703
1222.00,0.5678
1221.00,0.5659
1220.00,0.5648
1219.00,0.5645
1218.00,0.5648
1217.00,0.5655
1216.00,0.5666
1215.00,0.5680
1214.00,0.5694
1213.00,0.5702
1212.00,0.5703
1211.00,0.5697
1210.00,0.5687
1209.00,0.5676
1208.00,0.5664
1207.00,0.5651
1206.00,0.5640
1205.00,0.5629
1204.00,0.5617
1203.00,0.5607
1202.00,0.5597
1201.00,0.5590
1200.00,0.5586
1199.00,0.5586
1198.00,0.5586
1197.00,0.5584
1196.00,0.5578
1195.00,0.5571
1194.00,0.5564
1193.00,0.5556
1192.00,0.5549
1191.00,0.5543
1190.00,0.5537
1189.00,0.5531
1188.00,0.5526
1187.00,0.5522
1186.00,0.5521
1185.00,0.5521
1184.00,0.5520
1183.00,0.5521
1182.00,0.5523
1181.00,0.5528
1180.00,0.5535
1179.00,0.5545
1178.00,0.5560
1177.00,0.5579
1176.00,0.5603
1175.00,0.5636
1174.00,0.5677
1173.00,0.5725
1172.00,0.5776
1171.00,0.5823
1170.00,0.5858
1169.00,0.5875
1168.00,0.5877
1167.00,0.5868
1166.00,0.5857
1165.00,0.5846
1164.00,0.5838
1163.00,0.5838
1162.00,0.5844
1161.00,0.5858
1160.00,0.5878
1159.00,0.5900
1158.00,0.5921
1157.00,0.5935
1156.00,0.5942
1155.00,0.5941
1154.00,0.5934
1153.00,0.5920
1152.00,0.5898
1151.00,0.5873
1150.00,0.5846
1149.00,0.5816
1148.00,0.5786
1147.00,0.5759
1146.00,0.5737
1145.00,0.5721
1144.00,0.5710
1143.00,0.5710
1142.00,0.5721
1141.00,0.5743
1140.00,0.5778
1139.00,0.5824
1138.00,0.5883
1137.00,0.5953
1136.00,0.6033
1135.00,0.6117
1134.00,0.6190
1133.00,0.6232
1132.00,0.6227
1131.00,0.6175
1130.00,0.6090
1129.00,0.5996
1128.00,0.5912
1127.00,0.5850
1126.00,0.5809
1125.00,0.5784
1124.00,0.5766
1123.00,0.5750
1122.00,0.5736
1121.00,0.5724
1120.00,0.5717
1119.00,0.5719
1118.00,0.5734
1117.00,0.5763
1116.00,0.5801
1115.00,0.5839
1114.00,0.5860
1113.00,0.5850
1112.00,0.5806
1111.00,0.5740
1110.00,0.5668
1109.00,0.5604
1108.00,0.5554
1107.00,0.5519
1106.00,0.5497
1105.00,0.5480
1104.00,0.5466
1103.00,0.5450
1102.00,0.5433
1101.00,0.5411
1100.00,0.5385
1099.00,0.5358
1098.00,0.5332
1097.00,0.5310
1096.00,0.5292
1095.00,0.5280
1094.00,0.5273
1093.00,0.5272
1092.00,0.5275
1091.00,0.5283
1090.00,0.5296
1089.00,0.5316
1088.00,0.5343
1087.00,0.5378
1086.00,0.5421
1085.00,0.5473
1084.00,0.5534
1083.00,0.5605
1082.00,0.5684
1081.00,0.5766
1080.00,0.5844
1079.00,0.5914
1078.00,0.5967
1077.00,0.5996
1076.00,0.5994
1075.00,0.5963
1074.00,0.5909
1073.00,0.5843
1072.00,0.5777
1071.00,0.5718
1070.00,0.5673
1069.00,0.5639
1068.00,0.5614
1067.00,0.5596
1066.00,0.5584
1065.00,0.5576
1064.00,0.5571
1063.00,0.5569
1062.00,0.5571
1061.00,0.5574
1060.00,0.5578
1059.00,0.5581
1058.00,0.5581
1057.00,0.5577
1056.00,0.5570
1055.00,0.5564
1054.00,0.5559
1053.00,0.5555
1052.00,0.5554
1051.00,0.5559
1050.00,0.5570
1049.00,0.5587
1048.00,0.5608
1047.00,0.5628
1046.00,0.5643
1045.00,0.5652
1044.00,0.5653
1043.00,0.5652
1042.00,0.5651
1041.00,0.5650
1040.00,0.5651
1039.00,0.5652
1038.00,0.5653
1037.00,0.5653
1036.00,0.5654
1035.00,0.5660
1034.00,0.5672
1033.00,0.5689
1032.00,0.5711
1031.00,0.5734
1030.00,0.5756
1029.00,0.5771
1028.00,0.5775
1027.00,0.5763
1026.00,0.5734
1025.00,0.5688
1024.00,0.5632
1023.00,0.5572
1022.00,0.5517
1021.00,0.5468
1020.00,0.5426
1019.00,0.5392
1018.00,0.5363
1017.00,0.5338
1016.00,0.5314
1015.00,0.5293
1014.00,0.5273
1013.00,0.5255
1012.00,0.5239
1011.00,0.5227
1010.00,0.5219
1009.00,0.5216
1008.00,0.5218
1007.00,0.5223
1006.00,0.5232
1005.00,0.5241
1004.00,0.5253
1003.00,0.5267
1002.00,0.5284
1001.00,0.5300
1000.00,0.5314
999.00,0.5322
998.00,0.5322
997.00,0.5311
996.00,0.5290
995.00,0.5260
994.00,0.5226
993.00,0.5189
992.00,0.5151
991.00,0.5112
990.00,0.5072
989.00,0.5033
988.00,0.5001
987.00,0.4979
986.00,0.4967
985.00,0.4965
984.00,0.4970
983.00,0.4982
982.00,0.4999
981.00,0.5018
980.00,0.5037
979.00,0.5056
978.00,0.5074
977.00,0.5089
976.00,0.5101
975.00,0.5111
974.00,0.5117
973.00,0.5118
972.00,0.5116
971.00,0.5113
970.00,0.5110
969.00,0.5106
968.00,0.5101
967.00,0.5095
966.00,0.5088
965.00,0.5078
964.00,0.5066
963.00,0.5052
962.00,0.5036
961.00,0.5020
960.00,0.5005
959.00,0.4994
958.00,0.4986
957.00,0.4980
956.00,0.4972
955.00,0.4963
954.00,0.4952
953.00,0.4939
952.00,0.4925
951.00,0.4912
950.00,0.4902
949.00,0.4896
948.00,0.4895
947.00,0.4897
946.00,0.4904
945.00,0.4913
944.00,0.4925
943.00,0.4940
942.00,0.4955
941.00,0.4970
940.00,0.4983
939.00,0.4992
938.00,0.4995
937.00,0.4993
936.00,0.4983
935.00,0.4968
934.00,0.4949
933.00,0.4925
932.00,0.4899
931.00,0.4874
930.00,0.4854
929.00,0.4839
928.00,0.4831
927.00,0.4833
926.00,0.4850
925.00,0.4882
924.00,0.4929
923.00,0.4985
922.00,0.5038
921.00,0.5072
920.00,0.5075
919.00,0.5042
918.00,0.4977
917.00,0.4894
916.00,0.4806
915.00,0.4724
914.00,0.4654
913.00,0.4597
912.00,0.4551
911.00,0.4515
910.00,0.4488
909.00,0.4466
908.00,0.4449
907.00,0.4436
906.00,0.4428
905.00,0.4424
904.00,0.4424
903.00,0.4430
902.00,0.4442
901.00,0.4458
900.00,0.4480
899.00,0.4507
898.00,0.4540
897.00,0.4576
896.00,0.4614
895.00,0.4654
894.00,0.4696
893.00,0.4739
892.00,0.4780
891.00,0.4817
890.00,0.4846
889.00,0.4862
888.00,0.4865
887.00,0.4855
886.00,0.4836
885.00,0.4813
884.00,0.4792
883.00,0.4777
882.00,0.4773
881.00,0.4777
880.00,0.4787
879.00,0.4799
878.00,0.4808
877.00,0.4810
876.00,0.4808
875.00,0.4804
874.00,0.4802
873.00,0.4802
872.00,0.4804
871.00,0.4809
870.00,0.4820
869.00,0.4835
868.00,0.4857
867.00,0.4886
866.00,0.4922
865.00,0.4964
864.00,0.5005
863.00,0.5036
862.00,0.5047
861.00,0.5027
860.00,0.4977
859.00,0.4906
858.00,0.4832
857.00,0.4766
856.00,0.4714
855.00,0.4676
854.00,0.4649
853.00,0.4629
852.00,0.4612
851.00,0.4597
850.00,0.4580
849.00,0.4560
848.00,0.4538
847.00,0.4513
846.00,0.4488
845.00,0.4463
844.00,0.4442
843.00,0.4428
842.00,0.4426
841.00,0.4439
840.00,0.4473
839.00,0.4529
838.00,0.4601
837.00,0.4673
836.00,0.4723
835.00,0.4737
834.00,0.4715
833.00,0.4668
832.00,0.4617
831.00,0.4581
830.00,0.4568
829.00,0.4575
828.00,0.4598
827.00,0.4633
826.00,0.4678
825.00,0.4730
824.00,0.4789
823.00,0.4852
822.00,0.4918
821.00,0.4982
820.00,0.5041
819.00,0.5094
818.00,0.5139
817.00,0.5175
816.00,0.5199
815.00,0.5205
814.00,0.5192
813.00,0.5159
812.00,0.5109
811.00,0.5050
810.00,0.4989
809.00,0.4930
808.00,0.4875
807.00,0.4826
806.00,0.4781
805.00,0.4736
804.00,0.4687
803.00,0.4635
802.00,0.4579
801.00,0.4523
800.00,0.4474
799.00,0.4438
798.00,0.4414
797.00,0.4398
796.00,0.4386
795.00,0.4378
794.00,0.4374
793.00,0.4376
792.00,0.4384
791.00,0.4398
790.00,0.4418
789.00,0.4443
788.00,0.4470
787.00,0.4501
786.00,0.4534
785.00,0.4572
784.00,0.4613
783.00,0.4655
782.00,0.4692
781.00,0.4721
780.00,0.4741
779.00,0.4756
778.00,0.4771
777.00,0.4787
776.00,0.4807
775.00,0.4831
774.00,0.4857
773.00,0.4884
772.00,0.4911
771.00,0.4939
770.00,0.4969
769.00,0.5003
768.00,0.5038
767.00,0.5070
766.00,0.5096
765.00,0.5113
764.00,0.5127
763.00,0.5146
762.00,0.5175
761.00,0.5214
760.00,0.5258
759.00,0.5301
758.00,0.5337
757.00,0.5365
756.00,0.5387
755.00,0.5411
754.00,0.5439
753.00,0.5471
752.00,0.5507
751.00,0.5548
750.00,0.5592
749.00,0.5635
748.00,0.5673
747.00,0.5708
746.00,0.5744
745.00,0.5782
744.00,0.5825
743.00,0.5876
742.00,0.5934
741.00,0.5996
740.00,0.6052
739.00,0.6100
738.00,0.6140
737.00,0.6177
736.00,0.6217
735.00,0.6264
734.00,0.6318
733.00,0.6381
732.00,0.6455
731.00,0.6549
730.00,0.6671
729.00,0.6823
728.00,0.7009
727.00,0.7236
726.00,0.7508
725.00,0.7814
724.00,0.8123
723.00,0.8375
722.00,0.8486
721.00,0.8385
720.00,0.8072
719.00,0.7629
718.00,0.7159
717.00,0.6727
716.00,0.6361
715.00,0.6066
714.00,0.5836
713.00,0.5654
712.00,0.5506
711.00,0.5383
710.00,0.5281
709.00,0.5197
708.00,0.5127
707.00,0.5070
706.00,0.5022
705.00,0.4978
704.00,0.4937
703.00,0.4903
702.00,0.4880
701.00,0.4864
700.00,0.4839
699.00,0.4784
698.00,0.4686
697.00,0.4549
696.00,0.4396
695.00,0.4253
694.00,0.4139
693.00,0.4054
692.00,0.3991
691.00,0.3945
690.00,0.3908
689.00,0.3878
688.00,0.3853
687.00,0.3833
686.00,0.3818
685.00,0.3808
684.00,0.3803
683.00,0.3800
682.00,0.3796
681.00,0.3793
680.00,0.3792
679.00,0.3794
678.00,0.3798
677.00,0.3800
676.00,0.3799
675.00,0.3798
674.00,0.3798
673.00,0.3799
672.00,0.3800
671.00,0.3799
670.00,0.3799
669.00,0.3803
668.00,0.3809
667.00,0.3817
666.00,0.3826
665.00,0.3834
664.00,0.3841
663.00,0.3848
662.00,0.3859
661.00,0.3872
660.00,0.3885
659.00,0.3897
658.00,0.3908
657.00,0.3918
656.00,0.3928
655.00,0.3939
654.00,0.3949
653.00,0.3957
652.00,0.3965
651.00,0.3976
650.00,0.3987
649.00,0.3996
648.00,0.4004
647.00,0.4015
646.00,0.4030
645.00,0.4047
644.00,0.4064
643.00,0.4081
642.00,0.4099
641.00,0.4116
640.00,0.4133
639.00,0.4147
638.00,0.4156
637.00,0.4160
636.00,0.4162
635.00,0.4165
634.00,0.4171
633.00,0.4177
632.00,0.4182
631.00,0.4187
630.00,0.4194
629.00,0.4204
628.00,0.4218
627.00,0.4235
626.00,0.4255
625.00,0.4273
624.00,0.4291
623.00,0.4309
622.00,0.4327
621.00,0.4344
620.00,0.4359
619.00,0.4372
618.00,0.4383
617.00,0.4389
616.00,0.4390
615.00,0.4388
614.00,0.4383
613.00,0.4375
612.00,0.4365
611.00,0.4356
610.00,0.4350
609.00,0.4343
608.00,0.4330
607.00,0.4316
606.00,0.4305
605.00,0.4298
604.00,0.4297
603.00,0.4300
602.00,0.4305
601.00,0.4308
600.00,0.4310
599.00,0.4312
598.00,0.4320
597.00,0.4333
596.00,0.4348
595.00,0.4358
594.00,0.4365
593.00,0.4373
592.00,0.4384
591.00,0.4399
590.00,0.4414
589.00,0.4429
588.00,0.4448
587.00,0.4475
586.00,0.4506
585.00,0.4535
584.00,0.4559
583.00,0.4585
582.00,0.4613
581.00,0.4641
580.00,0.4665
579.00,0.4687
578.00,0.4711
577.00,0.4735
576.00,0.4756
575.00,0.4775
574.00,0.4793
573.00,0.4812
572.00,0.4832
571.00,0.4857
570.00,0.4884
569.00,0.4911
568.00,0.4933
567.00,0.4950
566.00,0.4965
565.00,0.4979
564.00,0.4991
563.00,0.5006
562.00,0.5026
561.00,0.5047
560.00,0.5062
559.00,0.5067
558.00,0.5063
557.00,0.5057
556.00,0.5059
555.00,0.5070
554.00,0.5085
553.00,0.5098
552.00,0.5106
551.00,0.5115
550.00,0.5125
