Created as New Dataset,
cm-1,A
4000.00,0.3979
3999.00,0.3976
3998.00,0.3972
3997.00,0.3969
3996.00,0.3965
3995.00,0.3961
3994.00,0.3957
3993.00,0.3953
3992.00,0.3950
3991.00,0.3947
3990.00,0.3944
3989.00,0.3941
3988.00,0.3939
3987.00,0.3936
3986.00,0.3933
3985.00,0.3930
3984.00,0.3927
3983.00,0.3925
3982.00,0.3922
3981.00,0.3920
3980.00,0.3917
3979.00,0.3914
3978.00,0.3911
3977.00,0.3909
3976.00,0.3906
3975.00,0.3903
3974.00,0.3901
3973.00,0.3898
3972.00,0.3896
3971.00,0.3893
3970.00,0.3891
3969.00,0.3888
3968.00,0.3886
3967.00,0.3884
3966.00,0.3882
3965.00,0.3879
3964.00,0.3877
3963.00,0.3874
3962.00,0.3871
3961.00,0.3868
3960.00,0.3865
3959.00,0.3862
3958.00,0.3860
3957.00,0.3858
3956.00,0.3856
3955.00,0.3855
3954.00,0.3854
3953.00,0.3854
3952.00,0.3853
3951.00,0.3852
3950.00,0.3850
3949.00,0.3848
3948.00,0.3847
3947.00,0.3845
3946.00,0.3844
3945.00,0.3844
3944.00,0.3844
3943.00,0.3844
3942.00,0.3844
3941.00,0.3843
3940.00,0.3842
3939.00,0.3841
3938.00,0.3840
3937.00,0.3839
3936.00,0.3838
3935.00,0.3837
3934.00,0.3837
3933.00,0.3836
3932.00,0.3836
3931.00,0.3836
3930.00,0.3835
3929.00,0.3834
3928.00,0.3833
3927.00,0.3833
3926.00,0.3832
3925.00,0.3832
3924.00,0.3831
3923.00,0.3830
3922.00,0.3829
3921.00,0.3827
3920.00,0.3825
3919.00,0.3824
3918.00,0.3824
3917.00,0.3824
3916.00,0.3824
3915.00,0.3823
3914.00,0.3822
3913.00,0.3821
3912.00,0.3821
3911.00,0.3821
3910.00,0.3821
3909.00,0.3820
3908.00,0.3820
3907.00,0.3819
3906.00,0.3819
3905.00,0.3819
3904.00,0.3819
3903.00,0.3819
3902.00,0.3820
3901.00,0.3821
3900.00,0.3823
3899.00,0.3824
3898.00,0.3824
3897.00,0.3823
3896.00,0.3821
3895.00,0.3819
3894.00,0.3817
3893.00,0.3816
3892.00,0.3815
3891.00,0.3814
3890.00,0.3812
3889.00,0.3810
3888.00,0.3807
3887.00,0.3806
3886.00,0.3806
3885.00,0.3805
3884.00,0.3804
3883.00,0.3802
3882.00,0.3801
3881.00,0.3801
3880.00,0.3802
3879.00,0.3802
3878.00,0.3801
3877.00,0.3800
3876.00,0.3799
3875.00,0.3798
3874.00,0.3796
3873.00,0.3795
3872.00,0.3793
3871.00,0.3791
3870.00,0.3790
3869.00,0.3791
3868.00,0.3791
3867.00,0.3791
3866.00,0.3790
3865.00,0.3790
3864.00,0.3791
3863.00,0.3790
3862.00,0.3789
3861.00,0.3788
3860.00,0.3787
3859.00,0.3786
3858.00,0.3784
3857.00,0.3783
3856.00,0.3781
3855.00,0.3779
3854.00,0.3778
3853.00,0.3778
3852.00,0.3777
3851.00,0.3776
3850.00,0.3775
3849.00,0.3775
3848.00,0.3776
3847.00,0.3776
3846.00,0.3775
3845.00,0.3773
3844.00,0.3772
3843.00,0.3770
3842.00,0.3769
3841.00,0.3768
3840.00,0.3766
3839.00,0.3765
3838.00,0.3764
3837.00,0.3764
3836.00,0.3764
3835.00,0.3764
3834.00,0.3765
3833.00,0.3765
3832.00,0.3766
3831.00,0.3765
3830.00,0.3764
3829.00,0.3763
3828.00,0.3762
3827.00,0.3762
3826.00,0.3761
3825.00,0.3760
3824.00,0.3758
3823.00,0.3757
3822.00,0.3756
3821.00,0.3756
3820.00,0.3755
3819.00,0.3753
3818.00,0.3751
3817.00,0.3750
3816.00,0.3749
3815.00,0.3748
3814.00,0.3745
3813.00,0.3742
3812.00,0.3739
3811.00,0.3737
3810.00,0.3735
3809.00,0.3732
3808.00,0.3729
3807.00,0.3726
3806.00,0.3724
3805.00,0.3722
3804.00,0.3721
3803.00,0.3720
3802.00,0.3720
3801.00,0.3720
3800.00,0.3719
3799.00,0.3717
3798.00,0.3715
3797.00,0.3714
3796.00,0.3713
3795.00,0.3712
3794.00,0.3710
3793.00,0.3708
3792.00,0.3707
3791.00,0.3706
3790.00,0.3705
3789.00,0.3704
3788.00,0.3703
3787.00,0.3701
3786.00,0.3699
3785.00,0.3697
3784.00,0.3696
3783.00,0.3694
3782.00,0.3693
3781.00,0.3691
3780.00,0.3690
3779.00,0.3689
3778.00,0.3687
3777.00,0.3685
3776.00,0.3683
3775.00,0.3681
3774.00,0.3678
3773.00,0.3676
3772.00,0.3673
3771.00,0.3671
3770.00,0.3669
3769.00,0.3667
3768.00,0.3665
3767.00,0.3663
3766.00,0.3662
3765.00,0.3662
3764.00,0.3661
3763.00,0.3659
3762.00,0.3657
3761.00,0.3656
3760.00,0.3655
3759.00,0.3654
3758.00,0.3653
3757.00,0.3651
3756.00,0.3650
3755.00,0.3649
3754.00,0.3648
3753.00,0.3647
3752.00,0.3646
3751.00,0.3645
3750.00,0.3644
3749.00,0.3643
3748.00,0.3642
3747.00,0.3641
3746.00,0.3639
3745.00,0.3638
3744.00,0.3638
3743.00,0.3636
3742.00,0.3633
3741.00,0.3631
3740.00,0.3630
3739.00,0.3630
3738.00,0.3629
3737.00,0.3627
3736.00,0.3624
3735.00,0.3622
3734.00,0.3620
3733.00,0.3619
3732.00,0.3619
3731.00,0.3618
3730.00,0.3617
3729.00,0.3615
3728.00,0.3612
3727.00,0.3610
3726.00,0.3609
3725.00,0.3607
3724.00,0.3605
3723.00,0.3604
3722.00,0.3604
3721.00,0.3604
3720.00,0.3603
3719.00,0.3602
3718.00,0.3600
3717.00,0.3598
3716.00,0.3597
3715.00,0.3597
3714.00,0.3596
3713.00,0.3596
3712.00,0.3595
3711.00,0.3595
3710.00,0.3594
3709.00,0.3594
3708.00,0.3594
3707.00,0.3595
3706.00,0.3596
3705.00,0.3595
3704.00,0.3595
3703.00,0.3593
3702.00,0.3592
3701.00,0.3591
3700.00,0.3590
3699.00,0.3589
3698.00,0.3589
3697.00,0.3590
3696.00,0.3590
3695.00,0.3590
3694.00,0.3590
3693.00,0.3589
3692.00,0.3588
3691.00,0.3588
3690.00,0.3588
3689.00,0.3589
3688.00,0.3589
3687.00,0.3589
3686.00,0.3589
3685.00,0.3589
3684.00,0.3589
3683.00,0.3589
3682.00,0.3587
3681.00,0.3586
3680.00,0.3584
3679.00,0.3582
3678.00,0.3581
3677.00,0.3579
3676.00,0.3579
3675.00,0.3580
3674.00,0.3580
3673.00,0.3580
3672.00,0.3579
3671.00,0.3580
3670.00,0.3581
3669.00,0.3581
3668.00,0.3580
3667.00,0.3579
3666.00,0.3578
3665.00,0.3579
3664.00,0.3579
3663.00,0.3580
3662.00,0.3581
3661.00,0.3581
3660.00,0.3581
3659.00,0.3581
3658.00,0.3581
3657.00,0.3581
3656.00,0.3582
3655.00,0.3583
3654.00,0.3583
3653.00,0.3584
3652.00,0.3585
3651.00,0.3587
3650.00,0.3589
3649.00,0.3591
3648.00,0.3593
3647.00,0.3595
3646.00,0.3597
3645.00,0.3599
3644.00,0.3600
3643.00,0.3601
3642.00,0.3602
3641.00,0.3603
3640.00,0.3603
3639.00,0.3603
3638.00,0.3605
3637.00,0.3606
3636.00,0.3608
3635.00,0.3609
3634.00,0.3609
3633.00,0.3609
3632.00,0.3609
3631.00,0.3609
3630.00,0.3612
3629.00,0.3616
3628.00,0.3621
3627.00,0.3626
3626.00,0.3629
3625.00,0.3632
3624.00,0.3636
3623.00,0.3638
3622.00,0.3638
3621.00,0.3638
3620.00,0.3637
3619.00,0.3636
3618.00,0.3635
3617.00,0.3634
3616.00,0.3632
3615.00,0.3632
3614.00,0.3632
3613.00,0.3633
3612.00,0.3633
3611.00,0.3633
3610.00,0.3633
3609.00,0.3634
3608.00,0.3635
3607.00,0.3636
3606.00,0.3636
3605.00,0.3635
3604.00,0.3633
3603.00,0.3631
3602.00,0.3628
3601.00,0.3625
3600.00,0.3620
3599.00,0.3615
3598.00,0.3609
3597.00,0.3603
3596.00,0.3597
3595.00,0.3591
3594.00,0.3586
3593.00,0.3581
3592.00,0.3577
3591.00,0.3573
3590.00,0.3570
3589.00,0.3567
3588.00,0.3565
3587.00,0.3564
3586.00,0.3563
3585.00,0.3563
3584.00,0.3563
3583.00,0.3563
3582.00,0.3564
3581.00,0.3565
3580.00,0.3566
3579.00,0.3567
3578.00,0.3567
3577.00,0.3567
3576.00,0.3568
3575.00,0.3568
3574.00,0.3569
3573.00,0.3570
3572.00,0.3571
3571.00,0.3571
3570.00,0.3572
3569.00,0.3573
3568.00,0.3575
3567.00,0.3576
3566.00,0.3578
3565.00,0.3580
3564.00,0.3583
3563.00,0.3585
3562.00,0.3588
3561.00,0.3590
3560.00,0.3592
3559.00,0.3593
3558.00,0.3595
3557.00,0.3597
3556.00,0.3600
3555.00,0.3603
3554.00,0.3606
3553.00,0.3610
3552.00,0.3614
3551.00,0.3618
3550.00,0.3622
3549.00,0.3626
3548.00,0.3630
3547.00,0.3634
3546.00,0.3639
3545.00,0.3644
3544.00,0.3649
3543.00,0.3653
3542.00,0.3658
3541.00,0.3662
3540.00,0.3666
3539.00,0.3669
3538.00,0.3673
3537.00,0.3676
3536.00,0.3678
3535.00,0.3681
3534.00,0.3683
3533.00,0.3685
3532.00,0.3687
3531.00,0.3690
3530.00,0.3693
3529.00,0.3696
3528.00,0.3699
3527.00,0.3702
3526.00,0.3704
3525.00,0.3707
3524.00,0.3709
3523.00,0.3712
3522.00,0.3715
3521.00,0.3719
3520.00,0.3723
3519.00,0.3727
3518.00,0.3731
3517.00,0.3735
3516.00,0.3739
3515.00,0.3743
3514.00,0.3748
3513.00,0.3752
3512.00,0.3756
3511.00,0.3761
3510.00,0.3766
3509.00,0.3771
3508.00,0.3776
3507.00,0.3782
3506.00,0.3787
3505.00,0.3793
3504.00,0.3799
3503.00,0.3804
3502.00,0.3809
3501.00,0.3814
3500.00,0.3819
3499.00,0.3824
3498.00,0.3830
3497.00,0.3835
3496.00,0.3841
3495.00,0.3846
3494.00,0.3852
3493.00,0.3858
3492.00,0.3864
3491.00,0.3871
3490.00,0.3878
3489.00,0.3885
3488.00,0.3892
3487.00,0.3898
3486.00,0.3904
3485.00,0.3911
3484.00,0.3917
3483.00,0.3922
3482.00,0.3927
3481.00,0.3932
3480.00,0.3937
3479.00,0.3942
3478.00,0.3946
3477.00,0.3951
3476.00,0.3956
3475.00,0.3961
3474.00,0.3966
3473.00,0.3972
3472.00,0.3978
3471.00,0.3984
3470.00,0.3990
3469.00,0.3996
3468.00,0.4002
3467.00,0.4007
3466.00,0.4012
3465.00,0.4017
3464.00,0.4022
3463.00,0.4028
3462.00,0.4034
3461.00,0.4039
3460.00,0.4044
3459.00,0.4050
3458.00,0.4056
3457.00,0.4062
3456.00,0.4068
3455.00,0.4074
3454.00,0.4080
3453.00,0.4085
3452.00,0.4091
3451.00,0.4097
3450.00,0.4103
3449.00,0.4110
3448.00,0.4116
3447.00,0.4123
3446.00,0.4131
3445.00,0.4138
3444.00,0.4146
3443.00,0.4153
3442.00,0.4159
3441.00,0.4166
3440.00,0.4173
3439.00,0.4181
3438.00,0.4189
3437.00,0.4197
3436.00,0.4206
3435.00,0.4213
3434.00,0.4221
3433.00,0.4229
3432.00,0.4236
3431.00,0.4244
3430.00,0.4252
3429.00,0.4259
3428.00,0.4267
3427.00,0.4274
3426.00,0.4281
3425.00,0.4288
3424.00,0.4295
3423.00,0.4303
3422.00,0.4311
3421.00,0.4319
3420.00,0.4327
3419.00,0.4335
3418.00,0.4343
3417.00,0.4352
3416.00,0.4361
3415.00,0.4369
3414.00,0.4378
3413.00,0.4388
3412.00,0.4397
3411.00,0.4406
3410.00,0.4415
3409.00,0.4424
3408.00,0.4433
3407.00,0.4443
3406.00,0.4453
3405.00,0.4464
3404.00,0.4474
3403.00,0.4484
3402.00,0.4494
3401.00,0.4505
3400.00,0.4516
3399.00,0.4526
3398.00,0.4537
3397.00,0.4548
3396.00,0.4558
3395.00,0.4569
3394.00,0.4579
3393.00,0.4590
3392.00,0.4601
3391.00,0.4612
3390.00,0.4624
3389.00,0.4635
3388.00,0.4646
3387.00,0.4657
3386.00,0.4669
3385.00,0.4681
3384.00,0.4692
3383.00,0.4703
3382.00,0.4714
3381.00,0.4725
3380.00,0.4736
3379.00,0.4747
3378.00,0.4759
3377.00,0.4772
3376.00,0.4785
3375.00,0.4799
3374.00,0.4813
3373.00,0.4827
3372.00,0.4841
3371.00,0.4856
3370.00,0.4870
3369.00,0.4885
3368.00,0.4899
3367.00,0.4914
3366.00,0.4929
3365.00,0.4944
3364.00,0.4960
3363.00,0.4976
3362.00,0.4992
3361.00,0.5009
3360.00,0.5026
3359.00,0.5043
3358.00,0.5061
3357.00,0.5079
3356.00,0.5095
3355.00,0.5111
3354.00,0.5127
3353.00,0.5143
3352.00,0.5160
3351.00,0.5177
3350.00,0.5194
3349.00,0.5211
3348.00,0.5227
3347.00,0.5243
3346.00,0.5259
3345.00,0.5275
3344.00,0.5291
3343.00,0.5306
3342.00,0.5319
3341.00,0.5333
3340.00,0.5346
3339.00,0.5360
3338.00,0.5373
3337.00,0.5385
3336.00,0.5395
3335.00,0.5405
3334.00,0.5414
3333.00,0.5422
3332.00,0.5430
3331.00,0.5436
3330.00,0.5441
3329.00,0.5445
3328.00,0.5450
3327.00,0.5453
3326.00,0.5456
3325.00,0.5457
3324.00,0.5458
3323.00,0.5457
3322.00,0.5455
3321.00,0.5454
3320.00,0.5451
3319.00,0.5448
3318.00,0.5443
3317.00,0.5437
3316.00,0.5431
3315.00,0.5424
3314.00,0.5417
3313.00,0.5409
3312.00,0.5401
3311.00,0.5392
3310.00,0.5383
3309.00,0.5374
3308.00,0.5365
3307.00,0.5356
3306.00,0.5348
3305.00,0.5339
3304.00,0.5330
3303.00,0.5321
3302.00,0.5312
3301.00,0.5303
3300.00,0.5295
3299.00,0.5287
3298.00,0.5279
3297.00,0.5273
3296.00,0.5266
3295.00,0.5260
3294.00,0.5254
3293.00,0.5249
3292.00,0.5244
3291.00,0.5239
3290.00,0.5235
3289.00,0.5232
3288.00,0.5229
3287.00,0.5226
3286.00,0.5223
3285.00,0.5221
3284.00,0.5221
3283.00,0.5220
3282.00,0.5221
3281.00,0.5221
3280.00,0.5222
3279.00,0.5222
3278.00,0.5224
3277.00,0.5225
3276.00,0.5226
3275.00,0.5228
3274.00,0.5230
3273.00,0.5233
3272.00,0.5237
3271.00,0.5242
3270.00,0.5246
3269.00,0.5251
3268.00,0.5255
3267.00,0.5259
3266.00,0.5263
3265.00,0.5268
3264.00,0.5274
3263.00,0.5279
3262.00,0.5285
3261.00,0.5291
3260.00,0.5297
3259.00,0.5303
3258.00,0.5308
3257.00,0.5313
3256.00,0.5320
3255.00,0.5326
3254.00,0.5333
3253.00,0.5340
3252.00,0.5345
3251.00,0.5350
3250.00,0.5355
3249.00,0.5360
3248.00,0.5365
3247.00,0.5369
3246.00,0.5373
3245.00,0.5376
3244.00,0.5380
3243.00,0.5383
3242.00,0.5387
3241.00,0.5390
3240.00,0.5393
3239.00,0.5396
3238.00,0.5398
3237.00,0.5400
3236.00,0.5402
3235.00,0.5403
3234.00,0.5404
3233.00,0.5405
3232.00,0.5406
3231.00,0.5406
3230.00,0.5406
3229.00,0.5405
3228.00,0.5405
3227.00,0.5405
3226.00,0.5405
3225.00,0.5405
3224.00,0.5404
3223.00,0.5402
3222.00,0.5399
3221.00,0.5397
3220.00,0.5394
3219.00,0.5392
3218.00,0.5391
3217.00,0.5389
3216.00,0.5388
3215.00,0.5387
3214.00,0.5385
3213.00,0.5382
3212.00,0.5380
3211.00,0.5377
3210.00,0.5373
3209.00,0.5369
3208.00,0.5365
3207.00,0.5361
3206.00,0.5358
3205.00,0.5354
3204.00,0.5351
3203.00,0.5347
3202.00,0.5343
3201.00,0.5339
3200.00,0.5334
3199.00,0.5329
3198.00,0.5324
3197.00,0.5320
3196.00,0.5315
3195.00,0.5311
3194.00,0.5306
3193.00,0.5303
3192.00,0.5299
3191.00,0.5295
3190.00,0.5291
3189.00,0.5286
3188.00,0.5281
3187.00,0.5274
3186.00,0.5268
3185.00,0.5261
3184.00,0.5255
3183.00,0.5248
3182.00,0.5242
3181.00,0.5235
3180.00,0.5228
3179.00,0.5221
3178.00,0.5213
3177.00,0.5206
3176.00,0.5199
3175.00,0.5191
3174.00,0.5183
3173.00,0.5174
3172.00,0.5166
3171.00,0.5158
3170.00,0.5149
3169.00,0.5141
3168.00,0.5132
3167.00,0.5123
3166.00,0.5114
3165.00,0.5106
3164.00,0.5098
3163.00,0.5090
3162.00,0.5081
3161.00,0.5072
3160.00,0.5063
3159.00,0.5055
3158.00,0.5047
3157.00,0.5039
3156.00,0.5032
3155.00,0.5024
3154.00,0.5017
3153.00,0.5010
3152.00,0.5003
3151.00,0.4997
3150.00,0.4990
3149.00,0.4983
3148.00,0.4976
3147.00,0.4969
3146.00,0.4962
3145.00,0.4955
3144.00,0.4949
3143.00,0.4942
3142.00,0.4936
3141.00,0.4931
3140.00,0.4925
3139.00,0.4920
3138.00,0.4915
3137.00,0.4911
3136.00,0.4906
3135.00,0.4902
3134.00,0.4897
3133.00,0.4894
3132.00,0.4891
3131.00,0.4888
3130.00,0.4886
3129.00,0.4884
3128.00,0.4883
3127.00,0.4881
3126.00,0.4881
3125.00,0.4881
3124.00,0.4881
3123.00,0.4882
3122.00,0.4884
3121.00,0.4886
3120.00,0.4888
3119.00,0.4890
3118.00,0.4893
3117.00,0.4896
3116.00,0.4899
3115.00,0.4903
3114.00,0.4907
3113.00,0.4912
3112.00,0.4918
3111.00,0.4924
3110.00,0.4931
3109.00,0.4937
3108.00,0.4944
3107.00,0.4950
3106.00,0.4956
3105.00,0.4963
3104.00,0.4970
3103.00,0.4977
3102.00,0.4984
3101.00,0.4992
3100.00,0.5001
3099.00,0.5010
3098.00,0.5020
3097.00,0.5031
3096.00,0.5043
3095.00,0.5057
3094.00,0.5072
3093.00,0.5089
3092.00,0.5108
3091.00,0.5128
3090.00,0.5150
3089.00,0.5174
3088.00,0.5198
3087.00,0.5225
3086.00,0.5252
3085.00,0.5280
3084.00,0.5310
3083.00,0.5340
3082.00,0.5371
3081.00,0.5403
3080.00,0.5437
3079.00,0.5473
3078.00,0.5511
3077.00,0.5550
3076.00,0.5591
3075.00,0.5634
3074.00,0.5677
3073.00,0.5719
3072.00,0.5762
3071.00,0.5804
3070.00,0.5848
3069.00,0.5892
3068.00,0.5935
3067.00,0.5977
3066.00,0.6019
3065.00,0.6060
3064.00,0.6099
3063.00,0.6136
3062.00,0.6170
3061.00,0.6201
3060.00,0.6231
3059.00,0.6259
3058.00,0.6286
3057.00,0.6313
3056.00,0.6341
3055.00,0.6371
3054.00,0.6403
3053.00,0.6437
3052.00,0.6472
3051.00,0.6510
3050.00,0.6549
3049.00,0.6591
3048.00,0.6634
3047.00,0.6677
3046.00,0.6722
3045.00,0.6767
3044.00,0.6812
3043.00,0.6858
3042.00,0.6904
3041.00,0.6949
3040.00,0.6994
3039.00,0.7041
3038.00,0.7090
3037.00,0.7141
3036.00,0.7196
3035.00,0.7254
3034.00,0.7317
3033.00,0.7384
3032.00,0.7457
3031.00,0.7534
3030.00,0.7616
3029.00,0.7702
3028.00,0.7791
3027.00,0.7883
3026.00,0.7979
3025.00,0.8077
3024.00,0.8178
3023.00,0.8281
3022.00,0.8388
3021.00,0.8499
3020.00,0.8614
3019.00,0.8731
3018.00,0.8851
3017.00,0.8970
3016.00,0.9090
3015.00,0.9210
3014.00,0.9331
3013.00,0.9455
3012.00,0.9581
3011.00,0.9711
3010.00,0.9847
3009.00,0.9989
3008.00,1.0138
3007.00,1.0293
3006.00,1.0454
3005.00,1.0622
3004.00,1.0794
3003.00,1.0970
3002.00,1.1150
3001.00,1.1337
3000.00,1.1532
2999.00,1.1739
2998.00,1.1965
2997.00,1.2211
2996.00,1.2483
2995.00,1.2781
2994.00,1.3112
2993.00,1.3479
2992.00,1.3890
2991.00,1.4351
2990.00,1.4869
2989.00,1.5449
2988.00,1.6094
2987.00,1.6806
2986.00,1.7595
2985.00,1.8471
2984.00,1.9447
2983.00,2.0538
2982.00,2.1758
2981.00,2.3111
2980.00,2.4569
2979.00,2.6073
2978.00,2.7571
2977.00,2.9084
2976.00,3.0740
2975.00,3.2689
2974.00,3.4858
2973.00,3.6728
2972.00,3.8065
2971.00,3.9646
2970.00,4.3009
2969.00,4.8851
2968.00,4.8877
2967.00,4.5351
2966.00,4.2240
2965.00,3.9914
2964.00,3.8077
2963.00,3.7160
2962.00,3.6961
2961.00,3.7199
2960.00,3.7899
2959.00,3.9244
2958.00,4.0609
2957.00,4.2260
2956.00,4.5464
2955.00,4.5279
2954.00,4.2848
2953.00,4.0968
2952.00,4.1181
2951.00,4.1976
2950.00,4.2338
2949.00,4.4840
2948.00,4.7853
2947.00,4.5948
2946.00,4.3221
2945.00,4.1493
2944.00,4.1469
2943.00,4.2508
2942.00,4.3168
2941.00,4.2862
2940.00,4.1059
2939.00,3.9526
2938.00,3.8428
2937.00,3.7854
2936.00,3.8045
2935.00,3.8731
2934.00,3.9752
2933.00,4.0098
2932.00,3.9554
2931.00,3.9696
2930.00,4.1975
2929.00,4.4142
2928.00,4.1440
2927.00,3.9262
2926.00,3.9015
2925.00,4.0747
2924.00,4.3522
2923.00,4.5039
2922.00,4.2711
2921.00,4.0660
2920.00,4.0030
2919.00,3.9777
2918.00,3.9493
2917.00,3.9512
2916.00,4.0592
2915.00,4.1720
2914.00,4.1130
2913.00,4.0432
2912.00,4.0431
2911.00,4.0343
2910.00,3.9551
2909.00,3.8955
2908.00,3.9688
2907.00,4.2581
2906.00,4.6960
2905.00,4.6093
2904.00,4.2364
2903.00,3.9953
2902.00,3.8045
2901.00,3.6784
2900.00,3.6767
2899.00,3.8058
2898.00,4.1168
2897.00,4.4704
2896.00,4.3645
2895.00,4.2455
2894.00,4.3827
2893.00,4.5643
2892.00,4.2703
2891.00,4.0252
2890.00,3.8909
2889.00,3.8540
2888.00,3.9237
2887.00,4.1417
2886.00,4.3511
2885.00,4.2898
2884.00,4.1829
2883.00,4.0242
2882.00,3.8408
2881.00,3.7486
2880.00,3.8104
2879.00,4.0796
2878.00,4.4303
2877.00,4.2319
2876.00,4.0297
2875.00,4.0658
2874.00,4.4488
2873.00,4.7035
2872.00,4.3632
2871.00,4.1977
2870.00,4.2002
2869.00,4.2552
2868.00,4.1997
2867.00,4.1549
2866.00,4.2176
2865.00,4.2186
2864.00,4.0208
2863.00,3.8488
2862.00,3.8323
2861.00,3.9842
2860.00,4.0981
2859.00,4.0130
2858.00,3.9487
2857.00,4.0313
2856.00,4.2945
2855.00,4.7018
2854.00,4.7071
2853.00,4.2380
2852.00,3.9194
2851.00,3.8016
2850.00,3.8013
2849.00,3.8514
2848.00,3.8795
2847.00,3.8539
2846.00,3.8399
2845.00,3.8602
2844.00,3.9227
2843.00,4.1069
2842.00,4.4565
2841.00,4.5922
2840.00,4.1473
2839.00,3.7380
2838.00,3.4432
2837.00,3.2047
2836.00,3.0000
2835.00,2.8080
2834.00,2.6242
2833.00,2.4516
2832.00,2.2942
2831.00,2.1549
2830.00,2.0330
2829.00,1.9260
2828.00,1.8311
2827.00,1.7462
2826.00,1.6697
2825.00,1.6003
2824.00,1.5370
2823.00,1.4790
2822.00,1.4258
2821.00,1.3772
2820.00,1.3328
2819.00,1.2921
2818.00,1.2543
2817.00,1.2189
2816.00,1.1856
2815.00,1.1544
2814.00,1.1253
2813.00,1.0981
2812.00,1.0726
2811.00,1.0487
2810.00,1.0260
2809.00,1.0041
2808.00,0.9832
2807.00,0.9633
2806.00,0.9445
2805.00,0.9267
2804.00,0.9098
2803.00,0.8938
2802.00,0.8786
2801.00,0.8642
2800.00,0.8506
2799.00,0.8376
2798.00,0.8251
2797.00,0.8131
2796.00,0.8014
2795.00,0.7901
2794.00,0.7792
2793.00,0.7687
2792.00,0.7586
2791.00,0.7487
2790.00,0.7391
2789.00,0.7296
2788.00,0.7203
2787.00,0.7113
2786.00,0.7025
2785.00,0.6938
2784.00,0.6853
2783.00,0.6771
2782.00,0.6691
2781.00,0.6614
2780.00,0.6540
2779.00,0.6469
2778.00,0.6402
2777.00,0.6340
2776.00,0.6280
2775.00,0.6224
2774.00,0.6171
2773.00,0.6123
2772.00,0.6077
2771.00,0.6035
2770.00,0.5996
2769.00,0.5961
2768.00,0.5929
2767.00,0.5900
2766.00,0.5875
2765.00,0.5852
2764.00,0.5833
2763.00,0.5816
2762.00,0.5800
2761.00,0.5787
2760.00,0.5773
2759.00,0.5761
2758.00,0.5748
2757.00,0.5735
2756.00,0.5723
2755.00,0.5713
2754.00,0.5704
2753.00,0.5698
2752.00,0.5693
2751.00,0.5690
2750.00,0.5689
2749.00,0.5689
2748.00,0.5691
2747.00,0.5696
2746.00,0.5704
2745.00,0.5714
2744.00,0.5728
2743.00,0.5744
2742.00,0.5764
2741.00,0.5789
2740.00,0.5817
2739.00,0.5850
2738.00,0.5887
2737.00,0.5930
2736.00,0.5977
2735.00,0.6028
2734.00,0.6081
2733.00,0.6132
2732.00,0.6179
2731.00,0.6219
2730.00,0.6249
2729.00,0.6269
2728.00,0.6277
2727.00,0.6275
2726.00,0.6265
2725.00,0.6250
2724.00,0.6230
2723.00,0.6206
2722.00,0.6179
2721.00,0.6150
2720.00,0.6117
2719.00,0.6082
2718.00,0.6044
2717.00,0.6003
2716.00,0.5959
2715.00,0.5914
2714.00,0.5869
2713.00,0.5825
2712.00,0.5783
2711.00,0.5746
2710.00,0.5712
2709.00,0.5683
2708.00,0.5658
2707.00,0.5636
2706.00,0.5618
2705.00,0.5603
2704.00,0.5591
2703.00,0.5581
2702.00,0.5574
2701.00,0.5570
2700.00,0.5567
2699.00,0.5566
2698.00,0.5567
2697.00,0.5570
2696.00,0.5575
2695.00,0.5581
2694.00,0.5588
2693.00,0.5595
2692.00,0.5603
2691.00,0.5612
2690.00,0.5620
2689.00,0.5628
2688.00,0.5635
2687.00,0.5642
2686.00,0.5649
2685.00,0.5654
2684.00,0.5658
2683.00,0.5663
2682.00,0.5667
2681.00,0.5671
2680.00,0.5675
2679.00,0.5679
2678.00,0.5683
2677.00,0.5686
2676.00,0.5690
2675.00,0.5695
2674.00,0.5700
2673.00,0.5704
2672.00,0.5706
2671.00,0.5706
2670.00,0.5703
2669.00,0.5697
2668.00,0.5689
2667.00,0.5677
2666.00,0.5664
2665.00,0.5648
2664.00,0.5631
2663.00,0.5613
2662.00,0.5593
2661.00,0.5573
2660.00,0.5552
2659.00,0.5531
2658.00,0.5509
2657.00,0.5489
2656.00,0.5469
2655.00,0.5450
2654.00,0.5431
2653.00,0.5414
2652.00,0.5398
2651.00,0.5383
2650.00,0.5368
2649.00,0.5353
2648.00,0.5339
2647.00,0.5326
2646.00,0.5314
2645.00,0.5304
2644.00,0.5294
2643.00,0.5284
2642.00,0.5274
2641.00,0.5263
2640.00,0.5253
2639.00,0.5243
2638.00,0.5233
2637.00,0.5224
2636.00,0.5216
2635.00,0.5208
2634.00,0.5199
2633.00,0.5191
2632.00,0.5183
2631.00,0.5174
2630.00,0.5165
2629.00,0.5155
2628.00,0.5146
2627.00,0.5136
2626.00,0.5127
2625.00,0.5117
2624.00,0.5108
2623.00,0.5099
2622.00,0.5090
2621.00,0.5082
2620.00,0.5073
2619.00,0.5065
2618.00,0.5057
2617.00,0.5048
2616.00,0.5040
2615.00,0.5031
2614.00,0.5023
2613.00,0.5015
2612.00,0.5006
2611.00,0.4997
2610.00,0.4989
2609.00,0.4980
2608.00,0.4972
2607.00,0.4963
2606.00,0.4953
2605.00,0.4943
2604.00,0.4933
2603.00,0.4922
2602.00,0.4911
2601.00,0.4900
2600.00,0.4889
2599.00,0.4877
2598.00,0.4863
2597.00,0.4849
2596.00,0.4834
2595.00,0.4819
2594.00,0.4803
2593.00,0.4787
2592.00,0.4771
2591.00,0.4755
2590.00,0.4739
2589.00,0.4723
2588.00,0.4707
2587.00,0.4691
2586.00,0.4675
2585.00,0.4659
2584.00,0.4643
2583.00,0.4627
2582.00,0.4611
2581.00,0.4594
2580.00,0.4577
2579.00,0.4561
2578.00,0.4544
2577.00,0.4529
2576.00,0.4513
2575.00,0.4497
2574.00,0.4481
2573.00,0.4467
2572.00,0.4452
2571.00,0.4438
2570.00,0.4424
2569.00,0.4409
2568.00,0.4394
2567.00,0.4379
2566.00,0.4363
2565.00,0.4349
2564.00,0.4335
2563.00,0.4321
2562.00,0.4308
2561.00,0.4295
2560.00,0.4282
2559.00,0.4268
2558.00,0.4256
2557.00,0.4243
2556.00,0.4232
2555.00,0.4220
2554.00,0.4207
2553.00,0.4195
2552.00,0.4184
2551.00,0.4172
2550.00,0.4162
2549.00,0.4152
2548.00,0.4144
2547.00,0.4135
2546.00,0.4127
2545.00,0.4119
2544.00,0.4111
2543.00,0.4104
2542.00,0.4097
2541.00,0.4091
2540.00,0.4084
2539.00,0.4077
2538.00,0.4070
2537.00,0.4063
2536.00,0.4057
2535.00,0.4052
2534.00,0.4046
2533.00,0.4039
2532.00,0.4031
2531.00,0.4023
2530.00,0.4015
2529.00,0.4007
2528.00,0.3998
2527.00,0.3988
2526.00,0.3977
2525.00,0.3966
2524.00,0.3956
2523.00,0.3945
2522.00,0.3935
2521.00,0.3924
2520.00,0.3914
2519.00,0.3905
2518.00,0.3895
2517.00,0.3886
2516.00,0.3878
2515.00,0.3869
2514.00,0.3862
2513.00,0.3855
2512.00,0.3849
2511.00,0.3843
2510.00,0.3836
2509.00,0.3830
2508.00,0.3825
2507.00,0.3819
2506.00,0.3814
2505.00,0.3809
2504.00,0.3805
2503.00,0.3801
2502.00,0.3797
2501.00,0.3793
2500.00,0.3789
2499.00,0.3785
2498.00,0.3781
2497.00,0.3777
2496.00,0.3773
2495.00,0.3768
2494.00,0.3763
2493.00,0.3759
2492.00,0.3754
2491.00,0.3749
2490.00,0.3744
2489.00,0.3739
2488.00,0.3734
2487.00,0.3729
2486.00,0.3724
2485.00,0.3719
2484.00,0.3714
2483.00,0.3710
2482.00,0.3706
2481.00,0.3702
2480.00,0.3698
2479.00,0.3694
2478.00,0.3690
2477.00,0.3687
2476.00,0.3684
2475.00,0.3682
2474.00,0.3679
2473.00,0.3678
2472.00,0.3676
2471.00,0.3675
2470.00,0.3673
2469.00,0.3671
2468.00,0.3669
2467.00,0.3667
2466.00,0.3665
2465.00,0.3664
2464.00,0.3662
2463.00,0.3660
2462.00,0.3657
2461.00,0.3654
2460.00,0.3652
2459.00,0.3649
2458.00,0.3647
2457.00,0.3645
2456.00,0.3643
2455.00,0.3641
2454.00,0.3639
2453.00,0.3637
2452.00,0.3635
2451.00,0.3633
2450.00,0.3631
2449.00,0.3629
2448.00,0.3628
2447.00,0.3627
2446.00,0.3626
2445.00,0.3626
2444.00,0.3626
2443.00,0.3625
2442.00,0.3625
2441.00,0.3624
2440.00,0.3625
2439.00,0.3625
2438.00,0.3626
2437.00,0.3627
2436.00,0.3628
2435.00,0.3629
2434.00,0.3630
2433.00,0.3632
2432.00,0.3634
2431.00,0.3635
2430.00,0.3637
2429.00,0.3638
2428.00,0.3639
2427.00,0.3640
2426.00,0.3640
2425.00,0.3641
2424.00,0.3642
2423.00,0.3642
2422.00,0.3643
2421.00,0.3643
2420.00,0.3643
2419.00,0.3643
2418.00,0.3643
2417.00,0.3643
2416.00,0.3642
2415.00,0.3641
2414.00,0.3641
2413.00,0.3640
2412.00,0.3640
2411.00,0.3640
2410.00,0.3639
2409.00,0.3638
2408.00,0.3638
2407.00,0.3637
2406.00,0.3636
2405.00,0.3636
2404.00,0.3636
2403.00,0.3635
2402.00,0.3633
2401.00,0.3632
2400.00,0.3631
2399.00,0.3630
2398.00,0.3629
2397.00,0.3628
2396.00,0.3627
2395.00,0.3626
2394.00,0.3625
2393.00,0.3624
2392.00,0.3623
2391.00,0.3623
2390.00,0.3622
2389.00,0.3622
2388.00,0.3622
2387.00,0.3622
2386.00,0.3622
2385.00,0.3622
2384.00,0.3622
2383.00,0.3622
2382.00,0.3622
2381.00,0.3623
2380.00,0.3624
2379.00,0.3625
2378.00,0.3625
2377.00,0.3625
2376.00,0.3625
2375.00,0.3625
2374.00,0.3624
2373.00,0.3624
2372.00,0.3623
2371.00,0.3622
2370.00,0.3621
2369.00,0.3619
2368.00,0.3618
2367.00,0.3617
2366.00,0.3617
2365.00,0.3617
2364.00,0.3617
2363.00,0.3617
2362.00,0.3617
2361.00,0.3617
2360.00,0.3617
2359.00,0.3616
2358.00,0.3615
2357.00,0.3614
2356.00,0.3614
2355.00,0.3613
2354.00,0.3612
2353.00,0.3611
2352.00,0.3610
2351.00,0.3609
2350.00,0.3608
2349.00,0.3608
2348.00,0.3606
2347.00,0.3605
2346.00,0.3604
2345.00,0.3604
2344.00,0.3603
2343.00,0.3602
2342.00,0.3600
2341.00,0.3599
2340.00,0.3597
2339.00,0.3596
2338.00,0.3595
2337.00,0.3595
2336.00,0.3595
2335.00,0.3594
2334.00,0.3592
2333.00,0.3590
2332.00,0.3588
2331.00,0.3586
2330.00,0.3583
2329.00,0.3581
2328.00,0.3579
2327.00,0.3577
2326.00,0.3575
2325.00,0.3573
2324.00,0.3571
2323.00,0.3570
2322.00,0.3568
2321.00,0.3566
2320.00,0.3564
2319.00,0.3561
2318.00,0.3557
2317.00,0.3554
2316.00,0.3551
2315.00,0.3549
2314.00,0.3547
2313.00,0.3545
2312.00,0.3542
2311.00,0.3538
2310.00,0.3534
2309.00,0.3530
2308.00,0.3527
2307.00,0.3524
2306.00,0.3520
2305.00,0.3516
2304.00,0.3513
2303.00,0.3509
2302.00,0.3506
2301.00,0.3503
2300.00,0.3500
2299.00,0.3497
2298.00,0.3493
2297.00,0.3490
2296.00,0.3486
2295.00,0.3482
2294.00,0.3478
2293.00,0.3475
2292.00,0.3472
2291.00,0.3468
2290.00,0.3465
2289.00,0.3461
2288.00,0.3458
2287.00,0.3455
2286.00,0.3452
2285.00,0.3449
2284.00,0.3446
2283.00,0.3443
2282.00,0.3440
2281.00,0.3438
2280.00,0.3435
2279.00,0.3433
2278.00,0.3431
2277.00,0.3428
2276.00,0.3425
2275.00,0.3423
2274.00,0.3420
2273.00,0.3418
2272.00,0.3416
2271.00,0.3414
2270.00,0.3412
2269.00,0.3411
2268.00,0.3410
2267.00,0.3408
2266.00,0.3406
2265.00,0.3404
2264.00,0.3402
2263.00,0.3400
2262.00,0.3398
2261.00,0.3395
2260.00,0.3393
2259.00,0.3390
2258.00,0.3387
2257.00,0.3384
2256.00,0.3381
2255.00,0.3378
2254.00,0.3375
2253.00,0.3372
2252.00,0.3369
2251.00,0.3367
2250.00,0.3364
2249.00,0.3362
2248.00,0.3359
2247.00,0.3356
2246.00,0.3354
2245.00,0.3352
2244.00,0.3350
2243.00,0.3348
2242.00,0.3346
2241.00,0.3344
2240.00,0.3342
2239.00,0.3341
2238.00,0.3341
2237.00,0.3340
2236.00,0.3339
2235.00,0.3338
2234.00,0.3337
2233.00,0.3337
2232.00,0.3336
2231.00,0.3336
2230.00,0.3335
2229.00,0.3335
2228.00,0.3334
2227.00,0.3333
2226.00,0.3332
2225.00,0.3332
2224.00,0.3331
2223.00,0.3330
2222.00,0.3329
2221.00,0.3327
2220.00,0.3326
2219.00,0.3325
2218.00,0.3324
2217.00,0.3322
2216.00,0.3321
2215.00,0.3320
2214.00,0.3319
2213.00,0.3317
2212.00,0.3316
2211.00,0.3314
2210.00,0.3313
2209.00,0.3313
2208.00,0.3312
2207.00,0.3312
2206.00,0.3311
2205.00,0.3311
2204.00,0.3310
2203.00,0.3308
2202.00,0.3308
2201.00,0.3308
2200.00,0.3309
2199.00,0.3309
2198.00,0.3310
2197.00,0.3311
2196.00,0.3312
2195.00,0.3313
2194.00,0.3314
2193.00,0.3315
2192.00,0.3316
2191.00,0.3317
2190.00,0.3317
2189.00,0.3318
2188.00,0.3318
2187.00,0.3318
2186.00,0.3318
2185.00,0.3318
2184.00,0.3317
2183.00,0.3316
2182.00,0.3314
2181.00,0.3313
2180.00,0.3312
2179.00,0.3310
2178.00,0.3308
2177.00,0.3306
2176.00,0.3304
2175.00,0.3301
2174.00,0.3299
2173.00,0.3297
2172.00,0.3295
2171.00,0.3294
2170.00,0.3293
2169.00,0.3292
2168.00,0.3291
2167.00,0.3289
2166.00,0.3287
2165.00,0.3285
2164.00,0.3284
2163.00,0.3282
2162.00,0.3281
2161.00,0.3280
2160.00,0.3280
2159.00,0.3280
2158.00,0.3279
2157.00,0.3278
2156.00,0.3277
2155.00,0.3277
2154.00,0.3276
2153.00,0.3276
2152.00,0.3276
2151.00,0.3275
2150.00,0.3273
2149.00,0.3270
2148.00,0.3267
2147.00,0.3264
2146.00,0.3260
2145.00,0.3256
2144.00,0.3251
2143.00,0.3247
2142.00,0.3243
2141.00,0.3238
2140.00,0.3234
2139.00,0.3229
2138.00,0.3224
2137.00,0.3219
2136.00,0.3215
2135.00,0.3212
2134.00,0.3209
2133.00,0.3207
2132.00,0.3205
2131.00,0.3202
2130.00,0.3199
2129.00,0.3197
2128.00,0.3196
2127.00,0.3195
2126.00,0.3194
2125.00,0.3194
2124.00,0.3193
2123.00,0.3192
2122.00,0.3192
2121.00,0.3191
2120.00,0.3191
2119.00,0.3191
2118.00,0.3191
2117.00,0.3191
2116.00,0.3191
2115.00,0.3191
2114.00,0.3191
2113.00,0.3191
2112.00,0.3190
2111.00,0.3189
2110.00,0.3188
2109.00,0.3188
2108.00,0.3187
2107.00,0.3186
2106.00,0.3184
2105.00,0.3183
2104.00,0.3182
2103.00,0.3181
2102.00,0.3179
2101.00,0.3178
2100.00,0.3176
2099.00,0.3174
2098.00,0.3172
2097.00,0.3171
2096.00,0.3171
2095.00,0.3170
2094.00,0.3169
2093.00,0.3168
2092.00,0.3167
2091.00,0.3166
2090.00,0.3165
2089.00,0.3165
2088.00,0.3165
2087.00,0.3166
2086.00,0.3166
2085.00,0.3166
2084.00,0.3167
2083.00,0.3167
2082.00,0.3168
2081.00,0.3168
2080.00,0.3170
2079.00,0.3171
2078.00,0.3171
2077.00,0.3172
2076.00,0.3173
2075.00,0.3174
2074.00,0.3175
2073.00,0.3175
2072.00,0.3176
2071.00,0.3176
2070.00,0.3176
2069.00,0.3177
2068.00,0.3178
2067.00,0.3179
2066.00,0.3180
2065.00,0.3181
2064.00,0.3181
2063.00,0.3182
2062.00,0.3182
2061.00,0.3182
2060.00,0.3182
2059.00,0.3182
2058.00,0.3183
2057.00,0.3183
2056.00,0.3184
2055.00,0.3185
2054.00,0.3186
2053.00,0.3187
2052.00,0.3188
2051.00,0.3189
2050.00,0.3190
2049.00,0.3192
2048.00,0.3194
2047.00,0.3196
2046.00,0.3197
2045.00,0.3199
2044.00,0.3201
2043.00,0.3203
2042.00,0.3205
2041.00,0.3207
2040.00,0.3209
2039.00,0.3211
2038.00,0.3212
2037.00,0.3214
2036.00,0.3215
2035.00,0.3216
2034.00,0.3216
2033.00,0.3217
2032.00,0.3217
2031.00,0.3217
2030.00,0.3217
2029.00,0.3217
2028.00,0.3216
2027.00,0.3215
2026.00,0.3214
2025.00,0.3212
2024.00,0.3210
2023.00,0.3207
2022.00,0.3204
2021.00,0.3200
2020.00,0.3196
2019.00,0.3190
2018.00,0.3185
2017.00,0.3179
2016.00,0.3174
2015.00,0.3168
2014.00,0.3162
2013.00,0.3156
2012.00,0.3151
2011.00,0.3147
2010.00,0.3142
2009.00,0.3139
2008.00,0.3136
2007.00,0.3133
2006.00,0.3130
2005.00,0.3127
2004.00,0.3125
2003.00,0.3124
2002.00,0.3123
2001.00,0.3122
2000.00,0.3122
1999.00,0.3122
1998.00,0.3122
1997.00,0.3121
1996.00,0.3120
1995.00,0.3119
1994.00,0.3117
1993.00,0.3117
1992.00,0.3116
1991.00,0.3116
1990.00,0.3115
1989.00,0.3114
1988.00,0.3113
1987.00,0.3113
1986.00,0.3112
1985.00,0.3112
1984.00,0.3111
1983.00,0.3110
1982.00,0.3108
1981.00,0.3107
1980.00,0.3107
1979.00,0.3106
1978.00,0.3105
1977.00,0.3104
1976.00,0.3103
1975.00,0.3103
1974.00,0.3102
1973.00,0.3102
1972.00,0.3102
1971.00,0.3102
1970.00,0.3102
1969.00,0.3102
1968.00,0.3102
1967.00,0.3103
1966.00,0.3104
1965.00,0.3105
1964.00,0.3107
1963.00,0.3108
1962.00,0.3109
1961.00,0.3111
1960.00,0.3113
1959.00,0.3114
1958.00,0.3116
1957.00,0.3118
1956.00,0.3119
1955.00,0.3120
1954.00,0.3121
1953.00,0.3123
1952.00,0.3124
1951.00,0.3125
1950.00,0.3126
1949.00,0.3127
1948.00,0.3128
1947.00,0.3129
1946.00,0.3131
1945.00,0.3133
1944.00,0.3136
1943.00,0.3139
1942.00,0.3144
1941.00,0.3149
1940.00,0.3154
1939.00,0.3158
1938.00,0.3159
1937.00,0.3159
1936.00,0.3159
1935.00,0.3157
1934.00,0.3155
1933.00,0.3154
1932.00,0.3153
1931.00,0.3153
1930.00,0.3153
1929.00,0.3155
1928.00,0.3156
1927.00,0.3156
1926.00,0.3157
1925.00,0.3158
1924.00,0.3161
1923.00,0.3164
1922.00,0.3167
1921.00,0.3172
1920.00,0.3177
1919.00,0.3182
1918.00,0.3186
1917.00,0.3190
1916.00,0.3194
1915.00,0.3196
1914.00,0.3198
1913.00,0.3199
1912.00,0.3200
1911.00,0.3200
1910.00,0.3199
1909.00,0.3200
1908.00,0.3201
1907.00,0.3201
1906.00,0.3201
1905.00,0.3202
1904.00,0.3202
1903.00,0.3202
1902.00,0.3202
1901.00,0.3202
1900.00,0.3202
1899.00,0.3201
1898.00,0.3201
1897.00,0.3202
1896.00,0.3203
1895.00,0.3204
1894.00,0.3205
1893.00,0.3206
1892.00,0.3208
1891.00,0.3209
1890.00,0.3210
1889.00,0.3212
1888.00,0.3214
1887.00,0.3216
1886.00,0.3217
1885.00,0.3218
1884.00,0.3219
1883.00,0.3219
1882.00,0.3220
1881.00,0.3221
1880.00,0.3221
1879.00,0.3221
1878.00,0.3220
1877.00,0.3218
1876.00,0.3217
1875.00,0.3216
1874.00,0.3215
1873.00,0.3213
1872.00,0.3210
1871.00,0.3207
1870.00,0.3204
1869.00,0.3202
1868.00,0.3201
1867.00,0.3200
1866.00,0.3199
1865.00,0.3198
1864.00,0.3196
1863.00,0.3193
1862.00,0.3190
1861.00,0.3187
1860.00,0.3184
1859.00,0.3181
1858.00,0.3177
1857.00,0.3174
1856.00,0.3171
1855.00,0.3168
1854.00,0.3166
1853.00,0.3164
1852.00,0.3163
1851.00,0.3162
1850.00,0.3161
1849.00,0.3161
1848.00,0.3160
1847.00,0.3158
1846.00,0.3157
1845.00,0.3156
1844.00,0.3156
1843.00,0.3156
1842.00,0.3156
1841.00,0.3157
1840.00,0.3158
1839.00,0.3158
1838.00,0.3157
1837.00,0.3156
1836.00,0.3157
1835.00,0.3156
1834.00,0.3155
1833.00,0.3154
1832.00,0.3153
1831.00,0.3151
1830.00,0.3150
1829.00,0.3149
1828.00,0.3149
1827.00,0.3149
1826.00,0.3147
1825.00,0.3146
1824.00,0.3146
1823.00,0.3146
1822.00,0.3147
1821.00,0.3148
1820.00,0.3148
1819.00,0.3148
1818.00,0.3147
1817.00,0.3147
1816.00,0.3148
1815.00,0.3148
1814.00,0.3149
1813.00,0.3150
1812.00,0.3151
1811.00,0.3153
1810.00,0.3155
1809.00,0.3158
1808.00,0.3162
1807.00,0.3165
1806.00,0.3168
1805.00,0.3172
1804.00,0.3177
1803.00,0.3181
1802.00,0.3186
1801.00,0.3193
1800.00,0.3200
1799.00,0.3208
1798.00,0.3214
1797.00,0.3219
1796.00,0.3224
1795.00,0.3226
1794.00,0.3228
1793.00,0.3231
1792.00,0.3235
1791.00,0.3240
1790.00,0.3245
1789.00,0.3251
1788.00,0.3256
1787.00,0.3260
1786.00,0.3262
1785.00,0.3264
1784.00,0.3267
1783.00,0.3269
1782.00,0.3272
1781.00,0.3275
1780.00,0.3280
1779.00,0.3284
1778.00,0.3288
1777.00,0.3292
1776.00,0.3297
1775.00,0.3301
1774.00,0.3306
1773.00,0.3311
1772.00,0.3319
1771.00,0.3328
1770.00,0.3338
1769.00,0.3349
1768.00,0.3361
1767.00,0.3372
1766.00,0.3382
1765.00,0.3392
1764.00,0.3405
1763.00,0.3419
1762.00,0.3435
1761.00,0.3453
1760.00,0.3474
1759.00,0.3495
1758.00,0.3519
1757.00,0.3547
1756.00,0.3577
1755.00,0.3608
1754.00,0.3638
1753.00,0.3671
1752.00,0.3706
1751.00,0.3742
1750.00,0.3777
1749.00,0.3811
1748.00,0.3843
1747.00,0.3871
1746.00,0.3894
1745.00,0.3913
1744.00,0.3929
1743.00,0.3940
1742.00,0.3947
1741.00,0.3952
1740.00,0.3955
1739.00,0.3953
1738.00,0.3949
1737.00,0.3945
1736.00,0.3939
1735.00,0.3929
1734.00,0.3915
1733.00,0.3903
1732.00,0.3896
1731.00,0.3891
1730.00,0.3889
1729.00,0.3889
1728.00,0.3893
1727.00,0.3899
1726.00,0.3909
1725.00,0.3924
1724.00,0.3945
1723.00,0.3969
1722.00,0.3998
1721.00,0.4032
1720.00,0.4074
1719.00,0.4129
1718.00,0.4203
1717.00,0.4293
1716.00,0.4393
1715.00,0.4502
1714.00,0.4619
1713.00,0.4740
1712.00,0.4858
1711.00,0.4969
1710.00,0.5066
1709.00,0.5140
1708.00,0.5180
1707.00,0.5187
1706.00,0.5160
1705.00,0.5103
1704.00,0.5030
1703.00,0.4952
1702.00,0.4861
1701.00,0.4737
1700.00,0.4593
1699.00,0.4475
1698.00,0.4393
1697.00,0.4325
1696.00,0.4248
1695.00,0.4171
1694.00,0.4110
1693.00,0.4067
1692.00,0.4032
1691.00,0.3998
1690.00,0.3965
1689.00,0.3938
1688.00,0.3919
1687.00,0.3903
1686.00,0.3886
1685.00,0.3865
1684.00,0.3842
1683.00,0.3824
1682.00,0.3814
1681.00,0.3809
1680.00,0.3803
1679.00,0.3796
1678.00,0.3788
1677.00,0.3782
1676.00,0.3776
1675.00,0.3769
1674.00,0.3763
1673.00,0.3759
1672.00,0.3756
1671.00,0.3753
1670.00,0.3751
1669.00,0.3751
1668.00,0.3752
1667.00,0.3752
1666.00,0.3752
1665.00,0.3751
1664.00,0.3751
1663.00,0.3751
1662.00,0.3752
1661.00,0.3756
1660.00,0.3761
1659.00,0.3764
1658.00,0.3766
1657.00,0.3770
1656.00,0.3775
1655.00,0.3781
1654.00,0.3787
1653.00,0.3799
1652.00,0.3808
1651.00,0.3812
1650.00,0.3816
1649.00,0.3824
1648.00,0.3837
1647.00,0.3851
1646.00,0.3868
1645.00,0.3885
1644.00,0.3901
1643.00,0.3915
1642.00,0.3930
1641.00,0.3945
1640.00,0.3961
1639.00,0.3976
1638.00,0.3992
1637.00,0.4012
1636.00,0.4037
1635.00,0.4063
1634.00,0.4087
1633.00,0.4111
1632.00,0.4134
1631.00,0.4155
1630.00,0.4177
1629.00,0.4202
1628.00,0.4230
1627.00,0.4259
1626.00,0.4288
1625.00,0.4321
1624.00,0.4362
1623.00,0.4409
1622.00,0.4460
1621.00,0.4516
1620.00,0.4577
1619.00,0.4644
1618.00,0.4726
1617.00,0.4829
1616.00,0.4945
1615.00,0.5055
1614.00,0.5155
1613.00,0.5254
1612.00,0.5359
1611.00,0.5464
1610.00,0.5567
1609.00,0.5669
1608.00,0.5768
1607.00,0.5857
1606.00,0.5933
1605.00,0.6003
1604.00,0.6071
1603.00,0.6134
1602.00,0.6193
1601.00,0.6257
1600.00,0.6330
1599.00,0.6409
1598.00,0.6499
1597.00,0.6613
1596.00,0.6762
1595.00,0.6949
1594.00,0.7181
1593.00,0.7479
1592.00,0.7860
1591.00,0.8339
1590.00,0.8937
1589.00,0.9700
1588.00,1.0678
1587.00,1.1904
1586.00,1.3405
1585.00,1.5233
1584.00,1.7447
1583.00,1.9895
1582.00,2.1834
1581.00,2.2335
1580.00,2.1436
1579.00,1.9647
1578.00,1.7450
1577.00,1.5297
1576.00,1.3486
1575.00,1.2139
1574.00,1.1210
1573.00,1.0565
1572.00,1.0087
1571.00,0.9710
1570.00,0.9438
1569.00,0.9311
1568.00,0.9349
1567.00,0.9539
1566.00,0.9886
1565.00,1.0420
1564.00,1.1122
1563.00,1.1885
1562.00,1.2567
1561.00,1.3045
1560.00,1.3033
1559.00,1.2226
1558.00,1.1083
1557.00,1.0148
1556.00,0.9407
1555.00,0.8725
1554.00,0.8099
1553.00,0.7587
1552.00,0.7200
1551.00,0.6890
1550.00,0.6625
1549.00,0.6408
1548.00,0.6243
1547.00,0.6114
1546.00,0.6002
1545.00,0.5903
1544.00,0.5820
1543.00,0.5753
1542.00,0.5693
1541.00,0.5639
1540.00,0.5586
1539.00,0.5534
1538.00,0.5487
1537.00,0.5451
1536.00,0.5421
1535.00,0.5390
1534.00,0.5358
1533.00,0.5334
1532.00,0.5325
1531.00,0.5326
1530.00,0.5332
1529.00,0.5341
1528.00,0.5351
1527.00,0.5354
1526.00,0.5349
1525.00,0.5342
1524.00,0.5337
1523.00,0.5337
1522.00,0.5344
1521.00,0.5362
1520.00,0.5389
1519.00,0.5418
1518.00,0.5452
1517.00,0.5492
1516.00,0.5531
1515.00,0.5557
1514.00,0.5570
1513.00,0.5577
1512.00,0.5584
1511.00,0.5594
1510.00,0.5612
1509.00,0.5646
1508.00,0.5706
1507.00,0.5800
1506.00,0.5920
1505.00,0.6039
1504.00,0.6142
1503.00,0.6229
1502.00,0.6307
1501.00,0.6384
1500.00,0.6457
1499.00,0.6525
1498.00,0.6599
1497.00,0.6691
1496.00,0.6800
1495.00,0.6907
1494.00,0.7011
1493.00,0.7121
1492.00,0.7246
1491.00,0.7388
1490.00,0.7549
1489.00,0.7732
1488.00,0.7931
1487.00,0.8141
1486.00,0.8375
1485.00,0.8646
1484.00,0.8959
1483.00,0.9319
1482.00,0.9746
1481.00,1.0252
1480.00,1.0820
1479.00,1.1438
1478.00,1.2140
1477.00,1.2982
1476.00,1.3975
1475.00,1.5112
1474.00,1.6479
1473.00,1.8276
1472.00,2.0624
1471.00,2.3380
1470.00,2.6354
1469.00,2.9623
1468.00,3.3015
1467.00,3.5294
1466.00,3.7087
1465.00,4.1946
1464.00,4.6753
1463.00,3.9451
1462.00,3.8393
1461.00,4.0868
1460.00,4.1398
1459.00,3.9915
1458.00,3.7425
1457.00,3.6833
1456.00,3.8769
1455.00,3.7577
1454.00,3.6003
1453.00,3.7084
1452.00,3.7530
1451.00,3.5770
1450.00,3.4714
1449.00,3.4605
1448.00,3.3580
1447.00,3.1529
1446.00,2.9974
1445.00,2.8812
1444.00,2.7375
1443.00,2.5729
1442.00,2.4277
1441.00,2.3062
1440.00,2.1927
1439.00,2.0791
1438.00,1.9633
1437.00,1.8429
1436.00,1.7241
1435.00,1.6181
1434.00,1.5257
1433.00,1.4393
1432.00,1.3543
1431.00,1.2730
1430.00,1.1996
1429.00,1.1366
1428.00,1.0844
1427.00,1.0425
1426.00,1.0084
1425.00,0.9795
1424.00,0.9554
1423.00,0.9370
1422.00,0.9233
1421.00,0.9119
1420.00,0.9009
1419.00,0.8904
1418.00,0.8812
1417.00,0.8735
1416.00,0.8672
1415.00,0.8622
1414.00,0.8584
1413.00,0.8555
1412.00,0.8535
1411.00,0.8521
1410.00,0.8505
1409.00,0.8475
1408.00,0.8423
1407.00,0.8346
1406.00,0.8242
1405.00,0.8112
1404.00,0.7971
1403.00,0.7838
1402.00,0.7720
1401.00,0.7613
1400.00,0.7518
1399.00,0.7442
1398.00,0.7391
1397.00,0.7364
1396.00,0.7366
1395.00,0.7404
1394.00,0.7482
1393.00,0.7605
1392.00,0.7787
1391.00,0.8050
1390.00,0.8417
1389.00,0.8920
1388.00,0.9602
1387.00,1.0471
1386.00,1.1471
1385.00,1.2525
1384.00,1.3613
1383.00,1.4772
1382.00,1.6046
1381.00,1.7472
1380.00,1.9076
1379.00,2.0744
1378.00,2.2066
1377.00,2.2518
1376.00,2.1963
1375.00,2.0656
1374.00,1.9021
1373.00,1.7463
1372.00,1.6173
1371.00,1.5167
1370.00,1.4422
1369.00,1.3922
1368.00,1.3620
1367.00,1.3405
1366.00,1.3126
1365.00,1.2669
1364.00,1.2034
1363.00,1.1318
1362.00,1.0648
1361.00,1.0104
1360.00,0.9693
1359.00,0.9391
1358.00,0.9170
1357.00,0.9013
1356.00,0.8908
1355.00,0.8846
1354.00,0.8811
1353.00,0.8792
1352.00,0.8776
1351.00,0.8757
1350.00,0.8734
1349.00,0.8706
1348.00,0.8676
1347.00,0.8646
1346.00,0.8621
1345.00,0.8600
1344.00,0.8582
1343.00,0.8563
1342.00,0.8536
1341.00,0.8491
1340.00,0.8425
1339.00,0.8337
1338.00,0.8226
1337.00,0.8098
1336.00,0.7957
1335.00,0.7812
1334.00,0.7670
1333.00,0.7538
1332.00,0.7419
1331.00,0.7318
1330.00,0.7237
1329.00,0.7175
1328.00,0.7132
1327.00,0.7104
1326.00,0.7089
1325.00,0.7083
1324.00,0.7084
1323.00,0.7089
1322.00,0.7096
1321.00,0.7102
1320.00,0.7108
1319.00,0.7116
1318.00,0.7128
1317.00,0.7146
1316.00,0.7170
1315.00,0.7199
1314.00,0.7233
1313.00,0.7272
1312.00,0.7312
1311.00,0.7352
1310.00,0.7389
1309.00,0.7419
1308.00,0.7443
1307.00,0.7461
1306.00,0.7470
1305.00,0.7469
1304.00,0.7454
1303.00,0.7426
1302.00,0.7387
1301.00,0.7339
1300.00,0.7286
1299.00,0.7230
1298.00,0.7173
1297.00,0.7116
1296.00,0.7061
1295.00,0.7011
1294.00,0.6966
1293.00,0.6925
1292.00,0.6887
1291.00,0.6849
1290.00,0.6813
1289.00,0.6778
1288.00,0.6744
1287.00,0.6711
1286.00,0.6677
1285.00,0.6638
1284.00,0.6598
1283.00,0.6558
1282.00,0.6521
1281.00,0.6489
1280.00,0.6461
1279.00,0.6438
1278.00,0.6418
1277.00,0.6399
1276.00,0.6378
1275.00,0.6356
1274.00,0.6336
1273.00,0.6320
1272.00,0.6308
1271.00,0.6302
1270.00,0.6299
1269.00,0.6294
1268.00,0.6284
1267.00,0.6263
1266.00,0.6232
1265.00,0.6193
1264.00,0.6153
1263.00,0.6120
1262.00,0.6096
1261.00,0.6077
1260.00,0.6060
1259.00,0.6044
1258.00,0.6025
1257.00,0.6003
1256.00,0.5976
1255.00,0.5950
1254.00,0.5926
1253.00,0.5905
1252.00,0.5887
1251.00,0.5870
1250.00,0.5855
1249.00,0.5838
1248.00,0.5820
1247.00,0.5799
1246.00,0.5776
1245.00,0.5751
1244.00,0.5722
1243.00,0.5691
1242.00,0.5659
1241.00,0.5625
1240.00,0.5593
1239.00,0.5564
1238.00,0.5540
1237.00,0.5520
1236.00,0.5506
1235.00,0.5496
1234.00,0.5492
1233.00,0.5491
1232.00,0.5493
1231.00,0.5499
1230.00,0.5506
1229.00,0.5507
1228.00,0.5499
1227.00,0.5479
1226.00,0.5450
1225.00,0.5416
1224.00,0.5382
1223.00,0.5352
1222.00,0.5328
1221.00,0.5309
1220.00,0.5296
1219.00,0.5290
1218.00,0.5291
1217.00,0.5296
1216.00,0.5305
1215.00,0.5318
1214.00,0.5330
1213.00,0.5336
1212.00,0.5335
1211.00,0.5329
1210.00,0.5318
1209.00,0.5305
1208.00,0.5291
1207.00,0.5275
1206.00,0.5258
1205.00,0.5241
1204.00,0.5225
1203.00,0.5210
1202.00,0.5199
1201.00,0.5191
1200.00,0.5187
1199.00,0.5185
1198.00,0.5183
1197.00,0.5180
1196.00,0.5174
1195.00,0.5167
1194.00,0.5160
1193.00,0.5153
1192.00,0.5146
1191.00,0.5140
1190.00,0.5134
1189.00,0.5129
1188.00,0.5123
1187.00,0.5118
1186.00,0.5114
1185.00,0.5111
1184.00,0.5108
1183.00,0.5107
1182.00,0.5108
1181.00,0.5111
1180.00,0.5115
1179.00,0.5123
1178.00,0.5136
1177.00,0.5153
1176.00,0.5175
1175.00,0.5206
1174.00,0.5246
1173.00,0.5292
1172.00,0.5341
1171.00,0.5386
1170.00,0.5419
1169.00,0.5436
1168.00,0.5436
1167.00,0.5426
1166.00,0.5410
1165.00,0.5396
1164.00,0.5387
1163.00,0.5386
1162.00,0.5392
1161.00,0.5404
1160.00,0.5419
1159.00,0.5434
1158.00,0.5448
1157.00,0.5458
1156.00,0.5463
1155.00,0.5463
1154.00,0.5455
1153.00,0.5439
1152.00,0.5418
1151.00,0.5395
1150.00,0.5370
1149.00,0.5344
1148.00,0.5319
1147.00,0.5296
1146.00,0.5278
1145.00,0.5264
1144.00,0.5255
1143.00,0.5255
1142.00,0.5264
1141.00,0.5284
1140.00,0.5316
1139.00,0.5361
1138.00,0.5421
1137.00,0.5493
1136.00,0.5576
1135.00,0.5663
1134.00,0.5740
1133.00,0.5788
1132.00,0.5790
1131.00,0.5747
1130.00,0.5673
1129.00,0.5588
1128.00,0.5511
1127.00,0.5452
1126.00,0.5411
1125.00,0.5384
1124.00,0.5365
1123.00,0.5351
1122.00,0.5336
1121.00,0.5319
1120.00,0.5306
1119.00,0.5302
1118.00,0.5313
1117.00,0.5338
1116.00,0.5373
1115.00,0.5409
1114.00,0.5432
1113.00,0.5425
1112.00,0.5387
1111.00,0.5327
1110.00,0.5261
1109.00,0.5200
1108.00,0.5153
1107.00,0.5120
1106.00,0.5101
1105.00,0.5091
1104.00,0.5086
1103.00,0.5083
1102.00,0.5079
1101.00,0.5073
1100.00,0.5065
1099.00,0.5055
1098.00,0.5046
1097.00,0.5036
1096.00,0.5028
1095.00,0.5023
1094.00,0.5022
1093.00,0.5024
1092.00,0.5029
1091.00,0.5036
1090.00,0.5048
1089.00,0.5065
1088.00,0.5088
1087.00,0.5119
1086.00,0.5156
1085.00,0.5201
1084.00,0.5254
1083.00,0.5317
1082.00,0.5389
1081.00,0.5467
1080.00,0.5546
1079.00,0.5618
1078.00,0.5675
1077.00,0.5705
1076.00,0.5704
1075.00,0.5672
1074.00,0.5618
1073.00,0.5551
1072.00,0.5486
1071.00,0.5429
1070.00,0.5383
1069.00,0.5348
1068.00,0.5321
1067.00,0.5302
1066.00,0.5289
1065.00,0.5281
1064.00,0.5277
1063.00,0.5278
1062.00,0.5283
1061.00,0.5290
1060.00,0.5298
1059.00,0.5303
1058.00,0.5304
1057.00,0.5299
1056.00,0.5290
1055.00,0.5282
1054.00,0.5276
1053.00,0.5273
1052.00,0.5273
1051.00,0.5280
1050.00,0.5295
1049.00,0.5314
1048.00,0.5335
1047.00,0.5355
1046.00,0.5372
1045.00,0.5383
1044.00,0.5386
1043.00,0.5385
1042.00,0.5381
1041.00,0.5376
1040.00,0.5370
1039.00,0.5364
1038.00,0.5358
1037.00,0.5352
1036.00,0.5348
1035.00,0.5350
1034.00,0.5359
1033.00,0.5374
1032.00,0.5393
1031.00,0.5412
1030.00,0.5428
1029.00,0.5437
1028.00,0.5435
1027.00,0.5421
1026.00,0.5392
1025.00,0.5349
1024.00,0.5296
1023.00,0.5239
1022.00,0.5185
1021.00,0.5135
1020.00,0.5091
1019.00,0.5053
1018.00,0.5020
1017.00,0.4989
1016.00,0.4961
1015.00,0.4936
1014.00,0.4916
1013.00,0.4900
1012.00,0.4887
1011.00,0.4877
1010.00,0.4871
1009.00,0.4868
1008.00,0.4869
1007.00,0.4874
1006.00,0.4882
1005.00,0.4894
1004.00,0.4907
1003.00,0.4923
1002.00,0.4940
1001.00,0.4954
1000.00,0.4966
999.00,0.4972
998.00,0.4972
997.00,0.4964
996.00,0.4947
995.00,0.4924
994.00,0.4895
993.00,0.4861
992.00,0.4825
991.00,0.4790
990.00,0.4757
989.00,0.4727
988.00,0.4704
987.00,0.4688
986.00,0.4683
985.00,0.4685
984.00,0.4694
983.00,0.4709
982.00,0.4729
981.00,0.4752
980.00,0.4776
979.00,0.4799
978.00,0.4819
977.00,0.4836
976.00,0.4850
975.00,0.4861
974.00,0.4868
973.00,0.4871
972.00,0.4871
971.00,0.4869
970.00,0.4867
969.00,0.4865
968.00,0.4862
967.00,0.4857
966.00,0.4851
965.00,0.4841
964.00,0.4829
963.00,0.4816
962.00,0.4803
961.00,0.4789
960.00,0.4776
959.00,0.4765
958.00,0.4756
957.00,0.4749
956.00,0.4744
955.00,0.4738
954.00,0.4729
953.00,0.4718
952.00,0.4706
951.00,0.4696
950.00,0.4690
949.00,0.4688
948.00,0.4688
947.00,0.4692
946.00,0.4700
945.00,0.4711
944.00,0.4724
943.00,0.4739
942.00,0.4756
941.00,0.4771
940.00,0.4785
939.00,0.4794
938.00,0.4798
937.00,0.4795
936.00,0.4785
935.00,0.4769
934.00,0.4751
933.00,0.4730
932.00,0.4708
931.00,0.4686
930.00,0.4665
929.00,0.4649
928.00,0.4639
927.00,0.4641
926.00,0.4657
925.00,0.4688
924.00,0.4733
923.00,0.4785
922.00,0.4833
921.00,0.4862
920.00,0.4859
919.00,0.4821
918.00,0.4755
917.00,0.4674
916.00,0.4589
915.00,0.4512
914.00,0.4447
913.00,0.4395
912.00,0.4355
911.00,0.4324
910.00,0.4302
909.00,0.4284
908.00,0.4271
907.00,0.4262
906.00,0.4256
905.00,0.4252
904.00,0.4253
903.00,0.4261
902.00,0.4275
901.00,0.4293
900.00,0.4315
899.00,0.4343
898.00,0.4377
897.00,0.4414
896.00,0.4453
895.00,0.4492
894.00,0.4533
893.00,0.4575
892.00,0.4615
891.00,0.4652
890.00,0.4681
889.00,0.4700
888.00,0.4704
887.00,0.4694
886.00,0.4674
885.00,0.4650
884.00,0.4631
883.00,0.4625
882.00,0.4633
881.00,0.4652
880.00,0.4674
879.00,0.4695
878.00,0.4707
877.00,0.4708
876.00,0.4700
875.00,0.4691
874.00,0.4685
873.00,0.4681
872.00,0.4681
871.00,0.4684
870.00,0.4693
869.00,0.4707
868.00,0.4726
867.00,0.4753
866.00,0.4787
865.00,0.4827
864.00,0.4869
863.00,0.4904
862.00,0.4918
861.00,0.4899
860.00,0.4847
859.00,0.4774
858.00,0.4698
857.00,0.4634
856.00,0.4586
855.00,0.4555
854.00,0.4534
853.00,0.4519
852.00,0.4506
851.00,0.4494
850.00,0.4482
849.00,0.4466
848.00,0.4444
847.00,0.4418
846.00,0.4392
845.00,0.4366
844.00,0.4342
843.00,0.4325
842.00,0.4318
841.00,0.4327
840.00,0.4356
839.00,0.4407
838.00,0.4473
837.00,0.4541
836.00,0.4588
835.00,0.4600
834.00,0.4577
833.00,0.4533
832.00,0.4489
831.00,0.4462
830.00,0.4457
829.00,0.4472
828.00,0.4503
827.00,0.4547
826.00,0.4601
825.00,0.4660
824.00,0.4725
823.00,0.4795
822.00,0.4870
821.00,0.4943
820.00,0.5014
819.00,0.5078
818.00,0.5132
817.00,0.5172
816.00,0.5195
815.00,0.5198
814.00,0.5182
813.00,0.5149
812.00,0.5102
811.00,0.5049
810.00,0.4992
809.00,0.4934
808.00,0.4880
807.00,0.4830
806.00,0.4784
805.00,0.4738
804.00,0.4687
803.00,0.4631
802.00,0.4572
801.00,0.4513
800.00,0.4461
799.00,0.4420
798.00,0.4389
797.00,0.4366
796.00,0.4348
795.00,0.4337
794.00,0.4333
793.00,0.4336
792.00,0.4345
791.00,0.4363
790.00,0.4388
789.00,0.4416
788.00,0.4445
787.00,0.4474
786.00,0.4507
785.00,0.4545
784.00,0.4588
783.00,0.4629
782.00,0.4665
781.00,0.4692
780.00,0.4711
779.00,0.4728
778.00,0.4746
777.00,0.4765
776.00,0.4787
775.00,0.4808
774.00,0.4829
773.00,0.4848
772.00,0.4868
771.00,0.4893
770.00,0.4922
769.00,0.4953
768.00,0.4983
767.00,0.5011
766.00,0.5035
765.00,0.5051
764.00,0.5063
763.00,0.5078
762.00,0.5101
761.00,0.5133
760.00,0.5171
759.00,0.5211
758.00,0.5248
757.00,0.5278
756.00,0.5301
755.00,0.5321
754.00,0.5345
753.00,0.5379
752.00,0.5422
751.00,0.5470
750.00,0.5517
749.00,0.5560
748.00,0.5599
747.00,0.5636
746.00,0.5674
745.00,0.5715
744.00,0.5759
743.00,0.5807
742.00,0.5857
741.00,0.5907
740.00,0.5953
739.00,0.5994
738.00,0.6030
737.00,0.6063
736.00,0.6098
735.00,0.6142
734.00,0.6198
733.00,0.6264
732.00,0.6341
731.00,0.6435
730.00,0.6554
729.00,0.6703
728.00,0.6883
727.00,0.7099
726.00,0.7356
725.00,0.7645
724.00,0.7941
723.00,0.8189
722.00,0.8308
721.00,0.8225
720.00,0.7932
719.00,0.7501
718.00,0.7032
717.00,0.6597
716.00,0.6229
715.00,0.5936
714.00,0.5707
713.00,0.5524
712.00,0.5375
711.00,0.5254
710.00,0.5157
709.00,0.5079
708.00,0.5017
707.00,0.4968
706.00,0.4926
705.00,0.4887
704.00,0.4849
703.00,0.4819
702.00,0.4802
701.00,0.4792
700.00,0.4772
699.00,0.4719
698.00,0.4619
697.00,0.4478
696.00,0.4321
695.00,0.4177
694.00,0.4060
693.00,0.3971
692.00,0.3906
691.00,0.3858
690.00,0.3824
689.00,0.3798
688.00,0.3774
687.00,0.3754
686.00,0.3737
685.00,0.3724
684.00,0.3714
683.00,0.3705
682.00,0.3697
681.00,0.3692
680.00,0.3688
679.00,0.3687
678.00,0.3687
677.00,0.3686
676.00,0.3688
675.00,0.3692
674.00,0.3695
673.00,0.3695
672.00,0.3690
671.00,0.3689
670.00,0.3696
669.00,0.3709
668.00,0.3718
667.00,0.3717
666.00,0.3715
665.00,0.3717
664.00,0.3720
663.00,0.3724
662.00,0.3729
661.00,0.3735
660.00,0.3741
659.00,0.3747
658.00,0.3755
657.00,0.3767
656.00,0.3782
655.00,0.3796
654.00,0.3808
653.00,0.3816
652.00,0.3823
651.00,0.3832
650.00,0.3843
649.00,0.3855
648.00,0.3867
647.00,0.3877
646.00,0.3886
645.00,0.3896
644.00,0.3908
643.00,0.3922
642.00,0.3937
641.00,0.3950
640.00,0.3962
639.00,0.3970
638.00,0.3976
637.00,0.3980
636.00,0.3983
635.00,0.3984
634.00,0.3985
633.00,0.3987
632.00,0.3994
631.00,0.4007
630.00,0.4023
629.00,0.4039
628.00,0.4054
627.00,0.4068
626.00,0.4084
625.00,0.4103
624.00,0.4126
623.00,0.4153
622.00,0.4177
621.00,0.4196
620.00,0.4209
619.00,0.4220
618.00,0.4230
617.00,0.4237
616.00,0.4240
615.00,0.4238
614.00,0.4233
613.00,0.4226
612.00,0.4216
611.00,0.4204
610.00,0.4189
609.00,0.4174
608.00,0.4162
607.00,0.4152
606.00,0.4142
605.00,0.4130
604.00,0.4118
603.00,0.4111
602.00,0.4109
601.00,0.4108
600.00,0.4104
599.00,0.4100
598.00,0.4102
597.00,0.4112
596.00,0.4128
595.00,0.4147
594.00,0.4166
593.00,0.4184
592.00,0.4200
591.00,0.4217
590.00,0.4234
589.00,0.4253
588.00,0.4271
587.00,0.4289
586.00,0.4308
585.00,0.4328
584.00,0.4351
583.00,0.4381
582.00,0.4413
581.00,0.4443
580.00,0.4469
579.00,0.4492
578.00,0.4514
577.00,0.4536
576.00,0.4558
575.00,0.4581
574.00,0.4601
573.00,0.4619
572.00,0.4634
571.00,0.4652
570.00,0.4673
569.00,0.4694
568.00,0.4715
567.00,0.4735
566.00,0.4753
565.00,0.4767
564.00,0.4778
563.00,0.4789
562.00,0.4801
561.00,0.4811
560.00,0.4818
559.00,0.4826
558.00,0.4841
557.00,0.4861
556.00,0.4881
555.00,0.4894
554.00,0.4897
553.00,0.4896
552.00,0.4898
551.00,0.4911
550.00,0.4932
