Created as New Dataset,
cm-1,A
4000.00,0.5125
3999.00,0.5123
3998.00,0.5120
3997.00,0.5118
3996.00,0.5115
3995.00,0.5112
3994.00,0.5108
3993.00,0.5104
3992.00,0.5100
3991.00,0.5096
3990.00,0.5091
3989.00,0.5086
3988.00,0.5082
3987.00,0.5078
3986.00,0.5075
3985.00,0.5072
3984.00,0.5069
3983.00,0.5065
3982.00,0.5061
3981.00,0.5058
3980.00,0.5055
3979.00,0.5052
3978.00,0.5049
3977.00,0.5046
3976.00,0.5042
3975.00,0.5039
3974.00,0.5036
3973.00,0.5034
3972.00,0.5031
3971.00,0.5028
3970.00,0.5025
3969.00,0.5022
3968.00,0.5020
3967.00,0.5018
3966.00,0.5016
3965.00,0.5014
3964.00,0.5011
3963.00,0.5009
3962.00,0.5007
3961.00,0.5006
3960.00,0.5005
3959.00,0.5004
3958.00,0.5002
3957.00,0.5000
3956.00,0.4998
3955.00,0.4997
3954.00,0.4997
3953.00,0.4996
3952.00,0.4996
3951.00,0.4994
3950.00,0.4992
3949.00,0.4990
3948.00,0.4988
3947.00,0.4986
3946.00,0.4985
3945.00,0.4983
3944.00,0.4981
3943.00,0.4979
3942.00,0.4977
3941.00,0.4975
3940.00,0.4974
3939.00,0.4972
3938.00,0.4971
3937.00,0.4970
3936.00,0.4970
3935.00,0.4969
3934.00,0.4968
3933.00,0.4968
3932.00,0.4969
3931.00,0.4969
3930.00,0.4970
3929.00,0.4971
3928.00,0.4972
3927.00,0.4973
3926.00,0.4973
3925.00,0.4974
3924.00,0.4975
3923.00,0.4975
3922.00,0.4975
3921.00,0.4975
3920.00,0.4975
3919.00,0.4975
3918.00,0.4974
3917.00,0.4974
3916.00,0.4973
3915.00,0.4972
3914.00,0.4970
3913.00,0.4970
3912.00,0.4969
3911.00,0.4969
3910.00,0.4968
3909.00,0.4966
3908.00,0.4965
3907.00,0.4963
3906.00,0.4962
3905.00,0.4961
3904.00,0.4961
3903.00,0.4962
3902.00,0.4962
3901.00,0.4962
3900.00,0.4962
3899.00,0.4962
3898.00,0.4961
3897.00,0.4960
3896.00,0.4959
3895.00,0.4958
3894.00,0.4957
3893.00,0.4956
3892.00,0.4955
3891.00,0.4955
3890.00,0.4955
3889.00,0.4953
3888.00,0.4951
3887.00,0.4949
3886.00,0.4949
3885.00,0.4950
3884.00,0.4951
3883.00,0.4951
3882.00,0.4950
3881.00,0.4950
3880.00,0.4950
3879.00,0.4950
3878.00,0.4950
3877.00,0.4949
3876.00,0.4947
3875.00,0.4946
3874.00,0.4945
3873.00,0.4944
3872.00,0.4941
3871.00,0.4938
3870.00,0.4937
3869.00,0.4936
3868.00,0.4936
3867.00,0.4934
3866.00,0.4933
3865.00,0.4932
3864.00,0.4932
3863.00,0.4930
3862.00,0.4928
3861.00,0.4926
3860.00,0.4925
3859.00,0.4925
3858.00,0.4924
3857.00,0.4923
3856.00,0.4922
3855.00,0.4921
3854.00,0.4922
3853.00,0.4923
3852.00,0.4924
3851.00,0.4923
3850.00,0.4923
3849.00,0.4922
3848.00,0.4923
3847.00,0.4923
3846.00,0.4922
3845.00,0.4920
3844.00,0.4919
3843.00,0.4919
3842.00,0.4920
3841.00,0.4922
3840.00,0.4923
3839.00,0.4924
3838.00,0.4924
3837.00,0.4922
3836.00,0.4920
3835.00,0.4917
3834.00,0.4915
3833.00,0.4913
3832.00,0.4912
3831.00,0.4911
3830.00,0.4909
3829.00,0.4907
3828.00,0.4905
3827.00,0.4904
3826.00,0.4903
3825.00,0.4903
3824.00,0.4902
3823.00,0.4900
3822.00,0.4900
3821.00,0.4901
3820.00,0.4900
3819.00,0.4899
3818.00,0.4896
3817.00,0.4895
3816.00,0.4895
3815.00,0.4894
3814.00,0.4892
3813.00,0.4889
3812.00,0.4887
3811.00,0.4885
3810.00,0.4884
3809.00,0.4883
3808.00,0.4881
3807.00,0.4881
3806.00,0.4881
3805.00,0.4880
3804.00,0.4878
3803.00,0.4877
3802.00,0.4876
3801.00,0.4876
3800.00,0.4874
3799.00,0.4871
3798.00,0.4867
3797.00,0.4864
3796.00,0.4862
3795.00,0.4859
3794.00,0.4856
3793.00,0.4853
3792.00,0.4850
3791.00,0.4848
3790.00,0.4845
3789.00,0.4843
3788.00,0.4841
3787.00,0.4840
3786.00,0.4840
3785.00,0.4840
3784.00,0.4840
3783.00,0.4840
3782.00,0.4839
3781.00,0.4837
3780.00,0.4836
3779.00,0.4834
3778.00,0.4833
3777.00,0.4831
3776.00,0.4831
3775.00,0.4832
3774.00,0.4833
3773.00,0.4833
3772.00,0.4832
3771.00,0.4830
3770.00,0.4829
3769.00,0.4829
3768.00,0.4828
3767.00,0.4825
3766.00,0.4824
3765.00,0.4823
3764.00,0.4822
3763.00,0.4820
3762.00,0.4817
3761.00,0.4815
3760.00,0.4813
3759.00,0.4812
3758.00,0.4812
3757.00,0.4811
3756.00,0.4811
3755.00,0.4810
3754.00,0.4809
3753.00,0.4808
3752.00,0.4807
3751.00,0.4806
3750.00,0.4805
3749.00,0.4804
3748.00,0.4804
3747.00,0.4802
3746.00,0.4800
3745.00,0.4800
3744.00,0.4800
3743.00,0.4800
3742.00,0.4799
3741.00,0.4797
3740.00,0.4797
3739.00,0.4798
3738.00,0.4798
3737.00,0.4797
3736.00,0.4796
3735.00,0.4795
3734.00,0.4795
3733.00,0.4794
3732.00,0.4793
3731.00,0.4792
3730.00,0.4791
3729.00,0.4789
3728.00,0.4787
3727.00,0.4785
3726.00,0.4784
3725.00,0.4782
3724.00,0.4779
3723.00,0.4777
3722.00,0.4775
3721.00,0.4774
3720.00,0.4773
3719.00,0.4772
3718.00,0.4772
3717.00,0.4772
3716.00,0.4772
3715.00,0.4772
3714.00,0.4774
3713.00,0.4776
3712.00,0.4779
3711.00,0.4781
3710.00,0.4782
3709.00,0.4783
3708.00,0.4783
3707.00,0.4784
3706.00,0.4786
3705.00,0.4787
3704.00,0.4789
3703.00,0.4790
3702.00,0.4792
3701.00,0.4794
3700.00,0.4796
3699.00,0.4798
3698.00,0.4800
3697.00,0.4802
3696.00,0.4804
3695.00,0.4806
3694.00,0.4807
3693.00,0.4808
3692.00,0.4809
3691.00,0.4809
3690.00,0.4809
3689.00,0.4809
3688.00,0.4809
3687.00,0.4810
3686.00,0.4809
3685.00,0.4809
3684.00,0.4809
3683.00,0.4810
3682.00,0.4810
3681.00,0.4811
3680.00,0.4812
3679.00,0.4814
3678.00,0.4815
3677.00,0.4817
3676.00,0.4820
3675.00,0.4823
3674.00,0.4825
3673.00,0.4825
3672.00,0.4826
3671.00,0.4828
3670.00,0.4831
3669.00,0.4834
3668.00,0.4836
3667.00,0.4837
3666.00,0.4838
3665.00,0.4841
3664.00,0.4844
3663.00,0.4848
3662.00,0.4852
3661.00,0.4857
3660.00,0.4861
3659.00,0.4865
3658.00,0.4869
3657.00,0.4873
3656.00,0.4878
3655.00,0.4884
3654.00,0.4890
3653.00,0.4895
3652.00,0.4900
3651.00,0.4906
3650.00,0.4912
3649.00,0.4917
3648.00,0.4922
3647.00,0.4926
3646.00,0.4932
3645.00,0.4936
3644.00,0.4941
3643.00,0.4946
3642.00,0.4951
3641.00,0.4957
3640.00,0.4964
3639.00,0.4971
3638.00,0.4978
3637.00,0.4987
3636.00,0.4995
3635.00,0.5003
3634.00,0.5011
3633.00,0.5020
3632.00,0.5028
3631.00,0.5038
3630.00,0.5052
3629.00,0.5070
3628.00,0.5091
3627.00,0.5110
3626.00,0.5127
3625.00,0.5141
3624.00,0.5151
3623.00,0.5157
3622.00,0.5157
3621.00,0.5153
3620.00,0.5145
3619.00,0.5136
3618.00,0.5126
3617.00,0.5118
3616.00,0.5111
3615.00,0.5106
3614.00,0.5103
3613.00,0.5103
3612.00,0.5104
3611.00,0.5106
3610.00,0.5110
3609.00,0.5114
3608.00,0.5118
3607.00,0.5123
3606.00,0.5126
3605.00,0.5130
3604.00,0.5132
3603.00,0.5134
3602.00,0.5135
3601.00,0.5135
3600.00,0.5134
3599.00,0.5133
3598.00,0.5130
3597.00,0.5127
3596.00,0.5123
3595.00,0.5119
3594.00,0.5115
3593.00,0.5113
3592.00,0.5111
3591.00,0.5111
3590.00,0.5112
3589.00,0.5114
3588.00,0.5116
3587.00,0.5117
3586.00,0.5118
3585.00,0.5119
3584.00,0.5120
3583.00,0.5122
3582.00,0.5124
3581.00,0.5127
3580.00,0.5128
3579.00,0.5130
3578.00,0.5132
3577.00,0.5134
3576.00,0.5138
3575.00,0.5142
3574.00,0.5146
3573.00,0.5150
3572.00,0.5154
3571.00,0.5158
3570.00,0.5163
3569.00,0.5169
3568.00,0.5175
3567.00,0.5182
3566.00,0.5189
3565.00,0.5196
3564.00,0.5203
3563.00,0.5210
3562.00,0.5216
3561.00,0.5223
3560.00,0.5230
3559.00,0.5236
3558.00,0.5243
3557.00,0.5250
3556.00,0.5257
3555.00,0.5264
3554.00,0.5272
3553.00,0.5279
3552.00,0.5287
3551.00,0.5295
3550.00,0.5303
3549.00,0.5311
3548.00,0.5320
3547.00,0.5329
3546.00,0.5338
3545.00,0.5346
3544.00,0.5354
3543.00,0.5363
3542.00,0.5372
3541.00,0.5381
3540.00,0.5390
3539.00,0.5399
3538.00,0.5409
3537.00,0.5417
3536.00,0.5426
3535.00,0.5434
3534.00,0.5442
3533.00,0.5451
3532.00,0.5461
3531.00,0.5471
3530.00,0.5481
3529.00,0.5489
3528.00,0.5498
3527.00,0.5507
3526.00,0.5517
3525.00,0.5528
3524.00,0.5538
3523.00,0.5549
3522.00,0.5559
3521.00,0.5569
3520.00,0.5578
3519.00,0.5587
3518.00,0.5596
3517.00,0.5605
3516.00,0.5615
3515.00,0.5625
3514.00,0.5636
3513.00,0.5647
3512.00,0.5657
3511.00,0.5668
3510.00,0.5679
3509.00,0.5689
3508.00,0.5700
3507.00,0.5712
3506.00,0.5724
3505.00,0.5737
3504.00,0.5749
3503.00,0.5760
3502.00,0.5771
3501.00,0.5782
3500.00,0.5793
3499.00,0.5804
3498.00,0.5816
3497.00,0.5828
3496.00,0.5841
3495.00,0.5853
3494.00,0.5865
3493.00,0.5878
3492.00,0.5891
3491.00,0.5904
3490.00,0.5917
3489.00,0.5930
3488.00,0.5944
3487.00,0.5957
3486.00,0.5970
3485.00,0.5982
3484.00,0.5994
3483.00,0.6006
3482.00,0.6018
3481.00,0.6029
3480.00,0.6040
3479.00,0.6051
3478.00,0.6062
3477.00,0.6073
3476.00,0.6084
3475.00,0.6095
3474.00,0.6106
3473.00,0.6118
3472.00,0.6129
3471.00,0.6142
3470.00,0.6154
3469.00,0.6166
3468.00,0.6178
3467.00,0.6190
3466.00,0.6202
3465.00,0.6214
3464.00,0.6227
3463.00,0.6240
3462.00,0.6254
3461.00,0.6268
3460.00,0.6282
3459.00,0.6295
3458.00,0.6307
3457.00,0.6319
3456.00,0.6333
3455.00,0.6348
3454.00,0.6362
3453.00,0.6376
3452.00,0.6390
3451.00,0.6403
3450.00,0.6417
3449.00,0.6432
3448.00,0.6446
3447.00,0.6461
3446.00,0.6475
3445.00,0.6490
3444.00,0.6505
3443.00,0.6522
3442.00,0.6539
3441.00,0.6555
3440.00,0.6570
3439.00,0.6584
3438.00,0.6599
3437.00,0.6615
3436.00,0.6631
3435.00,0.6647
3434.00,0.6663
3433.00,0.6678
3432.00,0.6693
3431.00,0.6708
3430.00,0.6724
3429.00,0.6742
3428.00,0.6760
3427.00,0.6779
3426.00,0.6797
3425.00,0.6815
3424.00,0.6833
3423.00,0.6852
3422.00,0.6870
3421.00,0.6889
3420.00,0.6907
3419.00,0.6925
3418.00,0.6943
3417.00,0.6961
3416.00,0.6981
3415.00,0.7000
3414.00,0.7020
3413.00,0.7039
3412.00,0.7059
3411.00,0.7080
3410.00,0.7100
3409.00,0.7121
3408.00,0.7142
3407.00,0.7163
3406.00,0.7184
3405.00,0.7204
3404.00,0.7224
3403.00,0.7245
3402.00,0.7265
3401.00,0.7285
3400.00,0.7306
3399.00,0.7327
3398.00,0.7350
3397.00,0.7373
3396.00,0.7396
3395.00,0.7419
3394.00,0.7441
3393.00,0.7464
3392.00,0.7486
3391.00,0.7508
3390.00,0.7531
3389.00,0.7554
3388.00,0.7576
3387.00,0.7598
3386.00,0.7620
3385.00,0.7643
3384.00,0.7667
3383.00,0.7690
3382.00,0.7713
3381.00,0.7737
3380.00,0.7761
3379.00,0.7786
3378.00,0.7810
3377.00,0.7834
3376.00,0.7857
3375.00,0.7882
3374.00,0.7908
3373.00,0.7935
3372.00,0.7963
3371.00,0.7991
3370.00,0.8018
3369.00,0.8044
3368.00,0.8071
3367.00,0.8099
3366.00,0.8128
3365.00,0.8159
3364.00,0.8189
3363.00,0.8219
3362.00,0.8248
3361.00,0.8277
3360.00,0.8306
3359.00,0.8335
3358.00,0.8365
3357.00,0.8396
3356.00,0.8426
3355.00,0.8457
3354.00,0.8487
3353.00,0.8519
3352.00,0.8550
3351.00,0.8582
3350.00,0.8614
3349.00,0.8645
3348.00,0.8673
3347.00,0.8701
3346.00,0.8729
3345.00,0.8758
3344.00,0.8787
3343.00,0.8816
3342.00,0.8841
3341.00,0.8865
3340.00,0.8886
3339.00,0.8906
3338.00,0.8926
3337.00,0.8945
3336.00,0.8962
3335.00,0.8978
3334.00,0.8992
3333.00,0.9005
3332.00,0.9016
3331.00,0.9025
3330.00,0.9033
3329.00,0.9039
3328.00,0.9045
3327.00,0.9049
3326.00,0.9052
3325.00,0.9053
3324.00,0.9052
3323.00,0.9049
3322.00,0.9043
3321.00,0.9036
3320.00,0.9029
3319.00,0.9021
3318.00,0.9012
3317.00,0.9002
3316.00,0.8991
3315.00,0.8979
3314.00,0.8967
3313.00,0.8954
3312.00,0.8939
3311.00,0.8924
3310.00,0.8907
3309.00,0.8892
3308.00,0.8876
3307.00,0.8860
3306.00,0.8843
3305.00,0.8826
3304.00,0.8811
3303.00,0.8796
3302.00,0.8783
3301.00,0.8770
3300.00,0.8756
3299.00,0.8743
3298.00,0.8731
3297.00,0.8718
3296.00,0.8706
3295.00,0.8693
3294.00,0.8680
3293.00,0.8670
3292.00,0.8660
3291.00,0.8652
3290.00,0.8646
3289.00,0.8641
3288.00,0.8636
3287.00,0.8632
3286.00,0.8629
3285.00,0.8626
3284.00,0.8623
3283.00,0.8621
3282.00,0.8620
3281.00,0.8620
3280.00,0.8619
3279.00,0.8620
3278.00,0.8621
3277.00,0.8625
3276.00,0.8629
3275.00,0.8634
3274.00,0.8639
3273.00,0.8645
3272.00,0.8651
3271.00,0.8657
3270.00,0.8662
3269.00,0.8667
3268.00,0.8671
3267.00,0.8675
3266.00,0.8679
3265.00,0.8683
3264.00,0.8688
3263.00,0.8694
3262.00,0.8700
3261.00,0.8707
3260.00,0.8714
3259.00,0.8720
3258.00,0.8727
3257.00,0.8734
3256.00,0.8741
3255.00,0.8748
3254.00,0.8752
3253.00,0.8756
3252.00,0.8759
3251.00,0.8761
3250.00,0.8764
3249.00,0.8767
3248.00,0.8770
3247.00,0.8771
3246.00,0.8770
3245.00,0.8768
3244.00,0.8768
3243.00,0.8767
3242.00,0.8765
3241.00,0.8762
3240.00,0.8757
3239.00,0.8751
3238.00,0.8745
3237.00,0.8740
3236.00,0.8733
3235.00,0.8726
3234.00,0.8718
3233.00,0.8710
3232.00,0.8701
3231.00,0.8690
3230.00,0.8678
3229.00,0.8664
3228.00,0.8649
3227.00,0.8634
3226.00,0.8619
3225.00,0.8603
3224.00,0.8588
3223.00,0.8573
3222.00,0.8558
3221.00,0.8542
3220.00,0.8526
3219.00,0.8509
3218.00,0.8491
3217.00,0.8471
3216.00,0.8452
3215.00,0.8434
3214.00,0.8415
3213.00,0.8396
3212.00,0.8375
3211.00,0.8354
3210.00,0.8333
3209.00,0.8313
3208.00,0.8293
3207.00,0.8272
3206.00,0.8250
3205.00,0.8228
3204.00,0.8206
3203.00,0.8183
3202.00,0.8161
3201.00,0.8138
3200.00,0.8115
3199.00,0.8093
3198.00,0.8071
3197.00,0.8050
3196.00,0.8029
3195.00,0.8009
3194.00,0.7986
3193.00,0.7963
3192.00,0.7939
3191.00,0.7915
3190.00,0.7891
3189.00,0.7868
3188.00,0.7845
3187.00,0.7822
3186.00,0.7798
3185.00,0.7774
3184.00,0.7750
3183.00,0.7727
3182.00,0.7704
3181.00,0.7682
3180.00,0.7661
3179.00,0.7639
3178.00,0.7616
3177.00,0.7593
3176.00,0.7569
3175.00,0.7545
3174.00,0.7523
3173.00,0.7501
3172.00,0.7480
3171.00,0.7459
3170.00,0.7437
3169.00,0.7415
3168.00,0.7392
3167.00,0.7370
3166.00,0.7348
3165.00,0.7327
3164.00,0.7306
3163.00,0.7285
3162.00,0.7265
3161.00,0.7245
3160.00,0.7224
3159.00,0.7204
3158.00,0.7183
3157.00,0.7163
3156.00,0.7144
3155.00,0.7126
3154.00,0.7107
3153.00,0.7089
3152.00,0.7070
3151.00,0.7050
3150.00,0.7032
3149.00,0.7016
3148.00,0.7000
3147.00,0.6985
3146.00,0.6969
3145.00,0.6953
3144.00,0.6936
3143.00,0.6919
3142.00,0.6902
3141.00,0.6885
3140.00,0.6871
3139.00,0.6857
3138.00,0.6844
3137.00,0.6832
3136.00,0.6820
3135.00,0.6808
3134.00,0.6796
3133.00,0.6783
3132.00,0.6771
3131.00,0.6759
3130.00,0.6748
3129.00,0.6737
3128.00,0.6727
3127.00,0.6717
3126.00,0.6707
3125.00,0.6698
3124.00,0.6689
3123.00,0.6680
3122.00,0.6672
3121.00,0.6665
3120.00,0.6658
3119.00,0.6652
3118.00,0.6647
3117.00,0.6641
3116.00,0.6636
3115.00,0.6631
3114.00,0.6627
3113.00,0.6623
3112.00,0.6619
3111.00,0.6616
3110.00,0.6614
3109.00,0.6614
3108.00,0.6614
3107.00,0.6615
3106.00,0.6616
3105.00,0.6617
3104.00,0.6620
3103.00,0.6622
3102.00,0.6625
3101.00,0.6628
3100.00,0.6630
3099.00,0.6632
3098.00,0.6634
3097.00,0.6638
3096.00,0.6643
3095.00,0.6649
3094.00,0.6656
3093.00,0.6664
3092.00,0.6673
3091.00,0.6684
3090.00,0.6695
3089.00,0.6707
3088.00,0.6722
3087.00,0.6737
3086.00,0.6754
3085.00,0.6772
3084.00,0.6791
3083.00,0.6812
3082.00,0.6834
3081.00,0.6857
3080.00,0.6882
3079.00,0.6908
3078.00,0.6933
3077.00,0.6960
3076.00,0.6988
3075.00,0.7017
3074.00,0.7048
3073.00,0.7079
3072.00,0.7109
3071.00,0.7138
3070.00,0.7166
3069.00,0.7195
3068.00,0.7225
3067.00,0.7255
3066.00,0.7287
3065.00,0.7317
3064.00,0.7345
3063.00,0.7371
3062.00,0.7396
3061.00,0.7421
3060.00,0.7445
3059.00,0.7468
3058.00,0.7491
3057.00,0.7514
3056.00,0.7537
3055.00,0.7561
3054.00,0.7585
3053.00,0.7611
3052.00,0.7639
3051.00,0.7668
3050.00,0.7700
3049.00,0.7734
3048.00,0.7770
3047.00,0.7807
3046.00,0.7844
3045.00,0.7882
3044.00,0.7920
3043.00,0.7958
3042.00,0.7997
3041.00,0.8037
3040.00,0.8077
3039.00,0.8117
3038.00,0.8160
3037.00,0.8204
3036.00,0.8252
3035.00,0.8302
3034.00,0.8355
3033.00,0.8411
3032.00,0.8472
3031.00,0.8537
3030.00,0.8605
3029.00,0.8676
3028.00,0.8751
3027.00,0.8830
3026.00,0.8912
3025.00,0.8996
3024.00,0.9082
3023.00,0.9171
3022.00,0.9263
3021.00,0.9359
3020.00,0.9459
3019.00,0.9563
3018.00,0.9672
3017.00,0.9783
3016.00,0.9895
3015.00,1.0010
3014.00,1.0128
3013.00,1.0250
3012.00,1.0378
3011.00,1.0512
3010.00,1.0654
3009.00,1.0807
3008.00,1.0969
3007.00,1.1141
3006.00,1.1322
3005.00,1.1512
3004.00,1.1712
3003.00,1.1921
3002.00,1.2142
3001.00,1.2376
3000.00,1.2623
2999.00,1.2884
2998.00,1.3160
2997.00,1.3453
2996.00,1.3765
2995.00,1.4099
2994.00,1.4458
2993.00,1.4844
2992.00,1.5262
2991.00,1.5717
2990.00,1.6219
2989.00,1.6771
2988.00,1.7375
2987.00,1.8036
2986.00,1.8760
2985.00,1.9551
2984.00,2.0409
2983.00,2.1342
2982.00,2.2375
2981.00,2.3536
2980.00,2.4835
2979.00,2.6254
2978.00,2.7771
2977.00,2.9349
2976.00,3.0919
2975.00,3.2365
2974.00,3.3616
2973.00,3.4808
2972.00,3.6250
2971.00,3.8467
2970.00,4.2011
2969.00,4.4173
2968.00,4.2113
2967.00,4.0409
2966.00,4.0482
2965.00,4.1378
2964.00,4.1642
2963.00,4.1790
2962.00,4.1262
2961.00,3.9996
2960.00,3.9042
2959.00,3.9204
2958.00,4.0568
2957.00,4.1866
2956.00,4.2797
2955.00,4.3904
2954.00,4.4035
2953.00,4.2134
2952.00,4.0038
2951.00,3.8905
2950.00,3.8619
2949.00,3.9019
2948.00,4.0048
2947.00,4.1056
2946.00,4.1240
2945.00,4.1229
2944.00,4.1310
2943.00,4.1594
2942.00,4.1321
2941.00,4.2196
2940.00,4.5330
2939.00,4.3724
2938.00,4.1204
2937.00,3.9745
2936.00,4.0475
2935.00,4.1004
2934.00,4.0304
2933.00,4.0234
2932.00,4.0507
2931.00,4.0929
2930.00,4.0499
2929.00,3.9882
2928.00,4.0092
2927.00,4.2025
2926.00,4.4596
2925.00,4.2106
2924.00,3.9395
2923.00,3.8451
2922.00,3.9568
2921.00,4.1978
2920.00,4.4278
2919.00,4.3966
2918.00,4.0643
2917.00,3.8662
2916.00,3.7832
2915.00,3.8360
2914.00,3.9528
2913.00,3.9879
2912.00,4.0226
2911.00,4.0922
2910.00,4.1104
2909.00,4.0518
2908.00,4.0273
2907.00,4.1106
2906.00,4.1957
2905.00,4.2946
2904.00,4.5846
2903.00,4.6939
2902.00,4.3882
2901.00,4.1660
2900.00,4.1520
2899.00,4.2818
2898.00,4.3718
2897.00,4.3178
2896.00,4.1472
2895.00,4.0169
2894.00,3.9707
2893.00,3.9777
2892.00,4.0071
2891.00,4.0582
2890.00,4.1465
2889.00,4.3746
2888.00,4.7735
2887.00,4.5638
2886.00,4.2254
2885.00,4.0124
2884.00,3.9266
2883.00,3.8729
2882.00,3.8633
2881.00,3.9169
2880.00,4.0858
2879.00,4.4458
2878.00,4.4673
2877.00,4.2157
2876.00,4.0541
2875.00,4.0490
2874.00,4.1084
2873.00,4.1740
2872.00,4.1482
2871.00,4.0922
2870.00,4.0637
2869.00,3.9851
2868.00,3.8991
2867.00,3.8754
2866.00,3.9398
2865.00,3.9680
2864.00,3.9729
2863.00,4.0171
2862.00,3.9937
2861.00,3.9350
2860.00,3.9528
2859.00,4.2023
2858.00,4.5304
2857.00,4.2186
2856.00,4.0066
2855.00,3.9830
2854.00,4.0414
2853.00,4.0620
2852.00,4.1229
2851.00,4.1961
2850.00,4.1654
2849.00,4.0841
2848.00,4.0038
2847.00,3.9827
2846.00,4.0121
2845.00,4.0895
2844.00,4.1484
2843.00,4.0293
2842.00,3.9002
2841.00,3.8695
2840.00,3.9668
2839.00,4.0319
2838.00,3.8224
2837.00,3.5126
2836.00,3.2286
2835.00,2.9859
2834.00,2.7726
2833.00,2.5865
2832.00,2.4280
2831.00,2.2935
2830.00,2.1769
2829.00,2.0727
2828.00,1.9782
2827.00,1.8925
2826.00,1.8148
2825.00,1.7443
2824.00,1.6804
2823.00,1.6230
2822.00,1.5709
2821.00,1.5232
2820.00,1.4789
2819.00,1.4379
2818.00,1.4000
2817.00,1.3651
2816.00,1.3327
2815.00,1.3022
2814.00,1.2735
2813.00,1.2463
2812.00,1.2205
2811.00,1.1961
2810.00,1.1729
2809.00,1.1509
2808.00,1.1300
2807.00,1.1102
2806.00,1.0913
2805.00,1.0732
2804.00,1.0556
2803.00,1.0388
2802.00,1.0227
2801.00,1.0074
2800.00,0.9930
2799.00,0.9794
2798.00,0.9665
2797.00,0.9541
2796.00,0.9420
2795.00,0.9302
2794.00,0.9188
2793.00,0.9077
2792.00,0.8971
2791.00,0.8867
2790.00,0.8767
2789.00,0.8669
2788.00,0.8575
2787.00,0.8483
2786.00,0.8393
2785.00,0.8305
2784.00,0.8217
2783.00,0.8132
2782.00,0.8051
2781.00,0.7974
2780.00,0.7901
2779.00,0.7831
2778.00,0.7764
2777.00,0.7699
2776.00,0.7638
2775.00,0.7579
2774.00,0.7524
2773.00,0.7471
2772.00,0.7423
2771.00,0.7379
2770.00,0.7338
2769.00,0.7301
2768.00,0.7267
2767.00,0.7236
2766.00,0.7207
2765.00,0.7181
2764.00,0.7157
2763.00,0.7137
2762.00,0.7119
2761.00,0.7103
2760.00,0.7090
2759.00,0.7078
2758.00,0.7067
2757.00,0.7057
2756.00,0.7048
2755.00,0.7039
2754.00,0.7030
2753.00,0.7023
2752.00,0.7017
2751.00,0.7014
2750.00,0.7012
2749.00,0.7012
2748.00,0.7014
2747.00,0.7018
2746.00,0.7024
2745.00,0.7033
2744.00,0.7043
2743.00,0.7055
2742.00,0.7070
2741.00,0.7090
2740.00,0.7114
2739.00,0.7143
2738.00,0.7175
2737.00,0.7211
2736.00,0.7250
2735.00,0.7290
2734.00,0.7333
2733.00,0.7375
2732.00,0.7414
2731.00,0.7446
2730.00,0.7468
2729.00,0.7479
2728.00,0.7481
2727.00,0.7473
2726.00,0.7459
2725.00,0.7440
2724.00,0.7419
2723.00,0.7397
2722.00,0.7372
2721.00,0.7344
2720.00,0.7314
2719.00,0.7281
2718.00,0.7247
2717.00,0.7211
2716.00,0.7172
2715.00,0.7132
2714.00,0.7091
2713.00,0.7051
2712.00,0.7012
2711.00,0.6977
2710.00,0.6945
2709.00,0.6917
2708.00,0.6893
2707.00,0.6872
2706.00,0.6855
2705.00,0.6840
2704.00,0.6828
2703.00,0.6819
2702.00,0.6813
2701.00,0.6809
2700.00,0.6808
2699.00,0.6808
2698.00,0.6810
2697.00,0.6814
2696.00,0.6821
2695.00,0.6830
2694.00,0.6840
2693.00,0.6851
2692.00,0.6862
2691.00,0.6873
2690.00,0.6882
2689.00,0.6890
2688.00,0.6897
2687.00,0.6902
2686.00,0.6907
2685.00,0.6911
2684.00,0.6913
2683.00,0.6915
2682.00,0.6917
2681.00,0.6918
2680.00,0.6918
2679.00,0.6918
2678.00,0.6918
2677.00,0.6918
2676.00,0.6919
2675.00,0.6919
2674.00,0.6919
2673.00,0.6920
2672.00,0.6919
2671.00,0.6917
2670.00,0.6912
2669.00,0.6905
2668.00,0.6895
2667.00,0.6881
2666.00,0.6866
2665.00,0.6849
2664.00,0.6830
2663.00,0.6811
2662.00,0.6791
2661.00,0.6771
2660.00,0.6751
2659.00,0.6732
2658.00,0.6713
2657.00,0.6694
2656.00,0.6675
2655.00,0.6657
2654.00,0.6639
2653.00,0.6623
2652.00,0.6606
2651.00,0.6589
2650.00,0.6573
2649.00,0.6556
2648.00,0.6539
2647.00,0.6523
2646.00,0.6507
2645.00,0.6492
2644.00,0.6478
2643.00,0.6465
2642.00,0.6454
2641.00,0.6442
2640.00,0.6431
2639.00,0.6419
2638.00,0.6408
2637.00,0.6398
2636.00,0.6389
2635.00,0.6380
2634.00,0.6370
2633.00,0.6361
2632.00,0.6351
2631.00,0.6342
2630.00,0.6332
2629.00,0.6322
2628.00,0.6312
2627.00,0.6302
2626.00,0.6292
2625.00,0.6282
2624.00,0.6272
2623.00,0.6262
2622.00,0.6251
2621.00,0.6240
2620.00,0.6230
2619.00,0.6221
2618.00,0.6212
2617.00,0.6204
2616.00,0.6195
2615.00,0.6184
2614.00,0.6173
2613.00,0.6160
2612.00,0.6148
2611.00,0.6137
2610.00,0.6126
2609.00,0.6115
2608.00,0.6105
2607.00,0.6095
2606.00,0.6086
2605.00,0.6076
2604.00,0.6066
2603.00,0.6056
2602.00,0.6046
2601.00,0.6036
2600.00,0.6025
2599.00,0.6014
2598.00,0.6001
2597.00,0.5988
2596.00,0.5973
2595.00,0.5957
2594.00,0.5942
2593.00,0.5927
2592.00,0.5912
2591.00,0.5895
2590.00,0.5879
2589.00,0.5862
2588.00,0.5846
2587.00,0.5830
2586.00,0.5814
2585.00,0.5797
2584.00,0.5781
2583.00,0.5763
2582.00,0.5744
2581.00,0.5725
2580.00,0.5707
2579.00,0.5688
2578.00,0.5670
2577.00,0.5653
2576.00,0.5636
2575.00,0.5619
2574.00,0.5603
2573.00,0.5588
2572.00,0.5573
2571.00,0.5558
2570.00,0.5544
2569.00,0.5531
2568.00,0.5518
2567.00,0.5505
2566.00,0.5491
2565.00,0.5478
2564.00,0.5465
2563.00,0.5451
2562.00,0.5438
2561.00,0.5426
2560.00,0.5414
2559.00,0.5401
2558.00,0.5389
2557.00,0.5378
2556.00,0.5367
2555.00,0.5356
2554.00,0.5346
2553.00,0.5335
2552.00,0.5324
2551.00,0.5314
2550.00,0.5304
2549.00,0.5294
2548.00,0.5284
2547.00,0.5274
2546.00,0.5265
2545.00,0.5256
2544.00,0.5248
2543.00,0.5240
2542.00,0.5233
2541.00,0.5226
2540.00,0.5219
2539.00,0.5212
2538.00,0.5205
2537.00,0.5199
2536.00,0.5193
2535.00,0.5187
2534.00,0.5180
2533.00,0.5174
2532.00,0.5167
2531.00,0.5160
2530.00,0.5152
2529.00,0.5144
2528.00,0.5136
2527.00,0.5127
2526.00,0.5117
2525.00,0.5108
2524.00,0.5097
2523.00,0.5087
2522.00,0.5076
2521.00,0.5066
2520.00,0.5056
2519.00,0.5046
2518.00,0.5037
2517.00,0.5028
2516.00,0.5019
2515.00,0.5011
2514.00,0.5003
2513.00,0.4996
2512.00,0.4989
2511.00,0.4982
2510.00,0.4976
2509.00,0.4969
2508.00,0.4963
2507.00,0.4956
2506.00,0.4949
2505.00,0.4944
2504.00,0.4940
2503.00,0.4936
2502.00,0.4932
2501.00,0.4927
2500.00,0.4923
2499.00,0.4920
2498.00,0.4917
2497.00,0.4915
2496.00,0.4912
2495.00,0.4909
2494.00,0.4906
2493.00,0.4902
2492.00,0.4899
2491.00,0.4895
2490.00,0.4891
2489.00,0.4887
2488.00,0.4883
2487.00,0.4879
2486.00,0.4874
2485.00,0.4870
2484.00,0.4865
2483.00,0.4861
2482.00,0.4857
2481.00,0.4854
2480.00,0.4850
2479.00,0.4847
2478.00,0.4842
2477.00,0.4838
2476.00,0.4833
2475.00,0.4829
2474.00,0.4825
2473.00,0.4822
2472.00,0.4818
2471.00,0.4814
2470.00,0.4811
2469.00,0.4808
2468.00,0.4804
2467.00,0.4801
2466.00,0.4797
2465.00,0.4794
2464.00,0.4791
2463.00,0.4787
2462.00,0.4784
2461.00,0.4781
2460.00,0.4778
2459.00,0.4775
2458.00,0.4772
2457.00,0.4771
2456.00,0.4769
2455.00,0.4768
2454.00,0.4767
2453.00,0.4766
2452.00,0.4765
2451.00,0.4763
2450.00,0.4761
2449.00,0.4760
2448.00,0.4760
2447.00,0.4760
2446.00,0.4761
2445.00,0.4761
2444.00,0.4762
2443.00,0.4763
2442.00,0.4763
2441.00,0.4764
2440.00,0.4764
2439.00,0.4764
2438.00,0.4765
2437.00,0.4766
2436.00,0.4767
2435.00,0.4768
2434.00,0.4769
2433.00,0.4769
2432.00,0.4769
2431.00,0.4769
2430.00,0.4770
2429.00,0.4770
2428.00,0.4771
2427.00,0.4773
2426.00,0.4775
2425.00,0.4776
2424.00,0.4778
2423.00,0.4778
2422.00,0.4777
2421.00,0.4777
2420.00,0.4777
2419.00,0.4778
2418.00,0.4779
2417.00,0.4780
2416.00,0.4781
2415.00,0.4781
2414.00,0.4781
2413.00,0.4781
2412.00,0.4781
2411.00,0.4781
2410.00,0.4782
2409.00,0.4782
2408.00,0.4782
2407.00,0.4781
2406.00,0.4780
2405.00,0.4781
2404.00,0.4781
2403.00,0.4781
2402.00,0.4782
2401.00,0.4781
2400.00,0.4781
2399.00,0.4781
2398.00,0.4780
2397.00,0.4780
2396.00,0.4779
2395.00,0.4778
2394.00,0.4777
2393.00,0.4777
2392.00,0.4777
2391.00,0.4777
2390.00,0.4777
2389.00,0.4777
2388.00,0.4779
2387.00,0.4780
2386.00,0.4781
2385.00,0.4783
2384.00,0.4786
2383.00,0.4788
2382.00,0.4790
2381.00,0.4792
2380.00,0.4793
2379.00,0.4795
2378.00,0.4797
2377.00,0.4799
2376.00,0.4800
2375.00,0.4800
2374.00,0.4800
2373.00,0.4799
2372.00,0.4800
2371.00,0.4800
2370.00,0.4800
2369.00,0.4800
2368.00,0.4800
2367.00,0.4800
2366.00,0.4800
2365.00,0.4800
2364.00,0.4801
2363.00,0.4803
2362.00,0.4803
2361.00,0.4803
2360.00,0.4802
2359.00,0.4801
2358.00,0.4801
2357.00,0.4802
2356.00,0.4802
2355.00,0.4802
2354.00,0.4801
2353.00,0.4800
2352.00,0.4799
2351.00,0.4799
2350.00,0.4798
2349.00,0.4798
2348.00,0.4797
2347.00,0.4796
2346.00,0.4795
2345.00,0.4794
2344.00,0.4793
2343.00,0.4793
2342.00,0.4792
2341.00,0.4791
2340.00,0.4790
2339.00,0.4788
2338.00,0.4786
2337.00,0.4785
2336.00,0.4784
2335.00,0.4782
2334.00,0.4780
2333.00,0.4778
2332.00,0.4776
2331.00,0.4774
2330.00,0.4773
2329.00,0.4771
2328.00,0.4769
2327.00,0.4766
2326.00,0.4764
2325.00,0.4763
2324.00,0.4762
2323.00,0.4760
2322.00,0.4757
2321.00,0.4753
2320.00,0.4749
2319.00,0.4745
2318.00,0.4741
2317.00,0.4739
2316.00,0.4737
2315.00,0.4735
2314.00,0.4733
2313.00,0.4730
2312.00,0.4727
2311.00,0.4724
2310.00,0.4720
2309.00,0.4716
2308.00,0.4712
2307.00,0.4708
2306.00,0.4704
2305.00,0.4700
2304.00,0.4697
2303.00,0.4693
2302.00,0.4689
2301.00,0.4686
2300.00,0.4682
2299.00,0.4679
2298.00,0.4676
2297.00,0.4672
2296.00,0.4668
2295.00,0.4664
2294.00,0.4660
2293.00,0.4656
2292.00,0.4653
2291.00,0.4650
2290.00,0.4647
2289.00,0.4644
2288.00,0.4641
2287.00,0.4638
2286.00,0.4635
2285.00,0.4633
2284.00,0.4631
2283.00,0.4629
2282.00,0.4626
2281.00,0.4624
2280.00,0.4621
2279.00,0.4618
2278.00,0.4615
2277.00,0.4613
2276.00,0.4611
2275.00,0.4609
2274.00,0.4607
2273.00,0.4605
2272.00,0.4603
2271.00,0.4601
2270.00,0.4599
2269.00,0.4597
2268.00,0.4595
2267.00,0.4593
2266.00,0.4592
2265.00,0.4591
2264.00,0.4589
2263.00,0.4586
2262.00,0.4583
2261.00,0.4579
2260.00,0.4576
2259.00,0.4572
2258.00,0.4569
2257.00,0.4567
2256.00,0.4564
2255.00,0.4561
2254.00,0.4559
2253.00,0.4556
2252.00,0.4553
2251.00,0.4550
2250.00,0.4547
2249.00,0.4545
2248.00,0.4542
2247.00,0.4541
2246.00,0.4539
2245.00,0.4537
2244.00,0.4536
2243.00,0.4535
2242.00,0.4534
2241.00,0.4533
2240.00,0.4532
2239.00,0.4531
2238.00,0.4530
2237.00,0.4528
2236.00,0.4527
2235.00,0.4525
2234.00,0.4523
2233.00,0.4523
2232.00,0.4522
2231.00,0.4521
2230.00,0.4520
2229.00,0.4519
2228.00,0.4517
2227.00,0.4516
2226.00,0.4514
2225.00,0.4512
2224.00,0.4510
2223.00,0.4508
2222.00,0.4506
2221.00,0.4505
2220.00,0.4503
2219.00,0.4501
2218.00,0.4500
2217.00,0.4500
2216.00,0.4499
2215.00,0.4499
2214.00,0.4498
2213.00,0.4498
2212.00,0.4497
2211.00,0.4497
2210.00,0.4497
2209.00,0.4497
2208.00,0.4498
2207.00,0.4498
2206.00,0.4499
2205.00,0.4500
2204.00,0.4501
2203.00,0.4502
2202.00,0.4502
2201.00,0.4503
2200.00,0.4503
2199.00,0.4504
2198.00,0.4504
2197.00,0.4504
2196.00,0.4504
2195.00,0.4505
2194.00,0.4506
2193.00,0.4506
2192.00,0.4506
2191.00,0.4506
2190.00,0.4506
2189.00,0.4505
2188.00,0.4505
2187.00,0.4504
2186.00,0.4503
2185.00,0.4503
2184.00,0.4502
2183.00,0.4501
2182.00,0.4500
2181.00,0.4499
2180.00,0.4498
2179.00,0.4497
2178.00,0.4495
2177.00,0.4494
2176.00,0.4493
2175.00,0.4492
2174.00,0.4491
2173.00,0.4490
2172.00,0.4490
2171.00,0.4490
2170.00,0.4490
2169.00,0.4490
2168.00,0.4490
2167.00,0.4489
2166.00,0.4488
2165.00,0.4488
2164.00,0.4488
2163.00,0.4488
2162.00,0.4487
2161.00,0.4486
2160.00,0.4486
2159.00,0.4485
2158.00,0.4484
2157.00,0.4483
2156.00,0.4482
2155.00,0.4481
2154.00,0.4479
2153.00,0.4478
2152.00,0.4476
2151.00,0.4474
2150.00,0.4472
2149.00,0.4469
2148.00,0.4466
2147.00,0.4462
2146.00,0.4458
2145.00,0.4452
2144.00,0.4447
2143.00,0.4441
2142.00,0.4436
2141.00,0.4432
2140.00,0.4429
2139.00,0.4425
2138.00,0.4422
2137.00,0.4418
2136.00,0.4415
2135.00,0.4412
2134.00,0.4409
2133.00,0.4407
2132.00,0.4405
2131.00,0.4403
2130.00,0.4402
2129.00,0.4401
2128.00,0.4399
2127.00,0.4398
2126.00,0.4396
2125.00,0.4395
2124.00,0.4394
2123.00,0.4394
2122.00,0.4394
2121.00,0.4393
2120.00,0.4393
2119.00,0.4392
2118.00,0.4391
2117.00,0.4389
2116.00,0.4388
2115.00,0.4387
2114.00,0.4386
2113.00,0.4384
2112.00,0.4383
2111.00,0.4382
2110.00,0.4380
2109.00,0.4379
2108.00,0.4377
2107.00,0.4376
2106.00,0.4374
2105.00,0.4373
2104.00,0.4372
2103.00,0.4371
2102.00,0.4369
2101.00,0.4368
2100.00,0.4367
2099.00,0.4367
2098.00,0.4366
2097.00,0.4365
2096.00,0.4365
2095.00,0.4365
2094.00,0.4365
2093.00,0.4366
2092.00,0.4367
2091.00,0.4367
2090.00,0.4368
2089.00,0.4368
2088.00,0.4369
2087.00,0.4369
2086.00,0.4369
2085.00,0.4370
2084.00,0.4371
2083.00,0.4371
2082.00,0.4372
2081.00,0.4372
2080.00,0.4372
2079.00,0.4373
2078.00,0.4373
2077.00,0.4373
2076.00,0.4372
2075.00,0.4372
2074.00,0.4372
2073.00,0.4373
2072.00,0.4373
2071.00,0.4373
2070.00,0.4372
2069.00,0.4373
2068.00,0.4374
2067.00,0.4375
2066.00,0.4377
2065.00,0.4378
2064.00,0.4379
2063.00,0.4379
2062.00,0.4379
2061.00,0.4380
2060.00,0.4380
2059.00,0.4381
2058.00,0.4382
2057.00,0.4384
2056.00,0.4386
2055.00,0.4389
2054.00,0.4391
2053.00,0.4392
2052.00,0.4394
2051.00,0.4396
2050.00,0.4398
2049.00,0.4401
2048.00,0.4404
2047.00,0.4407
2046.00,0.4410
2045.00,0.4412
2044.00,0.4415
2043.00,0.4418
2042.00,0.4420
2041.00,0.4422
2040.00,0.4424
2039.00,0.4424
2038.00,0.4424
2037.00,0.4424
2036.00,0.4425
2035.00,0.4425
2034.00,0.4425
2033.00,0.4425
2032.00,0.4425
2031.00,0.4426
2030.00,0.4426
2029.00,0.4427
2028.00,0.4428
2027.00,0.4428
2026.00,0.4428
2025.00,0.4428
2024.00,0.4427
2023.00,0.4425
2022.00,0.4422
2021.00,0.4419
2020.00,0.4415
2019.00,0.4412
2018.00,0.4407
2017.00,0.4401
2016.00,0.4394
2015.00,0.4385
2014.00,0.4376
2013.00,0.4368
2012.00,0.4362
2011.00,0.4356
2010.00,0.4350
2009.00,0.4346
2008.00,0.4343
2007.00,0.4339
2006.00,0.4335
2005.00,0.4332
2004.00,0.4329
2003.00,0.4327
2002.00,0.4325
2001.00,0.4324
2000.00,0.4322
1999.00,0.4321
1998.00,0.4320
1997.00,0.4319
1996.00,0.4318
1995.00,0.4317
1994.00,0.4317
1993.00,0.4316
1992.00,0.4316
1991.00,0.4314
1990.00,0.4311
1989.00,0.4308
1988.00,0.4306
1987.00,0.4303
1986.00,0.4301
1985.00,0.4300
1984.00,0.4298
1983.00,0.4297
1982.00,0.4295
1981.00,0.4294
1980.00,0.4293
1979.00,0.4292
1978.00,0.4292
1977.00,0.4292
1976.00,0.4292
1975.00,0.4293
1974.00,0.4293
1973.00,0.4294
1972.00,0.4295
1971.00,0.4296
1970.00,0.4299
1969.00,0.4302
1968.00,0.4305
1967.00,0.4307
1966.00,0.4306
1965.00,0.4304
1964.00,0.4302
1963.00,0.4301
1962.00,0.4301
1961.00,0.4302
1960.00,0.4303
1959.00,0.4304
1958.00,0.4305
1957.00,0.4306
1956.00,0.4308
1955.00,0.4308
1954.00,0.4308
1953.00,0.4308
1952.00,0.4308
1951.00,0.4308
1950.00,0.4307
1949.00,0.4307
1948.00,0.4308
1947.00,0.4310
1946.00,0.4312
1945.00,0.4315
1944.00,0.4319
1943.00,0.4324
1942.00,0.4327
1941.00,0.4329
1940.00,0.4330
1939.00,0.4330
1938.00,0.4330
1937.00,0.4330
1936.00,0.4329
1935.00,0.4328
1934.00,0.4327
1933.00,0.4327
1932.00,0.4328
1931.00,0.4329
1930.00,0.4330
1929.00,0.4331
1928.00,0.4332
1927.00,0.4334
1926.00,0.4335
1925.00,0.4339
1924.00,0.4343
1923.00,0.4349
1922.00,0.4353
1921.00,0.4357
1920.00,0.4360
1919.00,0.4363
1918.00,0.4365
1917.00,0.4367
1916.00,0.4368
1915.00,0.4367
1914.00,0.4365
1913.00,0.4364
1912.00,0.4364
1911.00,0.4364
1910.00,0.4364
1909.00,0.4364
1908.00,0.4364
1907.00,0.4364
1906.00,0.4362
1905.00,0.4360
1904.00,0.4359
1903.00,0.4358
1902.00,0.4357
1901.00,0.4357
1900.00,0.4357
1899.00,0.4358
1898.00,0.4358
1897.00,0.4360
1896.00,0.4362
1895.00,0.4364
1894.00,0.4366
1893.00,0.4367
1892.00,0.4369
1891.00,0.4371
1890.00,0.4373
1889.00,0.4375
1888.00,0.4377
1887.00,0.4377
1886.00,0.4376
1885.00,0.4375
1884.00,0.4374
1883.00,0.4374
1882.00,0.4374
1881.00,0.4374
1880.00,0.4374
1879.00,0.4373
1878.00,0.4372
1877.00,0.4370
1876.00,0.4369
1875.00,0.4367
1874.00,0.4365
1873.00,0.4364
1872.00,0.4364
1871.00,0.4365
1870.00,0.4366
1869.00,0.4367
1868.00,0.4367
1867.00,0.4364
1866.00,0.4360
1865.00,0.4357
1864.00,0.4354
1863.00,0.4352
1862.00,0.4350
1861.00,0.4349
1860.00,0.4348
1859.00,0.4346
1858.00,0.4344
1857.00,0.4342
1856.00,0.4340
1855.00,0.4338
1854.00,0.4336
1853.00,0.4334
1852.00,0.4334
1851.00,0.4334
1850.00,0.4335
1849.00,0.4337
1848.00,0.4340
1847.00,0.4343
1846.00,0.4345
1845.00,0.4347
1844.00,0.4348
1843.00,0.4349
1842.00,0.4347
1841.00,0.4344
1840.00,0.4340
1839.00,0.4337
1838.00,0.4335
1837.00,0.4335
1836.00,0.4335
1835.00,0.4334
1834.00,0.4334
1833.00,0.4334
1832.00,0.4334
1831.00,0.4333
1830.00,0.4332
1829.00,0.4333
1828.00,0.4334
1827.00,0.4337
1826.00,0.4339
1825.00,0.4342
1824.00,0.4343
1823.00,0.4343
1822.00,0.4341
1821.00,0.4339
1820.00,0.4339
1819.00,0.4341
1818.00,0.4344
1817.00,0.4347
1816.00,0.4349
1815.00,0.4351
1814.00,0.4353
1813.00,0.4357
1812.00,0.4361
1811.00,0.4365
1810.00,0.4368
1809.00,0.4371
1808.00,0.4376
1807.00,0.4380
1806.00,0.4383
1805.00,0.4388
1804.00,0.4396
1803.00,0.4406
1802.00,0.4416
1801.00,0.4423
1800.00,0.4427
1799.00,0.4430
1798.00,0.4434
1797.00,0.4441
1796.00,0.4448
1795.00,0.4456
1794.00,0.4463
1793.00,0.4472
1792.00,0.4483
1791.00,0.4493
1790.00,0.4500
1789.00,0.4504
1788.00,0.4509
1787.00,0.4516
1786.00,0.4527
1785.00,0.4539
1784.00,0.4550
1783.00,0.4559
1782.00,0.4567
1781.00,0.4575
1780.00,0.4586
1779.00,0.4597
1778.00,0.4608
1777.00,0.4618
1776.00,0.4631
1775.00,0.4645
1774.00,0.4658
1773.00,0.4672
1772.00,0.4688
1771.00,0.4708
1770.00,0.4732
1769.00,0.4758
1768.00,0.4785
1767.00,0.4811
1766.00,0.4837
1765.00,0.4866
1764.00,0.4905
1763.00,0.4958
1762.00,0.5023
1761.00,0.5100
1760.00,0.5186
1759.00,0.5280
1758.00,0.5391
1757.00,0.5522
1756.00,0.5670
1755.00,0.5827
1754.00,0.5991
1753.00,0.6169
1752.00,0.6363
1751.00,0.6561
1750.00,0.6741
1749.00,0.6888
1748.00,0.6997
1747.00,0.7067
1746.00,0.7100
1745.00,0.7099
1744.00,0.7064
1743.00,0.7000
1742.00,0.6915
1741.00,0.6814
1740.00,0.6704
1739.00,0.6595
1738.00,0.6503
1737.00,0.6429
1736.00,0.6363
1735.00,0.6295
1734.00,0.6226
1733.00,0.6165
1732.00,0.6112
1731.00,0.6057
1730.00,0.6002
1729.00,0.5946
1728.00,0.5893
1727.00,0.5844
1726.00,0.5801
1725.00,0.5766
1724.00,0.5739
1723.00,0.5716
1722.00,0.5698
1721.00,0.5687
1720.00,0.5681
1719.00,0.5680
1718.00,0.5682
1717.00,0.5687
1716.00,0.5692
1715.00,0.5693
1714.00,0.5693
1713.00,0.5696
1712.00,0.5701
1711.00,0.5708
1710.00,0.5718
1709.00,0.5728
1708.00,0.5738
1707.00,0.5744
1706.00,0.5745
1705.00,0.5741
1704.00,0.5732
1703.00,0.5717
1702.00,0.5690
1701.00,0.5647
1700.00,0.5594
1699.00,0.5548
1698.00,0.5515
1697.00,0.5484
1696.00,0.5451
1695.00,0.5420
1694.00,0.5395
1693.00,0.5377
1692.00,0.5365
1691.00,0.5357
1690.00,0.5355
1689.00,0.5358
1688.00,0.5364
1687.00,0.5370
1686.00,0.5376
1685.00,0.5380
1684.00,0.5385
1683.00,0.5390
1682.00,0.5395
1681.00,0.5398
1680.00,0.5399
1679.00,0.5401
1678.00,0.5405
1677.00,0.5413
1676.00,0.5424
1675.00,0.5437
1674.00,0.5451
1673.00,0.5464
1672.00,0.5475
1671.00,0.5484
1670.00,0.5495
1669.00,0.5509
1668.00,0.5525
1667.00,0.5538
1666.00,0.5548
1665.00,0.5558
1664.00,0.5569
1663.00,0.5582
1662.00,0.5598
1661.00,0.5615
1660.00,0.5632
1659.00,0.5646
1658.00,0.5661
1657.00,0.5678
1656.00,0.5699
1655.00,0.5723
1654.00,0.5745
1653.00,0.5767
1652.00,0.5793
1651.00,0.5812
1650.00,0.5820
1649.00,0.5828
1648.00,0.5844
1647.00,0.5867
1646.00,0.5894
1645.00,0.5925
1644.00,0.5953
1643.00,0.5976
1642.00,0.6000
1641.00,0.6027
1640.00,0.6058
1639.00,0.6090
1638.00,0.6124
1637.00,0.6162
1636.00,0.6207
1635.00,0.6255
1634.00,0.6302
1633.00,0.6343
1632.00,0.6381
1631.00,0.6415
1630.00,0.6449
1629.00,0.6485
1628.00,0.6523
1627.00,0.6561
1626.00,0.6597
1625.00,0.6633
1624.00,0.6671
1623.00,0.6711
1622.00,0.6753
1621.00,0.6799
1620.00,0.6848
1619.00,0.6899
1618.00,0.6958
1617.00,0.7032
1616.00,0.7118
1615.00,0.7205
1614.00,0.7287
1613.00,0.7370
1612.00,0.7460
1611.00,0.7556
1610.00,0.7657
1609.00,0.7764
1608.00,0.7875
1607.00,0.7982
1606.00,0.8084
1605.00,0.8188
1604.00,0.8297
1603.00,0.8408
1602.00,0.8522
1601.00,0.8648
1600.00,0.8792
1599.00,0.8954
1598.00,0.9140
1597.00,0.9368
1596.00,0.9653
1595.00,1.0000
1594.00,1.0424
1593.00,1.0951
1592.00,1.1614
1591.00,1.2436
1590.00,1.3453
1589.00,1.4733
1588.00,1.6357
1587.00,1.8374
1586.00,2.0807
1585.00,2.3781
1584.00,2.7766
1583.00,3.3219
1582.00,3.6758
1581.00,3.6998
1580.00,3.8188
1579.00,3.8925
1578.00,3.3487
1577.00,2.8576
1576.00,2.5089
1575.00,2.2285
1574.00,2.0144
1573.00,1.8577
1572.00,1.7379
1571.00,1.6406
1570.00,1.5655
1569.00,1.5209
1568.00,1.5096
1567.00,1.5280
1566.00,1.5754
1565.00,1.6568
1564.00,1.7752
1563.00,1.9209
1562.00,2.0759
1561.00,2.2239
1560.00,2.3027
1559.00,2.1818
1558.00,1.9502
1557.00,1.7442
1556.00,1.5689
1555.00,1.4084
1554.00,1.2682
1553.00,1.1568
1552.00,1.0715
1551.00,1.0031
1550.00,0.9459
1549.00,0.8995
1548.00,0.8636
1547.00,0.8352
1546.00,0.8117
1545.00,0.7920
1544.00,0.7758
1543.00,0.7621
1542.00,0.7497
1541.00,0.7379
1540.00,0.7265
1539.00,0.7157
1538.00,0.7062
1537.00,0.6979
1536.00,0.6904
1535.00,0.6833
1534.00,0.6768
1533.00,0.6722
1532.00,0.6702
1531.00,0.6699
1530.00,0.6706
1529.00,0.6719
1528.00,0.6730
1527.00,0.6726
1526.00,0.6701
1525.00,0.6661
1524.00,0.6619
1523.00,0.6580
1522.00,0.6551
1521.00,0.6538
1520.00,0.6540
1519.00,0.6549
1518.00,0.6565
1517.00,0.6592
1516.00,0.6626
1515.00,0.6655
1514.00,0.6677
1513.00,0.6698
1512.00,0.6724
1511.00,0.6754
1510.00,0.6789
1509.00,0.6835
1508.00,0.6895
1507.00,0.6965
1506.00,0.7039
1505.00,0.7114
1504.00,0.7184
1503.00,0.7248
1502.00,0.7314
1501.00,0.7388
1500.00,0.7469
1499.00,0.7554
1498.00,0.7651
1497.00,0.7770
1496.00,0.7905
1495.00,0.8041
1494.00,0.8177
1493.00,0.8325
1492.00,0.8497
1491.00,0.8693
1490.00,0.8907
1489.00,0.9132
1488.00,0.9360
1487.00,0.9593
1486.00,0.9845
1485.00,1.0133
1484.00,1.0461
1483.00,1.0833
1482.00,1.1266
1481.00,1.1773
1480.00,1.2347
1479.00,1.2986
1478.00,1.3729
1477.00,1.4624
1476.00,1.5691
1475.00,1.6936
1474.00,1.8447
1473.00,2.0411
1472.00,2.2974
1471.00,2.6106
1470.00,2.9776
1469.00,3.4647
1468.00,4.1863
1467.00,4.1682
1466.00,4.0375
1465.00,4.1480
1464.00,4.4969
1463.00,4.5666
1462.00,4.4627
1461.00,4.9011
1460.00,4.5510
1459.00,4.1010
1458.00,4.0107
1457.00,4.4377
1456.00,4.5507
1455.00,4.0456
1454.00,3.9263
1453.00,4.2141
1452.00,4.8601
1451.00,4.2448
1450.00,4.0791
1449.00,4.0572
1448.00,3.8153
1447.00,3.5041
1446.00,3.3175
1445.00,3.2227
1444.00,3.1136
1443.00,2.9607
1442.00,2.8052
1441.00,2.6622
1440.00,2.5209
1439.00,2.3794
1438.00,2.2428
1437.00,2.1114
1436.00,1.9864
1435.00,1.8729
1434.00,1.7712
1433.00,1.6761
1432.00,1.5846
1431.00,1.4987
1430.00,1.4223
1429.00,1.3575
1428.00,1.3043
1427.00,1.2620
1426.00,1.2286
1425.00,1.2019
1424.00,1.1811
1423.00,1.1663
1422.00,1.1566
1421.00,1.1503
1420.00,1.1459
1419.00,1.1423
1418.00,1.1393
1417.00,1.1366
1416.00,1.1343
1415.00,1.1333
1414.00,1.1341
1413.00,1.1368
1412.00,1.1410
1411.00,1.1456
1410.00,1.1485
1409.00,1.1476
1408.00,1.1409
1407.00,1.1272
1406.00,1.1063
1405.00,1.0793
1404.00,1.0492
1403.00,1.0197
1402.00,0.9930
1401.00,0.9696
1400.00,0.9494
1399.00,0.9329
1398.00,0.9206
1397.00,0.9122
1396.00,0.9077
1395.00,0.9073
1394.00,0.9111
1393.00,0.9191
1392.00,0.9321
1391.00,0.9514
1390.00,0.9787
1389.00,1.0160
1388.00,1.0657
1387.00,1.1286
1386.00,1.2026
1385.00,1.2849
1384.00,1.3761
1383.00,1.4796
1382.00,1.6002
1381.00,1.7413
1380.00,1.9025
1379.00,2.0674
1378.00,2.1924
1377.00,2.2297
1376.00,2.1740
1375.00,2.0565
1374.00,1.9151
1373.00,1.7810
1372.00,1.6708
1371.00,1.5879
1370.00,1.5312
1369.00,1.4970
1368.00,1.4782
1367.00,1.4621
1366.00,1.4347
1365.00,1.3885
1364.00,1.3269
1363.00,1.2609
1362.00,1.2008
1361.00,1.1522
1360.00,1.1156
1359.00,1.0891
1358.00,1.0706
1357.00,1.0584
1356.00,1.0514
1355.00,1.0486
1354.00,1.0490
1353.00,1.0513
1352.00,1.0541
1351.00,1.0566
1350.00,1.0582
1349.00,1.0588
1348.00,1.0588
1347.00,1.0584
1346.00,1.0576
1345.00,1.0563
1344.00,1.0542
1343.00,1.0511
1342.00,1.0466
1341.00,1.0405
1340.00,1.0320
1339.00,1.0206
1338.00,1.0058
1337.00,0.9877
1336.00,0.9674
1335.00,0.9462
1334.00,0.9257
1333.00,0.9069
1332.00,0.8906
1331.00,0.8771
1330.00,0.8666
1329.00,0.8589
1328.00,0.8536
1327.00,0.8507
1326.00,0.8498
1325.00,0.8503
1324.00,0.8517
1323.00,0.8534
1322.00,0.8552
1321.00,0.8565
1320.00,0.8575
1319.00,0.8583
1318.00,0.8594
1317.00,0.8609
1316.00,0.8631
1315.00,0.8661
1314.00,0.8699
1313.00,0.8742
1312.00,0.8789
1311.00,0.8838
1310.00,0.8887
1309.00,0.8934
1308.00,0.8979
1307.00,0.9019
1306.00,0.9049
1305.00,0.9061
1304.00,0.9052
1303.00,0.9021
1302.00,0.8973
1301.00,0.8915
1300.00,0.8852
1299.00,0.8790
1298.00,0.8727
1297.00,0.8667
1296.00,0.8612
1295.00,0.8565
1294.00,0.8529
1293.00,0.8504
1292.00,0.8485
1291.00,0.8471
1290.00,0.8458
1289.00,0.8444
1288.00,0.8427
1287.00,0.8403
1286.00,0.8369
1285.00,0.8325
1284.00,0.8274
1283.00,0.8223
1282.00,0.8178
1281.00,0.8144
1280.00,0.8119
1279.00,0.8101
1278.00,0.8083
1277.00,0.8063
1276.00,0.8040
1275.00,0.8019
1274.00,0.8004
1273.00,0.7999
1272.00,0.8006
1271.00,0.8025
1270.00,0.8053
1269.00,0.8078
1268.00,0.8084
1267.00,0.8061
1266.00,0.8008
1265.00,0.7936
1264.00,0.7863
1263.00,0.7804
1262.00,0.7766
1261.00,0.7746
1260.00,0.7737
1259.00,0.7734
1258.00,0.7730
1257.00,0.7720
1256.00,0.7703
1255.00,0.7681
1254.00,0.7661
1253.00,0.7645
1252.00,0.7637
1251.00,0.7631
1250.00,0.7626
1249.00,0.7619
1248.00,0.7610
1247.00,0.7600
1246.00,0.7591
1245.00,0.7580
1244.00,0.7566
1243.00,0.7549
1242.00,0.7527
1241.00,0.7505
1240.00,0.7486
1239.00,0.7472
1238.00,0.7465
1237.00,0.7467
1236.00,0.7479
1235.00,0.7499
1234.00,0.7526
1233.00,0.7559
1232.00,0.7600
1231.00,0.7643
1230.00,0.7680
1229.00,0.7699
1228.00,0.7692
1227.00,0.7658
1226.00,0.7602
1225.00,0.7531
1224.00,0.7458
1223.00,0.7390
1222.00,0.7333
1221.00,0.7287
1220.00,0.7253
1219.00,0.7231
1218.00,0.7222
1217.00,0.7227
1216.00,0.7244
1215.00,0.7270
1214.00,0.7296
1213.00,0.7311
1212.00,0.7309
1211.00,0.7291
1210.00,0.7263
1209.00,0.7231
1208.00,0.7201
1207.00,0.7177
1206.00,0.7158
1205.00,0.7146
1204.00,0.7138
1203.00,0.7137
1202.00,0.7143
1201.00,0.7156
1200.00,0.7175
1199.00,0.7197
1198.00,0.7218
1197.00,0.7233
1196.00,0.7240
1195.00,0.7240
1194.00,0.7233
1193.00,0.7221
1192.00,0.7206
1191.00,0.7191
1190.00,0.7176
1189.00,0.7162
1188.00,0.7148
1187.00,0.7136
1186.00,0.7126
1185.00,0.7118
1184.00,0.7114
1183.00,0.7116
1182.00,0.7125
1181.00,0.7139
1180.00,0.7156
1179.00,0.7174
1178.00,0.7192
1177.00,0.7212
1176.00,0.7235
1175.00,0.7265
1174.00,0.7302
1173.00,0.7346
1172.00,0.7392
1171.00,0.7436
1170.00,0.7470
1169.00,0.7491
1168.00,0.7500
1167.00,0.7500
1166.00,0.7495
1165.00,0.7490
1164.00,0.7486
1163.00,0.7487
1162.00,0.7494
1161.00,0.7508
1160.00,0.7524
1159.00,0.7540
1158.00,0.7552
1157.00,0.7560
1156.00,0.7563
1155.00,0.7563
1154.00,0.7557
1153.00,0.7547
1152.00,0.7535
1151.00,0.7523
1150.00,0.7513
1149.00,0.7505
1148.00,0.7500
1147.00,0.7497
1146.00,0.7500
1145.00,0.7509
1144.00,0.7531
1143.00,0.7568
1142.00,0.7625
1141.00,0.7703
1140.00,0.7802
1139.00,0.7921
1138.00,0.8059
1137.00,0.8213
1136.00,0.8383
1135.00,0.8555
1134.00,0.8705
1133.00,0.8797
1132.00,0.8803
1131.00,0.8725
1130.00,0.8589
1129.00,0.8438
1128.00,0.8307
1127.00,0.8216
1126.00,0.8167
1125.00,0.8151
1124.00,0.8157
1123.00,0.8172
1122.00,0.8187
1121.00,0.8200
1120.00,0.8216
1119.00,0.8246
1118.00,0.8300
1117.00,0.8380
1116.00,0.8482
1115.00,0.8585
1114.00,0.8655
1113.00,0.8657
1112.00,0.8583
1111.00,0.8457
1110.00,0.8321
1109.00,0.8205
1108.00,0.8125
1107.00,0.8079
1106.00,0.8060
1105.00,0.8057
1104.00,0.8058
1103.00,0.8051
1102.00,0.8028
1101.00,0.7980
1100.00,0.7906
1099.00,0.7810
1098.00,0.7702
1097.00,0.7590
1096.00,0.7484
1095.00,0.7390
1094.00,0.7313
1093.00,0.7252
1092.00,0.7209
1091.00,0.7182
1090.00,0.7171
1089.00,0.7177
1088.00,0.7202
1087.00,0.7248
1086.00,0.7315
1085.00,0.7403
1084.00,0.7512
1083.00,0.7641
1082.00,0.7787
1081.00,0.7944
1080.00,0.8098
1079.00,0.8233
1078.00,0.8333
1077.00,0.8383
1076.00,0.8374
1075.00,0.8310
1074.00,0.8209
1073.00,0.8090
1072.00,0.7968
1071.00,0.7855
1070.00,0.7756
1069.00,0.7673
1068.00,0.7607
1067.00,0.7553
1066.00,0.7510
1065.00,0.7473
1064.00,0.7446
1063.00,0.7430
1062.00,0.7425
1061.00,0.7425
1060.00,0.7424
1059.00,0.7420
1058.00,0.7408
1057.00,0.7386
1056.00,0.7352
1055.00,0.7308
1054.00,0.7263
1053.00,0.7222
1052.00,0.7192
1051.00,0.7176
1050.00,0.7176
1049.00,0.7191
1048.00,0.7217
1047.00,0.7248
1046.00,0.7277
1045.00,0.7298
1044.00,0.7308
1043.00,0.7309
1042.00,0.7309
1041.00,0.7310
1040.00,0.7313
1039.00,0.7316
1038.00,0.7315
1037.00,0.7308
1036.00,0.7301
1035.00,0.7302
1034.00,0.7318
1033.00,0.7351
1032.00,0.7399
1031.00,0.7455
1030.00,0.7513
1029.00,0.7562
1028.00,0.7588
1027.00,0.7578
1026.00,0.7525
1025.00,0.7432
1024.00,0.7315
1023.00,0.7194
1022.00,0.7082
1021.00,0.6985
1020.00,0.6904
1019.00,0.6836
1018.00,0.6779
1017.00,0.6732
1016.00,0.6692
1015.00,0.6661
1014.00,0.6639
1013.00,0.6623
1012.00,0.6613
1011.00,0.6609
1010.00,0.6613
1009.00,0.6626
1008.00,0.6646
1007.00,0.6670
1006.00,0.6700
1005.00,0.6734
1004.00,0.6776
1003.00,0.6825
1002.00,0.6879
1001.00,0.6933
1000.00,0.6979
999.00,0.7014
998.00,0.7033
997.00,0.7032
996.00,0.7011
995.00,0.6975
994.00,0.6930
993.00,0.6878
992.00,0.6817
991.00,0.6750
990.00,0.6681
989.00,0.6614
988.00,0.6557
987.00,0.6514
986.00,0.6487
985.00,0.6474
984.00,0.6474
983.00,0.6484
982.00,0.6500
981.00,0.6517
980.00,0.6531
979.00,0.6540
978.00,0.6541
977.00,0.6536
976.00,0.6525
975.00,0.6511
974.00,0.6494
973.00,0.6475
972.00,0.6457
971.00,0.6438
970.00,0.6418
969.00,0.6398
968.00,0.6378
967.00,0.6358
966.00,0.6338
965.00,0.6314
964.00,0.6285
963.00,0.6251
962.00,0.6215
961.00,0.6182
960.00,0.6154
959.00,0.6136
958.00,0.6125
957.00,0.6118
956.00,0.6111
955.00,0.6099
954.00,0.6083
953.00,0.6065
952.00,0.6047
951.00,0.6031
950.00,0.6022
949.00,0.6021
948.00,0.6028
947.00,0.6043
946.00,0.6067
945.00,0.6096
944.00,0.6130
943.00,0.6166
942.00,0.6203
941.00,0.6237
940.00,0.6265
939.00,0.6285
938.00,0.6296
937.00,0.6295
936.00,0.6283
935.00,0.6262
934.00,0.6236
933.00,0.6207
932.00,0.6180
931.00,0.6158
930.00,0.6143
929.00,0.6141
928.00,0.6155
927.00,0.6191
926.00,0.6251
925.00,0.6336
924.00,0.6443
923.00,0.6562
922.00,0.6674
921.00,0.6748
920.00,0.6758
919.00,0.6695
918.00,0.6574
917.00,0.6425
916.00,0.6276
915.00,0.6146
914.00,0.6042
913.00,0.5961
912.00,0.5900
911.00,0.5855
910.00,0.5823
909.00,0.5800
908.00,0.5786
907.00,0.5780
906.00,0.5779
905.00,0.5781
904.00,0.5781
903.00,0.5778
902.00,0.5772
901.00,0.5761
900.00,0.5746
899.00,0.5728
898.00,0.5711
897.00,0.5698
896.00,0.5692
895.00,0.5696
894.00,0.5711
893.00,0.5734
892.00,0.5764
891.00,0.5796
890.00,0.5825
889.00,0.5840
888.00,0.5835
887.00,0.5807
886.00,0.5761
885.00,0.5705
884.00,0.5651
883.00,0.5608
882.00,0.5580
881.00,0.5565
880.00,0.5560
879.00,0.5563
878.00,0.5571
877.00,0.5581
876.00,0.5593
875.00,0.5606
874.00,0.5622
873.00,0.5641
872.00,0.5661
871.00,0.5683
870.00,0.5709
869.00,0.5746
868.00,0.5795
867.00,0.5863
866.00,0.5948
865.00,0.6049
864.00,0.6159
863.00,0.6258
862.00,0.6322
861.00,0.6323
860.00,0.6252
859.00,0.6129
858.00,0.5989
857.00,0.5860
856.00,0.5756
855.00,0.5676
854.00,0.5616
853.00,0.5569
852.00,0.5534
851.00,0.5508
850.00,0.5487
849.00,0.5469
848.00,0.5451
847.00,0.5434
846.00,0.5419
845.00,0.5409
844.00,0.5408
843.00,0.5418
842.00,0.5445
841.00,0.5499
840.00,0.5589
839.00,0.5717
838.00,0.5870
837.00,0.6019
836.00,0.6122
835.00,0.6137
834.00,0.6056
833.00,0.5909
832.00,0.5744
831.00,0.5601
830.00,0.5496
829.00,0.5430
828.00,0.5395
827.00,0.5384
826.00,0.5390
825.00,0.5407
824.00,0.5431
823.00,0.5461
822.00,0.5495
821.00,0.5531
820.00,0.5565
819.00,0.5598
818.00,0.5627
817.00,0.5648
816.00,0.5661
815.00,0.5667
814.00,0.5666
813.00,0.5655
812.00,0.5635
811.00,0.5607
810.00,0.5573
809.00,0.5538
808.00,0.5506
807.00,0.5478
806.00,0.5454
805.00,0.5433
804.00,0.5413
803.00,0.5394
802.00,0.5375
801.00,0.5358
800.00,0.5346
799.00,0.5341
798.00,0.5343
797.00,0.5348
796.00,0.5352
795.00,0.5357
794.00,0.5364
793.00,0.5375
792.00,0.5392
791.00,0.5418
790.00,0.5448
789.00,0.5472
788.00,0.5485
787.00,0.5490
786.00,0.5496
785.00,0.5512
784.00,0.5539
783.00,0.5574
782.00,0.5610
781.00,0.5641
780.00,0.5666
779.00,0.5684
778.00,0.5700
777.00,0.5717
776.00,0.5738
775.00,0.5764
774.00,0.5792
773.00,0.5820
772.00,0.5846
771.00,0.5871
770.00,0.5897
769.00,0.5926
768.00,0.5959
767.00,0.5997
766.00,0.6038
765.00,0.6077
764.00,0.6117
763.00,0.6162
762.00,0.6218
761.00,0.6285
760.00,0.6355
759.00,0.6414
758.00,0.6451
757.00,0.6462
756.00,0.6453
755.00,0.6439
754.00,0.6432
753.00,0.6440
752.00,0.6463
751.00,0.6500
750.00,0.6547
749.00,0.6602
748.00,0.6662
747.00,0.6725
746.00,0.6792
745.00,0.6866
744.00,0.6949
743.00,0.7040
742.00,0.7140
741.00,0.7242
740.00,0.7341
739.00,0.7432
738.00,0.7516
737.00,0.7599
736.00,0.7688
735.00,0.7781
734.00,0.7878
733.00,0.7980
732.00,0.8094
731.00,0.8233
730.00,0.8415
729.00,0.8650
728.00,0.8949
727.00,0.9321
726.00,0.9773
725.00,1.0295
724.00,1.0846
723.00,1.1333
722.00,1.1612
721.00,1.1545
720.00,1.1124
719.00,1.0490
718.00,0.9813
717.00,0.9197
716.00,0.8686
715.00,0.8283
714.00,0.7972
713.00,0.7728
712.00,0.7527
711.00,0.7356
710.00,0.7212
709.00,0.7092
708.00,0.6992
707.00,0.6909
706.00,0.6836
705.00,0.6765
704.00,0.6696
703.00,0.6630
702.00,0.6569
701.00,0.6511
700.00,0.6451
699.00,0.6380
698.00,0.6288
697.00,0.6176
696.00,0.6053
695.00,0.5935
694.00,0.5835
693.00,0.5756
692.00,0.5695
691.00,0.5648
690.00,0.5611
689.00,0.5580
688.00,0.5554
687.00,0.5533
686.00,0.5516
685.00,0.5502
684.00,0.5491
683.00,0.5484
682.00,0.5480
681.00,0.5480
680.00,0.5483
679.00,0.5489
678.00,0.5494
677.00,0.5498
676.00,0.5501
675.00,0.5504
674.00,0.5506
673.00,0.5510
672.00,0.5515
671.00,0.5523
670.00,0.5533
669.00,0.5543
668.00,0.5545
667.00,0.5540
666.00,0.5540
665.00,0.5543
664.00,0.5547
663.00,0.5551
662.00,0.5555
661.00,0.5560
660.00,0.5564
659.00,0.5570
658.00,0.5578
657.00,0.5588
656.00,0.5600
655.00,0.5614
654.00,0.5628
653.00,0.5643
652.00,0.5656
651.00,0.5669
650.00,0.5680
649.00,0.5689
648.00,0.5697
647.00,0.5707
646.00,0.5722
645.00,0.5740
644.00,0.5756
643.00,0.5772
642.00,0.5785
641.00,0.5795
640.00,0.5800
639.00,0.5800
638.00,0.5797
637.00,0.5792
636.00,0.5789
635.00,0.5789
634.00,0.5792
633.00,0.5796
632.00,0.5799
631.00,0.5800
630.00,0.5802
629.00,0.5804
628.00,0.5807
627.00,0.5813
626.00,0.5822
625.00,0.5833
624.00,0.5842
623.00,0.5850
622.00,0.5857
621.00,0.5863
620.00,0.5866
619.00,0.5869
618.00,0.5872
617.00,0.5875
616.00,0.5875
615.00,0.5869
614.00,0.5858
613.00,0.5844
612.00,0.5827
611.00,0.5809
610.00,0.5792
609.00,0.5777
608.00,0.5764
607.00,0.5751
606.00,0.5739
605.00,0.5729
604.00,0.5722
603.00,0.5719
602.00,0.5717
601.00,0.5717
600.00,0.5718
599.00,0.5719
598.00,0.5720
597.00,0.5723
596.00,0.5730
595.00,0.5744
594.00,0.5762
593.00,0.5782
592.00,0.5800
591.00,0.5819
590.00,0.5839
589.00,0.5862
588.00,0.5887
587.00,0.5914
586.00,0.5940
585.00,0.5967
584.00,0.5994
583.00,0.6021
582.00,0.6048
581.00,0.6071
580.00,0.6092
579.00,0.6114
578.00,0.6138
577.00,0.6164
576.00,0.6190
575.00,0.6214
574.00,0.6237
573.00,0.6264
572.00,0.6304
571.00,0.6356
570.00,0.6411
569.00,0.6457
568.00,0.6488
567.00,0.6512
566.00,0.6538
565.00,0.6574
564.00,0.6618
563.00,0.6663
562.00,0.6699
561.00,0.6726
560.00,0.6751
559.00,0.6775
558.00,0.6796
557.00,0.6809
556.00,0.6815
555.00,0.6822
554.00,0.6833
553.00,0.6846
552.00,0.6859
551.00,0.6870
550.00,0.6882
