Created as New Dataset,
cm-1,A
4000.00,0.4130
3999.00,0.4126
3998.00,0.4122
3997.00,0.4119
3996.00,0.4116
3995.00,0.4112
3994.00,0.4109
3993.00,0.4106
3992.00,0.4103
3991.00,0.4099
3990.00,0.4095
3989.00,0.4091
3988.00,0.4086
3987.00,0.4082
3986.00,0.4078
3985.00,0.4074
3984.00,0.4070
3983.00,0.4066
3982.00,0.4063
3981.00,0.4060
3980.00,0.4058
3979.00,0.4055
3978.00,0.4053
3977.00,0.4050
3976.00,0.4047
3975.00,0.4044
3974.00,0.4040
3973.00,0.4037
3972.00,0.4034
3971.00,0.4031
3970.00,0.4029
3969.00,0.4026
3968.00,0.4024
3967.00,0.4022
3966.00,0.4019
3965.00,0.4016
3964.00,0.4013
3963.00,0.4010
3962.00,0.4008
3961.00,0.4005
3960.00,0.4003
3959.00,0.4000
3958.00,0.3998
3957.00,0.3996
3956.00,0.3995
3955.00,0.3994
3954.00,0.3992
3953.00,0.3991
3952.00,0.3989
3951.00,0.3987
3950.00,0.3986
3949.00,0.3984
3948.00,0.3983
3947.00,0.3982
3946.00,0.3980
3945.00,0.3977
3944.00,0.3975
3943.00,0.3974
3942.00,0.3973
3941.00,0.3973
3940.00,0.3973
3939.00,0.3973
3938.00,0.3973
3937.00,0.3973
3936.00,0.3973
3935.00,0.3972
3934.00,0.3972
3933.00,0.3971
3932.00,0.3971
3931.00,0.3971
3930.00,0.3971
3929.00,0.3971
3928.00,0.3971
3927.00,0.3971
3926.00,0.3970
3925.00,0.3969
3924.00,0.3969
3923.00,0.3969
3922.00,0.3969
3921.00,0.3970
3920.00,0.3970
3919.00,0.3969
3918.00,0.3967
3917.00,0.3966
3916.00,0.3965
3915.00,0.3964
3914.00,0.3963
3913.00,0.3962
3912.00,0.3961
3911.00,0.3960
3910.00,0.3959
3909.00,0.3959
3908.00,0.3959
3907.00,0.3960
3906.00,0.3959
3905.00,0.3959
3904.00,0.3958
3903.00,0.3959
3902.00,0.3958
3901.00,0.3958
3900.00,0.3957
3899.00,0.3958
3898.00,0.3958
3897.00,0.3958
3896.00,0.3957
3895.00,0.3955
3894.00,0.3954
3893.00,0.3952
3892.00,0.3952
3891.00,0.3952
3890.00,0.3952
3889.00,0.3951
3888.00,0.3948
3887.00,0.3946
3886.00,0.3945
3885.00,0.3945
3884.00,0.3944
3883.00,0.3942
3882.00,0.3940
3881.00,0.3939
3880.00,0.3938
3879.00,0.3937
3878.00,0.3935
3877.00,0.3933
3876.00,0.3931
3875.00,0.3930
3874.00,0.3929
3873.00,0.3928
3872.00,0.3926
3871.00,0.3924
3870.00,0.3924
3869.00,0.3925
3868.00,0.3925
3867.00,0.3923
3866.00,0.3920
3865.00,0.3919
3864.00,0.3919
3863.00,0.3918
3862.00,0.3916
3861.00,0.3914
3860.00,0.3913
3859.00,0.3913
3858.00,0.3913
3857.00,0.3913
3856.00,0.3912
3855.00,0.3911
3854.00,0.3911
3853.00,0.3913
3852.00,0.3913
3851.00,0.3912
3850.00,0.3911
3849.00,0.3910
3848.00,0.3909
3847.00,0.3908
3846.00,0.3907
3845.00,0.3905
3844.00,0.3903
3843.00,0.3901
3842.00,0.3901
3841.00,0.3900
3840.00,0.3899
3839.00,0.3899
3838.00,0.3900
3837.00,0.3900
3836.00,0.3900
3835.00,0.3898
3834.00,0.3897
3833.00,0.3895
3832.00,0.3895
3831.00,0.3894
3830.00,0.3893
3829.00,0.3892
3828.00,0.3890
3827.00,0.3888
3826.00,0.3888
3825.00,0.3888
3824.00,0.3887
3823.00,0.3885
3822.00,0.3884
3821.00,0.3885
3820.00,0.3886
3819.00,0.3886
3818.00,0.3883
3817.00,0.3881
3816.00,0.3880
3815.00,0.3880
3814.00,0.3877
3813.00,0.3873
3812.00,0.3870
3811.00,0.3869
3810.00,0.3868
3809.00,0.3866
3808.00,0.3864
3807.00,0.3862
3806.00,0.3860
3805.00,0.3858
3804.00,0.3855
3803.00,0.3852
3802.00,0.3850
3801.00,0.3849
3800.00,0.3848
3799.00,0.3845
3798.00,0.3842
3797.00,0.3840
3796.00,0.3839
3795.00,0.3837
3794.00,0.3835
3793.00,0.3832
3792.00,0.3830
3791.00,0.3829
3790.00,0.3828
3789.00,0.3827
3788.00,0.3825
3787.00,0.3824
3786.00,0.3823
3785.00,0.3822
3784.00,0.3822
3783.00,0.3822
3782.00,0.3822
3781.00,0.3821
3780.00,0.3821
3779.00,0.3821
3778.00,0.3820
3777.00,0.3817
3776.00,0.3815
3775.00,0.3813
3774.00,0.3813
3773.00,0.3812
3772.00,0.3811
3771.00,0.3809
3770.00,0.3807
3769.00,0.3806
3768.00,0.3804
3767.00,0.3802
3766.00,0.3800
3765.00,0.3799
3764.00,0.3798
3763.00,0.3796
3762.00,0.3794
3761.00,0.3793
3760.00,0.3791
3759.00,0.3790
3758.00,0.3788
3757.00,0.3787
3756.00,0.3786
3755.00,0.3785
3754.00,0.3785
3753.00,0.3785
3752.00,0.3784
3751.00,0.3784
3750.00,0.3784
3749.00,0.3784
3748.00,0.3784
3747.00,0.3784
3746.00,0.3782
3745.00,0.3781
3744.00,0.3781
3743.00,0.3780
3742.00,0.3777
3741.00,0.3774
3740.00,0.3774
3739.00,0.3775
3738.00,0.3775
3737.00,0.3774
3736.00,0.3773
3735.00,0.3772
3734.00,0.3771
3733.00,0.3769
3732.00,0.3767
3731.00,0.3767
3730.00,0.3766
3729.00,0.3765
3728.00,0.3763
3727.00,0.3762
3726.00,0.3761
3725.00,0.3760
3724.00,0.3758
3723.00,0.3757
3722.00,0.3756
3721.00,0.3756
3720.00,0.3755
3719.00,0.3754
3718.00,0.3754
3717.00,0.3754
3716.00,0.3754
3715.00,0.3754
3714.00,0.3755
3713.00,0.3756
3712.00,0.3758
3711.00,0.3759
3710.00,0.3760
3709.00,0.3761
3708.00,0.3762
3707.00,0.3764
3706.00,0.3766
3705.00,0.3767
3704.00,0.3768
3703.00,0.3769
3702.00,0.3771
3701.00,0.3772
3700.00,0.3774
3699.00,0.3775
3698.00,0.3777
3697.00,0.3778
3696.00,0.3780
3695.00,0.3782
3694.00,0.3783
3693.00,0.3783
3692.00,0.3784
3691.00,0.3785
3690.00,0.3786
3689.00,0.3788
3688.00,0.3790
3687.00,0.3792
3686.00,0.3793
3685.00,0.3794
3684.00,0.3795
3683.00,0.3797
3682.00,0.3799
3681.00,0.3801
3680.00,0.3805
3679.00,0.3808
3678.00,0.3812
3677.00,0.3815
3676.00,0.3818
3675.00,0.3821
3674.00,0.3824
3673.00,0.3825
3672.00,0.3826
3671.00,0.3829
3670.00,0.3834
3669.00,0.3839
3668.00,0.3841
3667.00,0.3843
3666.00,0.3845
3665.00,0.3850
3664.00,0.3855
3663.00,0.3862
3662.00,0.3868
3661.00,0.3875
3660.00,0.3881
3659.00,0.3887
3658.00,0.3895
3657.00,0.3903
3656.00,0.3914
3655.00,0.3924
3654.00,0.3934
3653.00,0.3943
3652.00,0.3952
3651.00,0.3962
3650.00,0.3972
3649.00,0.3982
3648.00,0.3991
3647.00,0.4000
3646.00,0.4008
3645.00,0.4016
3644.00,0.4025
3643.00,0.4033
3642.00,0.4042
3641.00,0.4050
3640.00,0.4058
3639.00,0.4066
3638.00,0.4074
3637.00,0.4082
3636.00,0.4091
3635.00,0.4099
3634.00,0.4109
3633.00,0.4118
3632.00,0.4129
3631.00,0.4140
3630.00,0.4155
3629.00,0.4175
3628.00,0.4197
3627.00,0.4216
3626.00,0.4232
3625.00,0.4244
3624.00,0.4253
3623.00,0.4257
3622.00,0.4255
3621.00,0.4248
3620.00,0.4237
3619.00,0.4225
3618.00,0.4214
3617.00,0.4205
3616.00,0.4199
3615.00,0.4194
3614.00,0.4193
3613.00,0.4193
3612.00,0.4195
3611.00,0.4198
3610.00,0.4201
3609.00,0.4205
3608.00,0.4210
3607.00,0.4214
3606.00,0.4217
3605.00,0.4220
3604.00,0.4222
3603.00,0.4223
3602.00,0.4224
3601.00,0.4223
3600.00,0.4221
3599.00,0.4219
3598.00,0.4216
3597.00,0.4213
3596.00,0.4209
3595.00,0.4205
3594.00,0.4203
3593.00,0.4201
3592.00,0.4200
3591.00,0.4200
3590.00,0.4201
3589.00,0.4202
3588.00,0.4204
3587.00,0.4206
3586.00,0.4208
3585.00,0.4209
3584.00,0.4211
3583.00,0.4214
3582.00,0.4217
3581.00,0.4221
3580.00,0.4225
3579.00,0.4229
3578.00,0.4233
3577.00,0.4238
3576.00,0.4242
3575.00,0.4247
3574.00,0.4252
3573.00,0.4258
3572.00,0.4265
3571.00,0.4272
3570.00,0.4279
3569.00,0.4285
3568.00,0.4291
3567.00,0.4297
3566.00,0.4304
3565.00,0.4310
3564.00,0.4316
3563.00,0.4322
3562.00,0.4328
3561.00,0.4334
3560.00,0.4341
3559.00,0.4347
3558.00,0.4354
3557.00,0.4361
3556.00,0.4368
3555.00,0.4376
3554.00,0.4383
3553.00,0.4392
3552.00,0.4401
3551.00,0.4410
3550.00,0.4419
3549.00,0.4428
3548.00,0.4438
3547.00,0.4448
3546.00,0.4458
3545.00,0.4469
3544.00,0.4479
3543.00,0.4489
3542.00,0.4499
3541.00,0.4509
3540.00,0.4518
3539.00,0.4528
3538.00,0.4537
3537.00,0.4546
3536.00,0.4555
3535.00,0.4564
3534.00,0.4573
3533.00,0.4583
3532.00,0.4592
3531.00,0.4601
3530.00,0.4611
3529.00,0.4620
3528.00,0.4630
3527.00,0.4639
3526.00,0.4649
3525.00,0.4659
3524.00,0.4668
3523.00,0.4678
3522.00,0.4687
3521.00,0.4697
3520.00,0.4706
3519.00,0.4717
3518.00,0.4728
3517.00,0.4739
3516.00,0.4750
3515.00,0.4761
3514.00,0.4772
3513.00,0.4783
3512.00,0.4795
3511.00,0.4806
3510.00,0.4818
3509.00,0.4830
3508.00,0.4843
3507.00,0.4856
3506.00,0.4868
3505.00,0.4880
3504.00,0.4892
3503.00,0.4903
3502.00,0.4913
3501.00,0.4925
3500.00,0.4936
3499.00,0.4949
3498.00,0.4961
3497.00,0.4973
3496.00,0.4986
3495.00,0.4998
3494.00,0.5010
3493.00,0.5023
3492.00,0.5036
3491.00,0.5048
3490.00,0.5061
3489.00,0.5073
3488.00,0.5085
3487.00,0.5097
3486.00,0.5109
3485.00,0.5122
3484.00,0.5135
3483.00,0.5148
3482.00,0.5161
3481.00,0.5175
3480.00,0.5187
3479.00,0.5200
3478.00,0.5211
3477.00,0.5223
3476.00,0.5236
3475.00,0.5249
3474.00,0.5262
3473.00,0.5274
3472.00,0.5286
3471.00,0.5298
3470.00,0.5310
3469.00,0.5323
3468.00,0.5337
3467.00,0.5350
3466.00,0.5363
3465.00,0.5375
3464.00,0.5388
3463.00,0.5400
3462.00,0.5413
3461.00,0.5425
3460.00,0.5437
3459.00,0.5449
3458.00,0.5462
3457.00,0.5474
3456.00,0.5488
3455.00,0.5501
3454.00,0.5514
3453.00,0.5526
3452.00,0.5538
3451.00,0.5551
3450.00,0.5564
3449.00,0.5579
3448.00,0.5594
3447.00,0.5610
3446.00,0.5626
3445.00,0.5641
3444.00,0.5656
3443.00,0.5671
3442.00,0.5686
3441.00,0.5701
3440.00,0.5715
3439.00,0.5729
3438.00,0.5743
3437.00,0.5758
3436.00,0.5774
3435.00,0.5790
3434.00,0.5806
3433.00,0.5822
3432.00,0.5838
3431.00,0.5853
3430.00,0.5868
3429.00,0.5884
3428.00,0.5901
3427.00,0.5917
3426.00,0.5934
3425.00,0.5951
3424.00,0.5968
3423.00,0.5985
3422.00,0.6002
3421.00,0.6019
3420.00,0.6035
3419.00,0.6052
3418.00,0.6070
3417.00,0.6088
3416.00,0.6106
3415.00,0.6124
3414.00,0.6143
3413.00,0.6163
3412.00,0.6182
3411.00,0.6202
3410.00,0.6222
3409.00,0.6242
3408.00,0.6262
3407.00,0.6282
3406.00,0.6302
3405.00,0.6323
3404.00,0.6345
3403.00,0.6367
3402.00,0.6389
3401.00,0.6411
3400.00,0.6432
3399.00,0.6454
3398.00,0.6476
3397.00,0.6498
3396.00,0.6521
3395.00,0.6543
3394.00,0.6565
3393.00,0.6587
3392.00,0.6609
3391.00,0.6631
3390.00,0.6653
3389.00,0.6675
3388.00,0.6697
3387.00,0.6720
3386.00,0.6744
3385.00,0.6768
3384.00,0.6792
3383.00,0.6816
3382.00,0.6840
3381.00,0.6864
3380.00,0.6888
3379.00,0.6913
3378.00,0.6939
3377.00,0.6965
3376.00,0.6990
3375.00,0.7014
3374.00,0.7038
3373.00,0.7063
3372.00,0.7088
3371.00,0.7113
3370.00,0.7138
3369.00,0.7164
3368.00,0.7190
3367.00,0.7217
3366.00,0.7245
3365.00,0.7271
3364.00,0.7296
3363.00,0.7319
3362.00,0.7342
3361.00,0.7365
3360.00,0.7390
3359.00,0.7414
3358.00,0.7437
3357.00,0.7460
3356.00,0.7481
3355.00,0.7502
3354.00,0.7524
3353.00,0.7545
3352.00,0.7565
3351.00,0.7583
3350.00,0.7600
3349.00,0.7616
3348.00,0.7632
3347.00,0.7647
3346.00,0.7662
3345.00,0.7677
3344.00,0.7692
3343.00,0.7706
3342.00,0.7721
3341.00,0.7735
3340.00,0.7747
3339.00,0.7757
3338.00,0.7766
3337.00,0.7774
3336.00,0.7783
3335.00,0.7792
3334.00,0.7800
3333.00,0.7806
3332.00,0.7812
3331.00,0.7818
3330.00,0.7823
3329.00,0.7828
3328.00,0.7832
3327.00,0.7834
3326.00,0.7836
3325.00,0.7837
3324.00,0.7837
3323.00,0.7836
3322.00,0.7834
3321.00,0.7831
3320.00,0.7827
3319.00,0.7824
3318.00,0.7820
3317.00,0.7817
3316.00,0.7813
3315.00,0.7809
3314.00,0.7805
3313.00,0.7801
3312.00,0.7797
3311.00,0.7791
3310.00,0.7785
3309.00,0.7781
3308.00,0.7777
3307.00,0.7773
3306.00,0.7767
3305.00,0.7761
3304.00,0.7755
3303.00,0.7749
3302.00,0.7743
3301.00,0.7738
3300.00,0.7734
3299.00,0.7730
3298.00,0.7726
3297.00,0.7723
3296.00,0.7720
3295.00,0.7718
3294.00,0.7716
3293.00,0.7715
3292.00,0.7714
3291.00,0.7714
3290.00,0.7714
3289.00,0.7713
3288.00,0.7711
3287.00,0.7710
3286.00,0.7709
3285.00,0.7710
3284.00,0.7710
3283.00,0.7710
3282.00,0.7711
3281.00,0.7712
3280.00,0.7713
3279.00,0.7715
3278.00,0.7717
3277.00,0.7719
3276.00,0.7721
3275.00,0.7723
3274.00,0.7726
3273.00,0.7727
3272.00,0.7729
3271.00,0.7730
3270.00,0.7731
3269.00,0.7732
3268.00,0.7733
3267.00,0.7735
3266.00,0.7737
3265.00,0.7739
3264.00,0.7741
3263.00,0.7741
3262.00,0.7741
3261.00,0.7742
3260.00,0.7743
3259.00,0.7744
3258.00,0.7744
3257.00,0.7742
3256.00,0.7738
3255.00,0.7734
3254.00,0.7730
3253.00,0.7727
3252.00,0.7726
3251.00,0.7723
3250.00,0.7720
3249.00,0.7715
3248.00,0.7709
3247.00,0.7702
3246.00,0.7693
3245.00,0.7684
3244.00,0.7674
3243.00,0.7664
3242.00,0.7656
3241.00,0.7648
3240.00,0.7640
3239.00,0.7632
3238.00,0.7622
3237.00,0.7612
3236.00,0.7600
3235.00,0.7589
3234.00,0.7577
3233.00,0.7566
3232.00,0.7555
3231.00,0.7542
3230.00,0.7529
3229.00,0.7515
3228.00,0.7501
3227.00,0.7486
3226.00,0.7472
3225.00,0.7458
3224.00,0.7444
3223.00,0.7431
3222.00,0.7417
3221.00,0.7404
3220.00,0.7390
3219.00,0.7375
3218.00,0.7360
3217.00,0.7344
3216.00,0.7327
3215.00,0.7311
3214.00,0.7295
3213.00,0.7279
3212.00,0.7263
3211.00,0.7248
3210.00,0.7233
3209.00,0.7217
3208.00,0.7202
3207.00,0.7186
3206.00,0.7170
3205.00,0.7154
3204.00,0.7138
3203.00,0.7121
3202.00,0.7105
3201.00,0.7090
3200.00,0.7074
3199.00,0.7057
3198.00,0.7040
3197.00,0.7023
3196.00,0.7007
3195.00,0.6991
3194.00,0.6976
3193.00,0.6960
3192.00,0.6943
3191.00,0.6926
3190.00,0.6908
3189.00,0.6890
3188.00,0.6871
3187.00,0.6852
3186.00,0.6834
3185.00,0.6816
3184.00,0.6798
3183.00,0.6780
3182.00,0.6762
3181.00,0.6744
3180.00,0.6725
3179.00,0.6707
3178.00,0.6688
3177.00,0.6669
3176.00,0.6650
3175.00,0.6631
3174.00,0.6612
3173.00,0.6593
3172.00,0.6574
3171.00,0.6554
3170.00,0.6535
3169.00,0.6517
3168.00,0.6498
3167.00,0.6480
3166.00,0.6462
3165.00,0.6444
3164.00,0.6425
3163.00,0.6406
3162.00,0.6387
3161.00,0.6370
3160.00,0.6352
3159.00,0.6335
3158.00,0.6317
3157.00,0.6301
3156.00,0.6285
3155.00,0.6269
3154.00,0.6253
3153.00,0.6237
3152.00,0.6221
3151.00,0.6205
3150.00,0.6190
3149.00,0.6175
3148.00,0.6160
3147.00,0.6144
3146.00,0.6129
3145.00,0.6115
3144.00,0.6101
3143.00,0.6088
3142.00,0.6074
3141.00,0.6061
3140.00,0.6047
3139.00,0.6034
3138.00,0.6022
3137.00,0.6011
3136.00,0.6000
3135.00,0.5989
3134.00,0.5977
3133.00,0.5966
3132.00,0.5954
3131.00,0.5943
3130.00,0.5933
3129.00,0.5924
3128.00,0.5916
3127.00,0.5908
3126.00,0.5901
3125.00,0.5894
3124.00,0.5888
3123.00,0.5883
3122.00,0.5878
3121.00,0.5874
3120.00,0.5869
3119.00,0.5864
3118.00,0.5860
3117.00,0.5856
3116.00,0.5853
3115.00,0.5851
3114.00,0.5849
3113.00,0.5848
3112.00,0.5847
3111.00,0.5846
3110.00,0.5846
3109.00,0.5846
3108.00,0.5846
3107.00,0.5848
3106.00,0.5849
3105.00,0.5852
3104.00,0.5855
3103.00,0.5857
3102.00,0.5861
3101.00,0.5864
3100.00,0.5867
3099.00,0.5871
3098.00,0.5875
3097.00,0.5880
3096.00,0.5886
3095.00,0.5893
3094.00,0.5903
3093.00,0.5914
3092.00,0.5927
3091.00,0.5940
3090.00,0.5953
3089.00,0.5968
3088.00,0.5983
3087.00,0.6000
3086.00,0.6019
3085.00,0.6040
3084.00,0.6062
3083.00,0.6086
3082.00,0.6111
3081.00,0.6137
3080.00,0.6165
3079.00,0.6193
3078.00,0.6223
3077.00,0.6253
3076.00,0.6283
3075.00,0.6314
3074.00,0.6346
3073.00,0.6377
3072.00,0.6409
3071.00,0.6440
3070.00,0.6472
3069.00,0.6504
3068.00,0.6536
3067.00,0.6568
3066.00,0.6599
3065.00,0.6631
3064.00,0.6661
3063.00,0.6690
3062.00,0.6718
3061.00,0.6743
3060.00,0.6766
3059.00,0.6787
3058.00,0.6809
3057.00,0.6831
3056.00,0.6854
3055.00,0.6877
3054.00,0.6902
3053.00,0.6928
3052.00,0.6955
3051.00,0.6983
3050.00,0.7013
3049.00,0.7044
3048.00,0.7076
3047.00,0.7111
3046.00,0.7148
3045.00,0.7186
3044.00,0.7225
3043.00,0.7263
3042.00,0.7302
3041.00,0.7341
3040.00,0.7381
3039.00,0.7422
3038.00,0.7465
3037.00,0.7510
3036.00,0.7557
3035.00,0.7607
3034.00,0.7660
3033.00,0.7717
3032.00,0.7777
3031.00,0.7840
3030.00,0.7906
3029.00,0.7976
3028.00,0.8048
3027.00,0.8123
3026.00,0.8201
3025.00,0.8282
3024.00,0.8366
3023.00,0.8454
3022.00,0.8544
3021.00,0.8638
3020.00,0.8736
3019.00,0.8838
3018.00,0.8945
3017.00,0.9053
3016.00,0.9161
3015.00,0.9270
3014.00,0.9384
3013.00,0.9502
3012.00,0.9628
3011.00,0.9761
3010.00,0.9903
3009.00,1.0051
3008.00,1.0207
3007.00,1.0371
3006.00,1.0546
3005.00,1.0731
3004.00,1.0926
3003.00,1.1130
3002.00,1.1343
3001.00,1.1567
3000.00,1.1802
2999.00,1.2050
2998.00,1.2314
2997.00,1.2598
2996.00,1.2902
2995.00,1.3230
2994.00,1.3586
2993.00,1.3973
2992.00,1.4396
2991.00,1.4857
2990.00,1.5358
2989.00,1.5904
2988.00,1.6500
2987.00,1.7155
2986.00,1.7881
2985.00,1.8685
2984.00,1.9569
2983.00,2.0535
2982.00,2.1593
2981.00,2.2762
2980.00,2.4068
2979.00,2.5523
2978.00,2.7114
2977.00,2.8809
2976.00,3.0595
2975.00,3.2487
2974.00,3.4440
2973.00,3.6381
2972.00,3.8609
2971.00,4.2266
2970.00,4.7895
2969.00,4.4725
2968.00,4.0544
2967.00,3.8832
2966.00,3.8454
2965.00,3.8648
2964.00,3.9765
2963.00,4.2066
2962.00,4.3544
2961.00,4.3519
2960.00,4.3245
2959.00,4.5227
2958.00,4.8536
2957.00,4.9807
2956.00,5.5522
2955.00,4.9721
2954.00,4.7166
2953.00,4.5376
2952.00,4.4292
2951.00,4.3520
2950.00,4.2293
2949.00,4.0894
2948.00,3.9916
2947.00,3.9305
2946.00,4.0276
2945.00,4.3465
2944.00,4.1948
2943.00,3.9283
2942.00,3.7943
2941.00,3.9149
2940.00,4.2108
2939.00,4.3295
2938.00,4.2809
2937.00,4.1213
2936.00,4.0120
2935.00,3.9293
2934.00,3.8763
2933.00,3.8901
2932.00,3.9575
2931.00,4.0371
2930.00,4.0551
2929.00,4.0130
2928.00,4.0338
2927.00,4.1327
2926.00,4.3546
2925.00,4.6680
2924.00,4.2555
2923.00,3.9232
2922.00,3.7533
2921.00,3.7629
2920.00,3.8616
2919.00,3.9637
2918.00,4.0407
2917.00,4.0545
2916.00,4.0191
2915.00,3.9158
2914.00,3.7990
2913.00,3.7294
2912.00,3.7327
2911.00,3.7798
2910.00,3.8477
2909.00,3.9384
2908.00,4.0770
2907.00,4.1904
2906.00,4.1359
2905.00,4.0105
2904.00,3.9696
2903.00,4.0567
2902.00,4.0531
2901.00,3.9253
2900.00,3.8373
2899.00,3.8567
2898.00,3.9530
2897.00,4.0323
2896.00,4.0823
2895.00,4.0812
2894.00,4.0476
2893.00,3.9903
2892.00,3.9123
2891.00,3.8535
2890.00,3.8972
2889.00,4.0673
2888.00,4.0978
2887.00,3.9355
2886.00,3.8087
2885.00,3.8524
2884.00,4.1368
2883.00,4.4021
2882.00,4.1348
2881.00,3.9581
2880.00,4.0176
2879.00,4.3318
2878.00,4.7219
2877.00,4.5451
2876.00,4.2074
2875.00,3.9469
2874.00,3.8696
2873.00,3.8439
2872.00,3.8351
2871.00,3.8390
2870.00,3.8190
2869.00,3.8344
2868.00,3.9262
2867.00,4.1036
2866.00,4.3013
2865.00,4.3066
2864.00,4.1041
2863.00,3.8920
2862.00,3.7488
2861.00,3.7025
2860.00,3.7575
2859.00,3.9584
2858.00,4.3722
2857.00,4.6602
2856.00,4.5599
2855.00,4.3370
2854.00,4.1281
2853.00,3.9081
2852.00,3.7948
2851.00,3.8271
2850.00,3.9786
2849.00,4.2054
2848.00,4.1909
2847.00,3.9708
2846.00,3.8212
2845.00,3.7959
2844.00,3.9161
2843.00,4.2057
2842.00,4.2430
2841.00,3.9172
2840.00,3.6567
2839.00,3.5077
2838.00,3.3652
2837.00,3.1917
2836.00,2.9983
2835.00,2.8026
2834.00,2.6210
2833.00,2.4564
2832.00,2.3089
2831.00,2.1772
2830.00,2.0591
2829.00,1.9528
2828.00,1.8577
2827.00,1.7731
2826.00,1.6982
2825.00,1.6315
2824.00,1.5717
2823.00,1.5174
2822.00,1.4675
2821.00,1.4210
2820.00,1.3778
2819.00,1.3379
2818.00,1.3014
2817.00,1.2675
2816.00,1.2359
2815.00,1.2060
2814.00,1.1778
2813.00,1.1511
2812.00,1.1259
2811.00,1.1020
2810.00,1.0793
2809.00,1.0576
2808.00,1.0369
2807.00,1.0171
2806.00,0.9979
2805.00,0.9796
2804.00,0.9621
2803.00,0.9457
2802.00,0.9300
2801.00,0.9151
2800.00,0.9008
2799.00,0.8870
2798.00,0.8739
2797.00,0.8613
2796.00,0.8491
2795.00,0.8373
2794.00,0.8260
2793.00,0.8151
2792.00,0.8045
2791.00,0.7942
2790.00,0.7841
2789.00,0.7743
2788.00,0.7647
2787.00,0.7554
2786.00,0.7464
2785.00,0.7376
2784.00,0.7290
2783.00,0.7205
2782.00,0.7124
2781.00,0.7045
2780.00,0.6969
2779.00,0.6898
2778.00,0.6830
2777.00,0.6766
2776.00,0.6706
2775.00,0.6648
2774.00,0.6592
2773.00,0.6540
2772.00,0.6492
2771.00,0.6448
2770.00,0.6408
2769.00,0.6371
2768.00,0.6338
2767.00,0.6308
2766.00,0.6280
2765.00,0.6256
2764.00,0.6234
2763.00,0.6215
2762.00,0.6197
2761.00,0.6181
2760.00,0.6167
2759.00,0.6155
2758.00,0.6143
2757.00,0.6132
2756.00,0.6121
2755.00,0.6111
2754.00,0.6102
2753.00,0.6094
2752.00,0.6088
2751.00,0.6084
2750.00,0.6083
2749.00,0.6083
2748.00,0.6085
2747.00,0.6088
2746.00,0.6094
2745.00,0.6103
2744.00,0.6114
2743.00,0.6127
2742.00,0.6143
2741.00,0.6163
2740.00,0.6187
2739.00,0.6214
2738.00,0.6246
2737.00,0.6282
2736.00,0.6322
2735.00,0.6364
2734.00,0.6408
2733.00,0.6450
2732.00,0.6487
2731.00,0.6516
2730.00,0.6537
2729.00,0.6546
2728.00,0.6546
2727.00,0.6536
2726.00,0.6520
2725.00,0.6499
2724.00,0.6475
2723.00,0.6450
2722.00,0.6423
2721.00,0.6394
2720.00,0.6363
2719.00,0.6331
2718.00,0.6297
2717.00,0.6261
2716.00,0.6223
2715.00,0.6184
2714.00,0.6144
2713.00,0.6103
2712.00,0.6065
2711.00,0.6030
2710.00,0.5999
2709.00,0.5972
2708.00,0.5949
2707.00,0.5928
2706.00,0.5911
2705.00,0.5896
2704.00,0.5884
2703.00,0.5874
2702.00,0.5867
2701.00,0.5863
2700.00,0.5860
2699.00,0.5860
2698.00,0.5861
2697.00,0.5865
2696.00,0.5870
2695.00,0.5877
2694.00,0.5885
2693.00,0.5894
2692.00,0.5904
2691.00,0.5912
2690.00,0.5920
2689.00,0.5928
2688.00,0.5935
2687.00,0.5941
2686.00,0.5946
2685.00,0.5950
2684.00,0.5951
2683.00,0.5952
2682.00,0.5952
2681.00,0.5952
2680.00,0.5951
2679.00,0.5951
2678.00,0.5950
2677.00,0.5950
2676.00,0.5951
2675.00,0.5951
2674.00,0.5951
2673.00,0.5949
2672.00,0.5945
2671.00,0.5939
2670.00,0.5931
2669.00,0.5922
2668.00,0.5910
2667.00,0.5897
2666.00,0.5881
2665.00,0.5863
2664.00,0.5843
2663.00,0.5822
2662.00,0.5801
2661.00,0.5780
2660.00,0.5760
2659.00,0.5739
2658.00,0.5719
2657.00,0.5700
2656.00,0.5681
2655.00,0.5663
2654.00,0.5645
2653.00,0.5628
2652.00,0.5611
2651.00,0.5595
2650.00,0.5580
2649.00,0.5564
2648.00,0.5548
2647.00,0.5533
2646.00,0.5519
2645.00,0.5506
2644.00,0.5494
2643.00,0.5482
2642.00,0.5469
2641.00,0.5458
2640.00,0.5446
2639.00,0.5436
2638.00,0.5427
2637.00,0.5417
2636.00,0.5408
2635.00,0.5398
2634.00,0.5388
2633.00,0.5377
2632.00,0.5368
2631.00,0.5358
2630.00,0.5348
2629.00,0.5338
2628.00,0.5327
2627.00,0.5316
2626.00,0.5305
2625.00,0.5294
2624.00,0.5284
2623.00,0.5275
2622.00,0.5265
2621.00,0.5255
2620.00,0.5245
2619.00,0.5236
2618.00,0.5226
2617.00,0.5217
2616.00,0.5207
2615.00,0.5198
2614.00,0.5188
2613.00,0.5177
2612.00,0.5167
2611.00,0.5157
2610.00,0.5147
2609.00,0.5137
2608.00,0.5127
2607.00,0.5118
2606.00,0.5108
2605.00,0.5099
2604.00,0.5089
2603.00,0.5079
2602.00,0.5068
2601.00,0.5057
2600.00,0.5045
2599.00,0.5032
2598.00,0.5018
2597.00,0.5004
2596.00,0.4989
2595.00,0.4973
2594.00,0.4957
2593.00,0.4940
2592.00,0.4923
2591.00,0.4905
2590.00,0.4887
2589.00,0.4870
2588.00,0.4853
2587.00,0.4836
2586.00,0.4819
2585.00,0.4802
2584.00,0.4785
2583.00,0.4767
2582.00,0.4749
2581.00,0.4731
2580.00,0.4714
2579.00,0.4696
2578.00,0.4678
2577.00,0.4661
2576.00,0.4645
2575.00,0.4629
2574.00,0.4614
2573.00,0.4600
2572.00,0.4587
2571.00,0.4574
2570.00,0.4560
2569.00,0.4546
2568.00,0.4533
2567.00,0.4520
2566.00,0.4507
2565.00,0.4494
2564.00,0.4481
2563.00,0.4467
2562.00,0.4454
2561.00,0.4441
2560.00,0.4428
2559.00,0.4414
2558.00,0.4400
2557.00,0.4387
2556.00,0.4374
2555.00,0.4361
2554.00,0.4348
2553.00,0.4337
2552.00,0.4325
2551.00,0.4314
2550.00,0.4303
2549.00,0.4293
2548.00,0.4284
2547.00,0.4274
2546.00,0.4265
2545.00,0.4255
2544.00,0.4247
2543.00,0.4239
2542.00,0.4231
2541.00,0.4224
2540.00,0.4217
2539.00,0.4211
2538.00,0.4206
2537.00,0.4201
2536.00,0.4196
2535.00,0.4191
2534.00,0.4186
2533.00,0.4180
2532.00,0.4173
2531.00,0.4165
2530.00,0.4157
2529.00,0.4147
2528.00,0.4138
2527.00,0.4128
2526.00,0.4117
2525.00,0.4107
2524.00,0.4096
2523.00,0.4085
2522.00,0.4075
2521.00,0.4064
2520.00,0.4053
2519.00,0.4041
2518.00,0.4030
2517.00,0.4020
2516.00,0.4010
2515.00,0.4001
2514.00,0.3993
2513.00,0.3984
2512.00,0.3976
2511.00,0.3968
2510.00,0.3961
2509.00,0.3954
2508.00,0.3948
2507.00,0.3942
2506.00,0.3937
2505.00,0.3931
2504.00,0.3927
2503.00,0.3923
2502.00,0.3919
2501.00,0.3915
2500.00,0.3912
2499.00,0.3909
2498.00,0.3906
2497.00,0.3903
2496.00,0.3901
2495.00,0.3898
2494.00,0.3895
2493.00,0.3891
2492.00,0.3887
2491.00,0.3883
2490.00,0.3878
2489.00,0.3874
2488.00,0.3869
2487.00,0.3865
2486.00,0.3860
2485.00,0.3856
2484.00,0.3851
2483.00,0.3846
2482.00,0.3842
2481.00,0.3837
2480.00,0.3832
2479.00,0.3827
2478.00,0.3822
2477.00,0.3817
2476.00,0.3813
2475.00,0.3810
2474.00,0.3806
2473.00,0.3802
2472.00,0.3798
2471.00,0.3794
2470.00,0.3790
2469.00,0.3787
2468.00,0.3785
2467.00,0.3782
2466.00,0.3780
2465.00,0.3777
2464.00,0.3775
2463.00,0.3772
2462.00,0.3769
2461.00,0.3767
2460.00,0.3765
2459.00,0.3762
2458.00,0.3760
2457.00,0.3757
2456.00,0.3755
2455.00,0.3754
2454.00,0.3752
2453.00,0.3751
2452.00,0.3750
2451.00,0.3749
2450.00,0.3747
2449.00,0.3746
2448.00,0.3744
2447.00,0.3743
2446.00,0.3742
2445.00,0.3742
2444.00,0.3741
2443.00,0.3741
2442.00,0.3739
2441.00,0.3739
2440.00,0.3738
2439.00,0.3738
2438.00,0.3738
2437.00,0.3739
2436.00,0.3739
2435.00,0.3739
2434.00,0.3740
2433.00,0.3741
2432.00,0.3743
2431.00,0.3744
2430.00,0.3745
2429.00,0.3746
2428.00,0.3746
2427.00,0.3747
2426.00,0.3747
2425.00,0.3749
2424.00,0.3750
2423.00,0.3751
2422.00,0.3751
2421.00,0.3752
2420.00,0.3752
2419.00,0.3753
2418.00,0.3753
2417.00,0.3753
2416.00,0.3753
2415.00,0.3754
2414.00,0.3754
2413.00,0.3755
2412.00,0.3755
2411.00,0.3755
2410.00,0.3755
2409.00,0.3755
2408.00,0.3754
2407.00,0.3753
2406.00,0.3753
2405.00,0.3753
2404.00,0.3752
2403.00,0.3751
2402.00,0.3750
2401.00,0.3749
2400.00,0.3747
2399.00,0.3746
2398.00,0.3744
2397.00,0.3743
2396.00,0.3741
2395.00,0.3740
2394.00,0.3739
2393.00,0.3738
2392.00,0.3737
2391.00,0.3737
2390.00,0.3737
2389.00,0.3737
2388.00,0.3738
2387.00,0.3739
2386.00,0.3740
2385.00,0.3741
2384.00,0.3743
2383.00,0.3745
2382.00,0.3747
2381.00,0.3750
2380.00,0.3752
2379.00,0.3754
2378.00,0.3756
2377.00,0.3757
2376.00,0.3758
2375.00,0.3757
2374.00,0.3755
2373.00,0.3754
2372.00,0.3753
2371.00,0.3753
2370.00,0.3752
2369.00,0.3752
2368.00,0.3752
2367.00,0.3752
2366.00,0.3752
2365.00,0.3752
2364.00,0.3753
2363.00,0.3753
2362.00,0.3753
2361.00,0.3753
2360.00,0.3753
2359.00,0.3753
2358.00,0.3752
2357.00,0.3751
2356.00,0.3751
2355.00,0.3750
2354.00,0.3750
2353.00,0.3750
2352.00,0.3751
2351.00,0.3751
2350.00,0.3749
2349.00,0.3748
2348.00,0.3746
2347.00,0.3746
2346.00,0.3747
2345.00,0.3747
2344.00,0.3745
2343.00,0.3743
2342.00,0.3742
2341.00,0.3740
2340.00,0.3739
2339.00,0.3738
2338.00,0.3737
2337.00,0.3736
2336.00,0.3736
2335.00,0.3735
2334.00,0.3734
2333.00,0.3734
2332.00,0.3733
2331.00,0.3732
2330.00,0.3729
2329.00,0.3725
2328.00,0.3722
2327.00,0.3720
2326.00,0.3718
2325.00,0.3717
2324.00,0.3716
2323.00,0.3713
2322.00,0.3709
2321.00,0.3705
2320.00,0.3701
2319.00,0.3696
2318.00,0.3691
2317.00,0.3687
2316.00,0.3684
2315.00,0.3681
2314.00,0.3679
2313.00,0.3677
2312.00,0.3676
2311.00,0.3673
2310.00,0.3670
2309.00,0.3666
2308.00,0.3662
2307.00,0.3658
2306.00,0.3654
2305.00,0.3650
2304.00,0.3647
2303.00,0.3645
2302.00,0.3642
2301.00,0.3639
2300.00,0.3636
2299.00,0.3632
2298.00,0.3628
2297.00,0.3625
2296.00,0.3622
2295.00,0.3619
2294.00,0.3615
2293.00,0.3612
2292.00,0.3608
2291.00,0.3604
2290.00,0.3600
2289.00,0.3596
2288.00,0.3591
2287.00,0.3587
2286.00,0.3582
2285.00,0.3578
2284.00,0.3574
2283.00,0.3570
2282.00,0.3566
2281.00,0.3561
2280.00,0.3557
2279.00,0.3554
2278.00,0.3550
2277.00,0.3548
2276.00,0.3545
2275.00,0.3543
2274.00,0.3540
2273.00,0.3537
2272.00,0.3535
2271.00,0.3533
2270.00,0.3532
2269.00,0.3531
2268.00,0.3532
2267.00,0.3531
2266.00,0.3531
2265.00,0.3530
2264.00,0.3529
2263.00,0.3528
2262.00,0.3525
2261.00,0.3523
2260.00,0.3521
2259.00,0.3518
2258.00,0.3516
2257.00,0.3513
2256.00,0.3510
2255.00,0.3506
2254.00,0.3502
2253.00,0.3498
2252.00,0.3495
2251.00,0.3491
2250.00,0.3488
2249.00,0.3484
2248.00,0.3480
2247.00,0.3476
2246.00,0.3472
2245.00,0.3468
2244.00,0.3464
2243.00,0.3461
2242.00,0.3459
2241.00,0.3457
2240.00,0.3455
2239.00,0.3453
2238.00,0.3451
2237.00,0.3449
2236.00,0.3448
2235.00,0.3447
2234.00,0.3446
2233.00,0.3446
2232.00,0.3445
2231.00,0.3445
2230.00,0.3444
2229.00,0.3444
2228.00,0.3445
2227.00,0.3445
2226.00,0.3444
2225.00,0.3444
2224.00,0.3443
2223.00,0.3443
2222.00,0.3442
2221.00,0.3441
2220.00,0.3440
2219.00,0.3439
2218.00,0.3437
2217.00,0.3436
2216.00,0.3435
2215.00,0.3434
2214.00,0.3432
2213.00,0.3431
2212.00,0.3430
2211.00,0.3429
2210.00,0.3428
2209.00,0.3426
2208.00,0.3424
2207.00,0.3423
2206.00,0.3422
2205.00,0.3421
2204.00,0.3420
2203.00,0.3418
2202.00,0.3417
2201.00,0.3417
2200.00,0.3417
2199.00,0.3417
2198.00,0.3418
2197.00,0.3418
2196.00,0.3419
2195.00,0.3420
2194.00,0.3421
2193.00,0.3422
2192.00,0.3424
2191.00,0.3425
2190.00,0.3426
2189.00,0.3427
2188.00,0.3428
2187.00,0.3429
2186.00,0.3430
2185.00,0.3430
2184.00,0.3430
2183.00,0.3429
2182.00,0.3428
2181.00,0.3427
2180.00,0.3426
2179.00,0.3426
2178.00,0.3424
2177.00,0.3423
2176.00,0.3421
2175.00,0.3419
2174.00,0.3417
2173.00,0.3414
2172.00,0.3413
2171.00,0.3411
2170.00,0.3409
2169.00,0.3407
2168.00,0.3405
2167.00,0.3403
2166.00,0.3401
2165.00,0.3400
2164.00,0.3399
2163.00,0.3398
2162.00,0.3397
2161.00,0.3396
2160.00,0.3395
2159.00,0.3395
2158.00,0.3394
2157.00,0.3395
2156.00,0.3395
2155.00,0.3394
2154.00,0.3394
2153.00,0.3393
2152.00,0.3392
2151.00,0.3392
2150.00,0.3391
2149.00,0.3389
2148.00,0.3387
2147.00,0.3384
2146.00,0.3380
2145.00,0.3376
2144.00,0.3371
2143.00,0.3366
2142.00,0.3360
2141.00,0.3355
2140.00,0.3351
2139.00,0.3347
2138.00,0.3343
2137.00,0.3338
2136.00,0.3333
2135.00,0.3328
2134.00,0.3324
2133.00,0.3321
2132.00,0.3317
2131.00,0.3314
2130.00,0.3311
2129.00,0.3309
2128.00,0.3307
2127.00,0.3305
2126.00,0.3304
2125.00,0.3303
2124.00,0.3302
2123.00,0.3301
2122.00,0.3300
2121.00,0.3300
2120.00,0.3300
2119.00,0.3299
2118.00,0.3299
2117.00,0.3299
2116.00,0.3299
2115.00,0.3298
2114.00,0.3297
2113.00,0.3296
2112.00,0.3295
2111.00,0.3294
2110.00,0.3292
2109.00,0.3291
2108.00,0.3290
2107.00,0.3289
2106.00,0.3289
2105.00,0.3288
2104.00,0.3288
2103.00,0.3287
2102.00,0.3286
2101.00,0.3286
2100.00,0.3285
2099.00,0.3284
2098.00,0.3282
2097.00,0.3281
2096.00,0.3280
2095.00,0.3278
2094.00,0.3278
2093.00,0.3278
2092.00,0.3279
2091.00,0.3280
2090.00,0.3279
2089.00,0.3277
2088.00,0.3275
2087.00,0.3273
2086.00,0.3272
2085.00,0.3271
2084.00,0.3272
2083.00,0.3272
2082.00,0.3272
2081.00,0.3273
2080.00,0.3273
2079.00,0.3274
2078.00,0.3275
2077.00,0.3276
2076.00,0.3277
2075.00,0.3278
2074.00,0.3278
2073.00,0.3278
2072.00,0.3279
2071.00,0.3280
2070.00,0.3282
2069.00,0.3283
2068.00,0.3285
2067.00,0.3286
2066.00,0.3287
2065.00,0.3289
2064.00,0.3290
2063.00,0.3291
2062.00,0.3292
2061.00,0.3293
2060.00,0.3295
2059.00,0.3296
2058.00,0.3296
2057.00,0.3296
2056.00,0.3297
2055.00,0.3298
2054.00,0.3299
2053.00,0.3301
2052.00,0.3303
2051.00,0.3304
2050.00,0.3306
2049.00,0.3308
2048.00,0.3311
2047.00,0.3313
2046.00,0.3316
2045.00,0.3318
2044.00,0.3318
2043.00,0.3321
2042.00,0.3321
2041.00,0.3327
2040.00,0.3331
2039.00,0.3329
2038.00,0.3330
2037.00,0.3330
2036.00,0.3332
2035.00,0.3333
2034.00,0.3333
2033.00,0.3334
2032.00,0.3336
2031.00,0.3337
2030.00,0.3338
2029.00,0.3339
2028.00,0.3340
2027.00,0.3341
2026.00,0.3341
2025.00,0.3340
2024.00,0.3339
2023.00,0.3338
2022.00,0.3337
2021.00,0.3335
2020.00,0.3335
2019.00,0.3333
2018.00,0.3329
2017.00,0.3321
2016.00,0.3309
2015.00,0.3297
2014.00,0.3285
2013.00,0.3276
2012.00,0.3269
2011.00,0.3262
2010.00,0.3255
2009.00,0.3249
2008.00,0.3245
2007.00,0.3240
2006.00,0.3236
2005.00,0.3232
2004.00,0.3228
2003.00,0.3226
2002.00,0.3224
2001.00,0.3223
2000.00,0.3222
1999.00,0.3220
1998.00,0.3220
1997.00,0.3219
1996.00,0.3219
1995.00,0.3218
1994.00,0.3217
1993.00,0.3215
1992.00,0.3215
1991.00,0.3214
1990.00,0.3214
1989.00,0.3215
1988.00,0.3215
1987.00,0.3214
1986.00,0.3213
1985.00,0.3212
1984.00,0.3212
1983.00,0.3211
1982.00,0.3210
1981.00,0.3209
1980.00,0.3208
1979.00,0.3207
1978.00,0.3205
1977.00,0.3204
1976.00,0.3204
1975.00,0.3203
1974.00,0.3203
1973.00,0.3203
1972.00,0.3204
1971.00,0.3204
1970.00,0.3203
1969.00,0.3203
1968.00,0.3204
1967.00,0.3204
1966.00,0.3203
1965.00,0.3203
1964.00,0.3203
1963.00,0.3203
1962.00,0.3203
1961.00,0.3204
1960.00,0.3205
1959.00,0.3206
1958.00,0.3207
1957.00,0.3209
1956.00,0.3211
1955.00,0.3213
1954.00,0.3215
1953.00,0.3217
1952.00,0.3219
1951.00,0.3220
1950.00,0.3222
1949.00,0.3223
1948.00,0.3225
1947.00,0.3227
1946.00,0.3228
1945.00,0.3231
1944.00,0.3232
1943.00,0.3236
1942.00,0.3236
1941.00,0.3247
1940.00,0.3255
1939.00,0.3248
1938.00,0.3248
1937.00,0.3246
1936.00,0.3246
1935.00,0.3244
1934.00,0.3242
1933.00,0.3240
1932.00,0.3237
1931.00,0.3234
1930.00,0.3234
1929.00,0.3233
1928.00,0.3234
1927.00,0.3235
1926.00,0.3237
1925.00,0.3238
1924.00,0.3241
1923.00,0.3244
1922.00,0.3248
1921.00,0.3252
1920.00,0.3257
1919.00,0.3261
1918.00,0.3265
1917.00,0.3269
1916.00,0.3273
1915.00,0.3276
1914.00,0.3278
1913.00,0.3279
1912.00,0.3281
1911.00,0.3281
1910.00,0.3282
1909.00,0.3282
1908.00,0.3283
1907.00,0.3283
1906.00,0.3282
1905.00,0.3281
1904.00,0.3281
1903.00,0.3279
1902.00,0.3278
1901.00,0.3276
1900.00,0.3275
1899.00,0.3273
1898.00,0.3272
1897.00,0.3271
1896.00,0.3270
1895.00,0.3269
1894.00,0.3269
1893.00,0.3269
1892.00,0.3269
1891.00,0.3268
1890.00,0.3268
1889.00,0.3269
1888.00,0.3270
1887.00,0.3271
1886.00,0.3272
1885.00,0.3272
1884.00,0.3273
1883.00,0.3274
1882.00,0.3274
1881.00,0.3275
1880.00,0.3277
1879.00,0.3278
1878.00,0.3279
1877.00,0.3279
1876.00,0.3279
1875.00,0.3279
1874.00,0.3279
1873.00,0.3278
1872.00,0.3278
1871.00,0.3277
1870.00,0.3275
1869.00,0.3274
1868.00,0.3274
1867.00,0.3274
1866.00,0.3274
1865.00,0.3273
1864.00,0.3272
1863.00,0.3270
1862.00,0.3268
1861.00,0.3266
1860.00,0.3264
1859.00,0.3261
1858.00,0.3259
1857.00,0.3257
1856.00,0.3255
1855.00,0.3253
1854.00,0.3251
1853.00,0.3250
1852.00,0.3249
1851.00,0.3248
1850.00,0.3247
1849.00,0.3247
1848.00,0.3247
1847.00,0.3246
1846.00,0.3244
1845.00,0.3244
1844.00,0.3245
1843.00,0.3248
1842.00,0.3251
1841.00,0.3254
1840.00,0.3257
1839.00,0.3258
1838.00,0.3258
1837.00,0.3259
1836.00,0.3261
1835.00,0.3262
1834.00,0.3262
1833.00,0.3262
1832.00,0.3261
1831.00,0.3261
1830.00,0.3260
1829.00,0.3261
1828.00,0.3262
1827.00,0.3263
1826.00,0.3264
1825.00,0.3265
1824.00,0.3267
1823.00,0.3269
1822.00,0.3271
1821.00,0.3274
1820.00,0.3276
1819.00,0.3278
1818.00,0.3280
1817.00,0.3282
1816.00,0.3286
1815.00,0.3289
1814.00,0.3292
1813.00,0.3295
1812.00,0.3300
1811.00,0.3305
1810.00,0.3310
1809.00,0.3316
1808.00,0.3322
1807.00,0.3329
1806.00,0.3336
1805.00,0.3344
1804.00,0.3352
1803.00,0.3360
1802.00,0.3368
1801.00,0.3377
1800.00,0.3388
1799.00,0.3399
1798.00,0.3410
1797.00,0.3420
1796.00,0.3431
1795.00,0.3441
1794.00,0.3451
1793.00,0.3463
1792.00,0.3477
1791.00,0.3493
1790.00,0.3508
1789.00,0.3523
1788.00,0.3536
1787.00,0.3552
1786.00,0.3562
1785.00,0.3590
1784.00,0.3627
1783.00,0.3643
1782.00,0.3667
1781.00,0.3687
1780.00,0.3706
1779.00,0.3721
1778.00,0.3738
1777.00,0.3759
1776.00,0.3784
1775.00,0.3809
1774.00,0.3833
1773.00,0.3861
1772.00,0.3893
1771.00,0.3922
1770.00,0.3948
1769.00,0.3972
1768.00,0.3998
1767.00,0.4028
1766.00,0.4061
1765.00,0.4099
1764.00,0.4147
1763.00,0.4210
1762.00,0.4286
1761.00,0.4373
1760.00,0.4469
1759.00,0.4574
1758.00,0.4696
1757.00,0.4841
1756.00,0.5010
1755.00,0.5197
1754.00,0.5402
1753.00,0.5636
1752.00,0.5910
1751.00,0.6213
1750.00,0.6515
1749.00,0.6795
1748.00,0.7048
1747.00,0.7271
1746.00,0.7463
1745.00,0.7619
1744.00,0.7729
1743.00,0.7787
1742.00,0.7795
1741.00,0.7766
1740.00,0.7713
1739.00,0.7646
1738.00,0.7577
1737.00,0.7511
1736.00,0.7449
1735.00,0.7392
1734.00,0.7341
1733.00,0.7285
1732.00,0.7212
1731.00,0.7115
1730.00,0.6994
1729.00,0.6856
1728.00,0.6710
1727.00,0.6566
1726.00,0.6433
1725.00,0.6314
1724.00,0.6206
1723.00,0.6111
1722.00,0.6032
1721.00,0.5973
1720.00,0.5938
1719.00,0.5925
1718.00,0.5922
1717.00,0.5908
1716.00,0.5877
1715.00,0.5838
1714.00,0.5804
1713.00,0.5778
1712.00,0.5759
1711.00,0.5740
1710.00,0.5723
1709.00,0.5705
1708.00,0.5687
1707.00,0.5667
1706.00,0.5646
1705.00,0.5620
1704.00,0.5584
1703.00,0.5529
1702.00,0.5455
1701.00,0.5384
1700.00,0.5341
1699.00,0.5317
1698.00,0.5290
1697.00,0.5239
1696.00,0.5169
1695.00,0.5103
1694.00,0.5056
1693.00,0.5026
1692.00,0.5011
1691.00,0.5007
1690.00,0.5013
1689.00,0.5023
1688.00,0.5034
1687.00,0.5043
1686.00,0.5055
1685.00,0.5075
1684.00,0.5092
1683.00,0.5098
1682.00,0.5106
1681.00,0.5117
1680.00,0.5126
1679.00,0.5132
1678.00,0.5137
1677.00,0.5148
1676.00,0.5174
1675.00,0.5217
1674.00,0.5266
1673.00,0.5310
1672.00,0.5346
1671.00,0.5379
1670.00,0.5411
1669.00,0.5440
1668.00,0.5464
1667.00,0.5481
1666.00,0.5490
1665.00,0.5494
1664.00,0.5499
1663.00,0.5504
1662.00,0.5502
1661.00,0.5496
1660.00,0.5487
1659.00,0.5477
1658.00,0.5471
1657.00,0.5474
1656.00,0.5481
1655.00,0.5487
1654.00,0.5494
1653.00,0.5497
1652.00,0.5506
1651.00,0.5515
1650.00,0.5516
1649.00,0.5525
1648.00,0.5544
1647.00,0.5555
1646.00,0.5554
1645.00,0.5559
1644.00,0.5570
1643.00,0.5583
1642.00,0.5599
1641.00,0.5622
1640.00,0.5653
1639.00,0.5687
1638.00,0.5721
1637.00,0.5757
1636.00,0.5791
1635.00,0.5823
1634.00,0.5862
1633.00,0.5905
1632.00,0.5947
1631.00,0.5988
1630.00,0.6032
1629.00,0.6084
1628.00,0.6141
1627.00,0.6197
1626.00,0.6249
1625.00,0.6307
1624.00,0.6373
1623.00,0.6443
1622.00,0.6512
1621.00,0.6582
1620.00,0.6654
1619.00,0.6730
1618.00,0.6816
1617.00,0.6916
1616.00,0.7020
1615.00,0.7115
1614.00,0.7203
1613.00,0.7298
1612.00,0.7408
1611.00,0.7529
1610.00,0.7656
1609.00,0.7790
1608.00,0.7931
1607.00,0.8073
1606.00,0.8217
1605.00,0.8375
1604.00,0.8548
1603.00,0.8729
1602.00,0.8915
1601.00,0.9117
1600.00,0.9343
1599.00,0.9592
1598.00,0.9867
1597.00,1.0185
1596.00,1.0553
1595.00,1.0958
1594.00,1.1395
1593.00,1.1881
1592.00,1.2434
1591.00,1.3051
1590.00,1.3744
1589.00,1.4569
1588.00,1.5594
1587.00,1.6849
1586.00,1.8354
1585.00,2.0218
1584.00,2.2610
1583.00,2.5441
1582.00,2.8042
1581.00,2.9989
1580.00,3.1369
1579.00,3.0072
1578.00,2.6445
1577.00,2.3084
1576.00,2.0372
1575.00,1.8235
1574.00,1.6627
1573.00,1.5439
1572.00,1.4524
1571.00,1.3780
1570.00,1.3200
1569.00,1.2833
1568.00,1.2700
1567.00,1.2778
1566.00,1.3063
1565.00,1.3591
1564.00,1.4362
1563.00,1.5279
1562.00,1.6195
1561.00,1.6972
1560.00,1.7269
1559.00,1.6510
1558.00,1.5064
1557.00,1.3693
1556.00,1.2506
1555.00,1.1403
1554.00,1.0420
1553.00,0.9635
1552.00,0.9044
1551.00,0.8577
1550.00,0.8183
1549.00,0.7858
1548.00,0.7610
1547.00,0.7430
1546.00,0.7298
1545.00,0.7199
1544.00,0.7117
1543.00,0.7039
1542.00,0.6964
1541.00,0.6886
1540.00,0.6780
1539.00,0.6649
1538.00,0.6526
1537.00,0.6418
1536.00,0.6319
1535.00,0.6227
1534.00,0.6142
1533.00,0.6071
1532.00,0.6017
1531.00,0.5980
1530.00,0.5958
1529.00,0.5948
1528.00,0.5941
1527.00,0.5922
1526.00,0.5884
1525.00,0.5840
1524.00,0.5806
1523.00,0.5783
1522.00,0.5765
1521.00,0.5746
1520.00,0.5732
1519.00,0.5731
1518.00,0.5744
1517.00,0.5766
1516.00,0.5783
1515.00,0.5792
1514.00,0.5801
1513.00,0.5823
1512.00,0.5864
1511.00,0.5919
1510.00,0.5984
1509.00,0.6061
1508.00,0.6135
1507.00,0.6170
1506.00,0.6181
1505.00,0.6225
1504.00,0.6289
1503.00,0.6352
1502.00,0.6415
1501.00,0.6485
1500.00,0.6564
1499.00,0.6651
1498.00,0.6748
1497.00,0.6857
1496.00,0.6975
1495.00,0.7094
1494.00,0.7218
1493.00,0.7360
1492.00,0.7533
1491.00,0.7734
1490.00,0.7943
1489.00,0.8138
1488.00,0.8322
1487.00,0.8510
1486.00,0.8724
1485.00,0.8979
1484.00,0.9279
1483.00,0.9629
1482.00,1.0045
1481.00,1.0537
1480.00,1.1100
1479.00,1.1734
1478.00,1.2479
1477.00,1.3385
1476.00,1.4475
1475.00,1.5760
1474.00,1.7334
1473.00,1.9376
1472.00,2.1996
1471.00,2.5097
1470.00,2.8514
1469.00,3.2468
1468.00,3.7119
1467.00,3.9734
1466.00,3.9576
1465.00,3.8097
1464.00,3.7628
1463.00,3.8949
1462.00,3.9947
1461.00,3.9382
1460.00,3.8923
1459.00,4.0254
1458.00,4.1488
1457.00,4.2685
1456.00,4.2036
1455.00,4.0001
1454.00,3.8797
1453.00,3.8906
1452.00,3.9859
1451.00,3.9983
1450.00,3.9072
1449.00,3.7929
1448.00,3.5735
1447.00,3.3102
1446.00,3.1215
1445.00,2.9871
1444.00,2.8386
1443.00,2.6742
1442.00,2.5292
1441.00,2.4082
1440.00,2.2957
1439.00,2.1826
1438.00,2.0688
1437.00,1.9547
1436.00,1.8444
1435.00,1.7447
1434.00,1.6561
1433.00,1.5734
1432.00,1.4932
1431.00,1.4178
1430.00,1.3509
1429.00,1.2941
1428.00,1.2482
1427.00,1.2128
1426.00,1.1863
1425.00,1.1660
1424.00,1.1501
1423.00,1.1380
1422.00,1.1293
1421.00,1.1229
1420.00,1.1172
1419.00,1.1102
1418.00,1.1009
1417.00,1.0899
1416.00,1.0791
1415.00,1.0701
1414.00,1.0640
1413.00,1.0614
1412.00,1.0619
1411.00,1.0643
1410.00,1.0668
1409.00,1.0668
1408.00,1.0617
1407.00,1.0492
1406.00,1.0284
1405.00,1.0002
1404.00,0.9682
1403.00,0.9370
1402.00,0.9097
1401.00,0.8867
1400.00,0.8682
1399.00,0.8540
1398.00,0.8440
1397.00,0.8377
1396.00,0.8347
1395.00,0.8354
1394.00,0.8405
1393.00,0.8507
1392.00,0.8671
1391.00,0.8907
1390.00,0.9231
1389.00,0.9661
1388.00,1.0217
1387.00,1.0898
1386.00,1.1680
1385.00,1.2540
1384.00,1.3489
1383.00,1.4564
1382.00,1.5802
1381.00,1.7226
1380.00,1.8817
1379.00,2.0432
1378.00,2.1691
1377.00,2.2120
1376.00,2.1560
1375.00,2.0293
1374.00,1.8771
1373.00,1.7351
1372.00,1.6194
1371.00,1.5324
1370.00,1.4717
1369.00,1.4330
1368.00,1.4088
1367.00,1.3877
1366.00,1.3577
1365.00,1.3127
1364.00,1.2549
1363.00,1.1926
1362.00,1.1348
1361.00,1.0874
1360.00,1.0516
1359.00,1.0258
1358.00,1.0076
1357.00,0.9954
1356.00,0.9880
1355.00,0.9844
1354.00,0.9835
1353.00,0.9841
1352.00,0.9851
1351.00,0.9859
1350.00,0.9858
1349.00,0.9848
1348.00,0.9828
1347.00,0.9800
1346.00,0.9769
1345.00,0.9738
1344.00,0.9711
1343.00,0.9689
1342.00,0.9668
1341.00,0.9635
1340.00,0.9574
1339.00,0.9472
1338.00,0.9336
1337.00,0.9181
1336.00,0.9023
1335.00,0.8873
1334.00,0.8738
1333.00,0.8621
1332.00,0.8519
1331.00,0.8432
1330.00,0.8362
1329.00,0.8313
1328.00,0.8290
1327.00,0.8294
1326.00,0.8324
1325.00,0.8372
1324.00,0.8429
1323.00,0.8490
1322.00,0.8547
1321.00,0.8599
1320.00,0.8644
1319.00,0.8682
1318.00,0.8717
1317.00,0.8749
1316.00,0.8780
1315.00,0.8802
1314.00,0.8811
1313.00,0.8803
1312.00,0.8786
1311.00,0.8771
1310.00,0.8766
1309.00,0.8774
1308.00,0.8795
1307.00,0.8824
1306.00,0.8855
1305.00,0.8881
1304.00,0.8898
1303.00,0.8906
1302.00,0.8907
1301.00,0.8907
1300.00,0.8909
1299.00,0.8915
1298.00,0.8920
1297.00,0.8921
1296.00,0.8915
1295.00,0.8903
1294.00,0.8890
1293.00,0.8882
1292.00,0.8880
1291.00,0.8885
1290.00,0.8892
1289.00,0.8895
1288.00,0.8891
1287.00,0.8876
1286.00,0.8849
1285.00,0.8813
1284.00,0.8772
1283.00,0.8735
1282.00,0.8709
1281.00,0.8698
1280.00,0.8702
1279.00,0.8712
1278.00,0.8718
1277.00,0.8710
1276.00,0.8685
1275.00,0.8650
1274.00,0.8615
1273.00,0.8588
1272.00,0.8573
1271.00,0.8570
1270.00,0.8576
1269.00,0.8584
1268.00,0.8585
1267.00,0.8576
1266.00,0.8553
1265.00,0.8518
1264.00,0.8472
1263.00,0.8413
1262.00,0.8345
1261.00,0.8270
1260.00,0.8194
1259.00,0.8122
1258.00,0.8054
1257.00,0.7990
1256.00,0.7929
1255.00,0.7870
1254.00,0.7815
1253.00,0.7766
1252.00,0.7723
1251.00,0.7689
1250.00,0.7662
1249.00,0.7643
1248.00,0.7632
1247.00,0.7630
1246.00,0.7631
1245.00,0.7633
1244.00,0.7632
1243.00,0.7624
1242.00,0.7604
1241.00,0.7567
1240.00,0.7511
1239.00,0.7441
1238.00,0.7369
1237.00,0.7303
1236.00,0.7253
1235.00,0.7221
1234.00,0.7211
1233.00,0.7220
1232.00,0.7244
1231.00,0.7278
1230.00,0.7317
1229.00,0.7355
1228.00,0.7386
1227.00,0.7406
1226.00,0.7415
1225.00,0.7414
1224.00,0.7402
1223.00,0.7374
1222.00,0.7328
1221.00,0.7265
1220.00,0.7195
1219.00,0.7133
1218.00,0.7091
1217.00,0.7075
1216.00,0.7085
1215.00,0.7122
1214.00,0.7178
1213.00,0.7241
1212.00,0.7295
1211.00,0.7323
1210.00,0.7316
1209.00,0.7274
1208.00,0.7210
1207.00,0.7143
1206.00,0.7085
1205.00,0.7042
1204.00,0.7013
1203.00,0.7000
1202.00,0.7002
1201.00,0.7016
1200.00,0.7041
1199.00,0.7073
1198.00,0.7110
1197.00,0.7144
1196.00,0.7173
1195.00,0.7193
1194.00,0.7205
1193.00,0.7210
1192.00,0.7210
1191.00,0.7205
1190.00,0.7197
1189.00,0.7189
1188.00,0.7181
1187.00,0.7175
1186.00,0.7167
1185.00,0.7158
1184.00,0.7149
1183.00,0.7144
1182.00,0.7147
1181.00,0.7158
1180.00,0.7174
1179.00,0.7195
1178.00,0.7218
1177.00,0.7245
1176.00,0.7275
1175.00,0.7310
1174.00,0.7350
1173.00,0.7394
1172.00,0.7438
1171.00,0.7478
1170.00,0.7507
1169.00,0.7522
1168.00,0.7523
1167.00,0.7515
1166.00,0.7505
1165.00,0.7497
1164.00,0.7492
1163.00,0.7491
1162.00,0.7491
1161.00,0.7493
1160.00,0.7495
1159.00,0.7497
1158.00,0.7499
1157.00,0.7499
1156.00,0.7497
1155.00,0.7493
1154.00,0.7488
1153.00,0.7481
1152.00,0.7472
1151.00,0.7461
1150.00,0.7452
1149.00,0.7444
1148.00,0.7440
1147.00,0.7443
1146.00,0.7459
1145.00,0.7487
1144.00,0.7529
1143.00,0.7585
1142.00,0.7656
1141.00,0.7744
1140.00,0.7851
1139.00,0.7973
1138.00,0.8111
1137.00,0.8264
1136.00,0.8434
1135.00,0.8618
1134.00,0.8801
1133.00,0.8954
1132.00,0.9041
1131.00,0.9040
1130.00,0.8959
1129.00,0.8831
1128.00,0.8695
1127.00,0.8583
1126.00,0.8508
1125.00,0.8469
1124.00,0.8457
1123.00,0.8458
1122.00,0.8459
1121.00,0.8453
1120.00,0.8440
1119.00,0.8425
1118.00,0.8415
1117.00,0.8413
1116.00,0.8416
1115.00,0.8411
1114.00,0.8378
1113.00,0.8304
1112.00,0.8192
1111.00,0.8062
1110.00,0.7942
1109.00,0.7854
1108.00,0.7807
1107.00,0.7800
1106.00,0.7822
1105.00,0.7855
1104.00,0.7881
1103.00,0.7885
1102.00,0.7861
1101.00,0.7811
1100.00,0.7736
1099.00,0.7643
1098.00,0.7538
1097.00,0.7428
1096.00,0.7321
1095.00,0.7225
1094.00,0.7144
1093.00,0.7079
1092.00,0.7029
1091.00,0.6996
1090.00,0.6980
1089.00,0.6983
1088.00,0.7007
1087.00,0.7052
1086.00,0.7119
1085.00,0.7205
1084.00,0.7311
1083.00,0.7435
1082.00,0.7575
1081.00,0.7730
1080.00,0.7889
1079.00,0.8042
1078.00,0.8170
1077.00,0.8255
1076.00,0.8284
1075.00,0.8253
1074.00,0.8171
1073.00,0.8056
1072.00,0.7926
1071.00,0.7796
1070.00,0.7673
1069.00,0.7562
1068.00,0.7462
1067.00,0.7375
1066.00,0.7299
1065.00,0.7232
1064.00,0.7176
1063.00,0.7130
1062.00,0.7099
1061.00,0.7081
1060.00,0.7072
1059.00,0.7063
1058.00,0.7045
1057.00,0.7011
1056.00,0.6964
1055.00,0.6909
1054.00,0.6854
1053.00,0.6804
1052.00,0.6768
1051.00,0.6750
1050.00,0.6751
1049.00,0.6767
1048.00,0.6789
1047.00,0.6810
1046.00,0.6828
1045.00,0.6844
1044.00,0.6861
1043.00,0.6879
1042.00,0.6899
1041.00,0.6917
1040.00,0.6930
1039.00,0.6938
1038.00,0.6940
1037.00,0.6938
1036.00,0.6938
1035.00,0.6946
1034.00,0.6966
1033.00,0.6998
1032.00,0.7039
1031.00,0.7081
1030.00,0.7120
1029.00,0.7145
1028.00,0.7147
1027.00,0.7116
1026.00,0.7049
1025.00,0.6954
1024.00,0.6844
1023.00,0.6734
1022.00,0.6632
1021.00,0.6544
1020.00,0.6471
1019.00,0.6412
1018.00,0.6362
1017.00,0.6319
1016.00,0.6280
1015.00,0.6244
1014.00,0.6212
1013.00,0.6184
1012.00,0.6162
1011.00,0.6146
1010.00,0.6137
1009.00,0.6134
1008.00,0.6135
1007.00,0.6142
1006.00,0.6156
1005.00,0.6178
1004.00,0.6207
1003.00,0.6244
1002.00,0.6289
1001.00,0.6340
1000.00,0.6389
999.00,0.6424
998.00,0.6437
997.00,0.6423
996.00,0.6383
995.00,0.6326
994.00,0.6263
993.00,0.6197
992.00,0.6134
991.00,0.6071
990.00,0.6011
989.00,0.5953
988.00,0.5900
987.00,0.5856
986.00,0.5825
985.00,0.5808
984.00,0.5800
983.00,0.5800
982.00,0.5803
981.00,0.5807
980.00,0.5811
979.00,0.5815
978.00,0.5816
977.00,0.5813
976.00,0.5807
975.00,0.5796
974.00,0.5784
973.00,0.5769
972.00,0.5753
971.00,0.5737
970.00,0.5721
969.00,0.5704
968.00,0.5688
967.00,0.5670
966.00,0.5649
965.00,0.5622
964.00,0.5592
963.00,0.5558
962.00,0.5524
961.00,0.5491
960.00,0.5464
959.00,0.5443
958.00,0.5427
957.00,0.5413
956.00,0.5397
955.00,0.5378
954.00,0.5355
953.00,0.5327
952.00,0.5299
951.00,0.5274
950.00,0.5256
949.00,0.5245
948.00,0.5241
947.00,0.5244
946.00,0.5253
945.00,0.5269
944.00,0.5290
943.00,0.5316
942.00,0.5344
941.00,0.5370
940.00,0.5391
939.00,0.5407
938.00,0.5417
937.00,0.5421
936.00,0.5416
935.00,0.5405
934.00,0.5388
933.00,0.5367
932.00,0.5344
931.00,0.5323
930.00,0.5307
929.00,0.5299
928.00,0.5303
927.00,0.5324
926.00,0.5369
925.00,0.5440
924.00,0.5535
923.00,0.5647
922.00,0.5757
921.00,0.5838
920.00,0.5861
919.00,0.5813
918.00,0.5705
917.00,0.5564
916.00,0.5420
915.00,0.5291
914.00,0.5184
913.00,0.5100
912.00,0.5036
911.00,0.4991
910.00,0.4961
909.00,0.4941
908.00,0.4927
907.00,0.4917
906.00,0.4911
905.00,0.4910
904.00,0.4911
903.00,0.4914
902.00,0.4917
901.00,0.4918
900.00,0.4915
899.00,0.4908
898.00,0.4901
897.00,0.4896
896.00,0.4896
895.00,0.4902
894.00,0.4916
893.00,0.4936
892.00,0.4962
891.00,0.4991
890.00,0.5018
889.00,0.5035
888.00,0.5033
887.00,0.5010
886.00,0.4969
885.00,0.4918
884.00,0.4868
883.00,0.4826
882.00,0.4796
881.00,0.4778
880.00,0.4772
879.00,0.4775
878.00,0.4784
877.00,0.4793
876.00,0.4800
875.00,0.4806
874.00,0.4814
873.00,0.4824
872.00,0.4834
871.00,0.4846
870.00,0.4863
869.00,0.4889
868.00,0.4928
867.00,0.4984
866.00,0.5057
865.00,0.5147
864.00,0.5248
863.00,0.5346
862.00,0.5418
861.00,0.5440
860.00,0.5401
859.00,0.5315
858.00,0.5206
857.00,0.5102
856.00,0.5015
855.00,0.4948
854.00,0.4894
853.00,0.4848
852.00,0.4805
851.00,0.4766
850.00,0.4731
849.00,0.4701
848.00,0.4678
847.00,0.4664
846.00,0.4657
845.00,0.4654
844.00,0.4656
843.00,0.4667
842.00,0.4696
841.00,0.4752
840.00,0.4840
839.00,0.4956
838.00,0.5086
837.00,0.5204
836.00,0.5279
835.00,0.5287
834.00,0.5224
833.00,0.5111
832.00,0.4985
831.00,0.4877
830.00,0.4802
829.00,0.4761
828.00,0.4747
827.00,0.4753
826.00,0.4772
825.00,0.4800
824.00,0.4833
823.00,0.4867
822.00,0.4904
821.00,0.4941
820.00,0.4978
819.00,0.5014
818.00,0.5047
817.00,0.5072
816.00,0.5089
815.00,0.5097
814.00,0.5099
813.00,0.5093
812.00,0.5080
811.00,0.5062
810.00,0.5042
809.00,0.5023
808.00,0.5004
807.00,0.4988
806.00,0.4973
805.00,0.4957
804.00,0.4938
803.00,0.4917
802.00,0.4895
801.00,0.4876
800.00,0.4863
799.00,0.4859
798.00,0.4861
797.00,0.4864
796.00,0.4866
795.00,0.4865
794.00,0.4862
793.00,0.4860
792.00,0.4858
791.00,0.4858
790.00,0.4860
789.00,0.4863
788.00,0.4866
787.00,0.4872
786.00,0.4884
785.00,0.4904
784.00,0.4936
783.00,0.4977
782.00,0.5023
781.00,0.5068
780.00,0.5106
779.00,0.5136
778.00,0.5161
777.00,0.5185
776.00,0.5211
775.00,0.5239
774.00,0.5269
773.00,0.5299
772.00,0.5329
771.00,0.5358
770.00,0.5388
769.00,0.5418
768.00,0.5447
767.00,0.5473
766.00,0.5495
765.00,0.5513
764.00,0.5532
763.00,0.5560
762.00,0.5598
761.00,0.5645
760.00,0.5697
759.00,0.5748
758.00,0.5790
757.00,0.5819
756.00,0.5833
755.00,0.5842
754.00,0.5856
753.00,0.5882
752.00,0.5920
751.00,0.5967
750.00,0.6020
749.00,0.6077
748.00,0.6139
747.00,0.6208
746.00,0.6286
745.00,0.6376
744.00,0.6477
743.00,0.6586
742.00,0.6695
741.00,0.6796
740.00,0.6883
739.00,0.6956
738.00,0.7020
737.00,0.7083
736.00,0.7150
735.00,0.7222
734.00,0.7300
733.00,0.7384
732.00,0.7480
731.00,0.7604
730.00,0.7767
729.00,0.7982
728.00,0.8254
727.00,0.8591
726.00,0.8997
725.00,0.9461
724.00,0.9946
723.00,1.0378
722.00,1.0646
721.00,1.0634
720.00,1.0306
719.00,0.9749
718.00,0.9099
717.00,0.8467
716.00,0.7916
715.00,0.7472
714.00,0.7131
713.00,0.6870
712.00,0.6667
711.00,0.6503
710.00,0.6370
709.00,0.6260
708.00,0.6172
707.00,0.6101
706.00,0.6038
705.00,0.5977
704.00,0.5912
703.00,0.5846
702.00,0.5784
701.00,0.5724
700.00,0.5663
699.00,0.5593
698.00,0.5511
697.00,0.5418
696.00,0.5321
695.00,0.5232
694.00,0.5159
693.00,0.5099
692.00,0.5047
691.00,0.5003
690.00,0.4966
689.00,0.4937
688.00,0.4912
687.00,0.4893
686.00,0.4879
685.00,0.4871
684.00,0.4868
683.00,0.4869
682.00,0.4870
681.00,0.4870
680.00,0.4870
679.00,0.4868
678.00,0.4866
677.00,0.4864
676.00,0.4865
675.00,0.4868
674.00,0.4870
673.00,0.4872
672.00,0.4875
671.00,0.4880
670.00,0.4889
669.00,0.4898
668.00,0.4903
667.00,0.4899
666.00,0.4898
665.00,0.4899
664.00,0.4897
663.00,0.4893
662.00,0.4894
661.00,0.4899
660.00,0.4907
659.00,0.4916
658.00,0.4928
657.00,0.4941
656.00,0.4956
655.00,0.4969
654.00,0.4980
653.00,0.4990
652.00,0.5002
651.00,0.5017
650.00,0.5033
649.00,0.5050
648.00,0.5068
647.00,0.5087
646.00,0.5108
645.00,0.5128
644.00,0.5148
643.00,0.5170
642.00,0.5192
641.00,0.5214
640.00,0.5233
639.00,0.5246
638.00,0.5255
637.00,0.5260
636.00,0.5265
635.00,0.5273
634.00,0.5284
633.00,0.5292
632.00,0.5292
631.00,0.5284
630.00,0.5272
629.00,0.5262
628.00,0.5257
627.00,0.5259
626.00,0.5268
625.00,0.5281
624.00,0.5296
623.00,0.5311
622.00,0.5325
621.00,0.5336
620.00,0.5345
619.00,0.5354
618.00,0.5366
617.00,0.5381
616.00,0.5395
615.00,0.5407
614.00,0.5414
613.00,0.5420
612.00,0.5424
611.00,0.5429
610.00,0.5431
609.00,0.5429
608.00,0.5424
607.00,0.5422
606.00,0.5428
605.00,0.5439
604.00,0.5450
603.00,0.5458
602.00,0.5461
601.00,0.5464
600.00,0.5467
599.00,0.5473
598.00,0.5487
597.00,0.5509
596.00,0.5537
595.00,0.5564
594.00,0.5584
593.00,0.5600
592.00,0.5614
591.00,0.5624
590.00,0.5632
589.00,0.5645
588.00,0.5668
587.00,0.5700
586.00,0.5730
585.00,0.5752
584.00,0.5766
583.00,0.5780
582.00,0.5798
581.00,0.5820
580.00,0.5843
579.00,0.5862
578.00,0.5877
577.00,0.5885
576.00,0.5888
575.00,0.5885
574.00,0.5881
573.00,0.5881
572.00,0.5887
571.00,0.5900
570.00,0.5917
569.00,0.5936
568.00,0.5954
567.00,0.5971
566.00,0.5987
565.00,0.6003
564.00,0.6017
563.00,0.6027
562.00,0.6031
561.00,0.6029
560.00,0.6028
559.00,0.6034
558.00,0.6049
557.00,0.6067
556.00,0.6081
555.00,0.6086
554.00,0.6082
553.00,0.6076
552.00,0.6074
551.00,0.6079
550.00,0.6088
