Created as New Dataset,
cm-1,A
4000.00,0.4554
3999.00,0.4551
3998.00,0.4547
3997.00,0.4544
3996.00,0.4541
3995.00,0.4538
3994.00,0.4535
3993.00,0.4532
3992.00,0.4528
3991.00,0.4524
3990.00,0.4520
3989.00,0.4515
3988.00,0.4512
3987.00,0.4509
3986.00,0.4506
3985.00,0.4503
3984.00,0.4499
3983.00,0.4495
3982.00,0.4492
3981.00,0.4488
3980.00,0.4485
3979.00,0.4481
3978.00,0.4477
3977.00,0.4473
3976.00,0.4469
3975.00,0.4465
3974.00,0.4461
3973.00,0.4458
3972.00,0.4455
3971.00,0.4452
3970.00,0.4450
3969.00,0.4447
3968.00,0.4445
3967.00,0.4442
3966.00,0.4439
3965.00,0.4436
3964.00,0.4434
3963.00,0.4432
3962.00,0.4431
3961.00,0.4430
3960.00,0.4428
3959.00,0.4426
3958.00,0.4424
3957.00,0.4422
3956.00,0.4420
3955.00,0.4418
3954.00,0.4417
3953.00,0.4416
3952.00,0.4415
3951.00,0.4414
3950.00,0.4412
3949.00,0.4410
3948.00,0.4409
3947.00,0.4408
3946.00,0.4408
3945.00,0.4407
3944.00,0.4406
3943.00,0.4404
3942.00,0.4403
3941.00,0.4402
3940.00,0.4401
3939.00,0.4400
3938.00,0.4399
3937.00,0.4398
3936.00,0.4398
3935.00,0.4397
3934.00,0.4397
3933.00,0.4396
3932.00,0.4396
3931.00,0.4396
3930.00,0.4396
3929.00,0.4396
3928.00,0.4395
3927.00,0.4394
3926.00,0.4394
3925.00,0.4394
3924.00,0.4394
3923.00,0.4394
3922.00,0.4395
3921.00,0.4395
3920.00,0.4395
3919.00,0.4394
3918.00,0.4393
3917.00,0.4392
3916.00,0.4391
3915.00,0.4390
3914.00,0.4389
3913.00,0.4388
3912.00,0.4388
3911.00,0.4389
3910.00,0.4389
3909.00,0.4389
3908.00,0.4389
3907.00,0.4388
3906.00,0.4387
3905.00,0.4386
3904.00,0.4386
3903.00,0.4385
3902.00,0.4384
3901.00,0.4383
3900.00,0.4383
3899.00,0.4383
3898.00,0.4382
3897.00,0.4381
3896.00,0.4379
3895.00,0.4377
3894.00,0.4376
3893.00,0.4375
3892.00,0.4374
3891.00,0.4374
3890.00,0.4373
3889.00,0.4372
3888.00,0.4371
3887.00,0.4370
3886.00,0.4369
3885.00,0.4368
3884.00,0.4367
3883.00,0.4365
3882.00,0.4363
3881.00,0.4361
3880.00,0.4360
3879.00,0.4360
3878.00,0.4359
3877.00,0.4358
3876.00,0.4358
3875.00,0.4358
3874.00,0.4358
3873.00,0.4357
3872.00,0.4356
3871.00,0.4355
3870.00,0.4355
3869.00,0.4354
3868.00,0.4353
3867.00,0.4350
3866.00,0.4347
3865.00,0.4346
3864.00,0.4345
3863.00,0.4344
3862.00,0.4343
3861.00,0.4342
3860.00,0.4342
3859.00,0.4342
3858.00,0.4342
3857.00,0.4342
3856.00,0.4340
3855.00,0.4338
3854.00,0.4338
3853.00,0.4338
3852.00,0.4336
3851.00,0.4334
3850.00,0.4332
3849.00,0.4331
3848.00,0.4331
3847.00,0.4331
3846.00,0.4331
3845.00,0.4330
3844.00,0.4329
3843.00,0.4328
3842.00,0.4327
3841.00,0.4327
3840.00,0.4327
3839.00,0.4327
3838.00,0.4327
3837.00,0.4327
3836.00,0.4327
3835.00,0.4326
3834.00,0.4325
3833.00,0.4325
3832.00,0.4324
3831.00,0.4323
3830.00,0.4321
3829.00,0.4320
3828.00,0.4319
3827.00,0.4318
3826.00,0.4317
3825.00,0.4316
3824.00,0.4315
3823.00,0.4314
3822.00,0.4314
3821.00,0.4315
3820.00,0.4316
3819.00,0.4314
3818.00,0.4312
3817.00,0.4310
3816.00,0.4308
3815.00,0.4306
3814.00,0.4304
3813.00,0.4300
3812.00,0.4298
3811.00,0.4297
3810.00,0.4295
3809.00,0.4293
3808.00,0.4289
3807.00,0.4287
3806.00,0.4285
3805.00,0.4283
3804.00,0.4281
3803.00,0.4280
3802.00,0.4280
3801.00,0.4281
3800.00,0.4280
3799.00,0.4278
3798.00,0.4275
3797.00,0.4274
3796.00,0.4273
3795.00,0.4272
3794.00,0.4270
3793.00,0.4267
3792.00,0.4265
3791.00,0.4263
3790.00,0.4262
3789.00,0.4261
3788.00,0.4259
3787.00,0.4258
3786.00,0.4256
3785.00,0.4255
3784.00,0.4255
3783.00,0.4254
3782.00,0.4253
3781.00,0.4252
3780.00,0.4251
3779.00,0.4250
3778.00,0.4247
3777.00,0.4245
3776.00,0.4243
3775.00,0.4242
3774.00,0.4241
3773.00,0.4240
3772.00,0.4238
3771.00,0.4237
3770.00,0.4236
3769.00,0.4236
3768.00,0.4235
3767.00,0.4234
3766.00,0.4233
3765.00,0.4232
3764.00,0.4232
3763.00,0.4231
3762.00,0.4229
3761.00,0.4228
3760.00,0.4227
3759.00,0.4226
3758.00,0.4225
3757.00,0.4224
3756.00,0.4224
3755.00,0.4224
3754.00,0.4224
3753.00,0.4223
3752.00,0.4222
3751.00,0.4221
3750.00,0.4220
3749.00,0.4220
3748.00,0.4219
3747.00,0.4218
3746.00,0.4217
3745.00,0.4217
3744.00,0.4216
3743.00,0.4214
3742.00,0.4211
3741.00,0.4208
3740.00,0.4207
3739.00,0.4208
3738.00,0.4209
3737.00,0.4208
3736.00,0.4206
3735.00,0.4204
3734.00,0.4202
3733.00,0.4202
3732.00,0.4203
3731.00,0.4203
3730.00,0.4202
3729.00,0.4200
3728.00,0.4199
3727.00,0.4198
3726.00,0.4198
3725.00,0.4196
3724.00,0.4194
3723.00,0.4193
3722.00,0.4192
3721.00,0.4192
3720.00,0.4191
3719.00,0.4191
3718.00,0.4192
3717.00,0.4192
3716.00,0.4193
3715.00,0.4193
3714.00,0.4194
3713.00,0.4195
3712.00,0.4196
3711.00,0.4196
3710.00,0.4196
3709.00,0.4196
3708.00,0.4197
3707.00,0.4199
3706.00,0.4201
3705.00,0.4202
3704.00,0.4203
3703.00,0.4203
3702.00,0.4204
3701.00,0.4206
3700.00,0.4207
3699.00,0.4208
3698.00,0.4209
3697.00,0.4210
3696.00,0.4211
3695.00,0.4212
3694.00,0.4214
3693.00,0.4216
3692.00,0.4218
3691.00,0.4219
3690.00,0.4221
3689.00,0.4223
3688.00,0.4225
3687.00,0.4227
3686.00,0.4228
3685.00,0.4230
3684.00,0.4231
3683.00,0.4233
3682.00,0.4234
3681.00,0.4236
3680.00,0.4238
3679.00,0.4240
3678.00,0.4243
3677.00,0.4245
3676.00,0.4248
3675.00,0.4251
3674.00,0.4253
3673.00,0.4255
3672.00,0.4256
3671.00,0.4258
3670.00,0.4261
3669.00,0.4264
3668.00,0.4266
3667.00,0.4268
3666.00,0.4270
3665.00,0.4274
3664.00,0.4278
3663.00,0.4282
3662.00,0.4286
3661.00,0.4289
3660.00,0.4292
3659.00,0.4296
3658.00,0.4300
3657.00,0.4305
3656.00,0.4311
3655.00,0.4317
3654.00,0.4322
3653.00,0.4328
3652.00,0.4334
3651.00,0.4341
3650.00,0.4348
3649.00,0.4355
3648.00,0.4362
3647.00,0.4367
3646.00,0.4374
3645.00,0.4381
3644.00,0.4388
3643.00,0.4394
3642.00,0.4401
3641.00,0.4407
3640.00,0.4413
3639.00,0.4421
3638.00,0.4429
3637.00,0.4438
3636.00,0.4446
3635.00,0.4454
3634.00,0.4463
3633.00,0.4472
3632.00,0.4481
3631.00,0.4491
3630.00,0.4505
3629.00,0.4523
3628.00,0.4542
3627.00,0.4559
3626.00,0.4573
3625.00,0.4585
3624.00,0.4595
3623.00,0.4600
3622.00,0.4600
3621.00,0.4595
3620.00,0.4589
3619.00,0.4581
3618.00,0.4574
3617.00,0.4569
3616.00,0.4566
3615.00,0.4565
3614.00,0.4565
3613.00,0.4568
3612.00,0.4572
3611.00,0.4576
3610.00,0.4581
3609.00,0.4587
3608.00,0.4593
3607.00,0.4599
3606.00,0.4603
3605.00,0.4606
3604.00,0.4609
3603.00,0.4611
3602.00,0.4612
3601.00,0.4612
3600.00,0.4611
3599.00,0.4610
3598.00,0.4609
3597.00,0.4608
3596.00,0.4607
3595.00,0.4605
3594.00,0.4603
3593.00,0.4601
3592.00,0.4601
3591.00,0.4601
3590.00,0.4602
3589.00,0.4604
3588.00,0.4607
3587.00,0.4610
3586.00,0.4613
3585.00,0.4616
3584.00,0.4619
3583.00,0.4623
3582.00,0.4627
3581.00,0.4631
3580.00,0.4635
3579.00,0.4640
3578.00,0.4644
3577.00,0.4648
3576.00,0.4653
3575.00,0.4657
3574.00,0.4663
3573.00,0.4671
3572.00,0.4679
3571.00,0.4686
3570.00,0.4692
3569.00,0.4698
3568.00,0.4703
3567.00,0.4710
3566.00,0.4717
3565.00,0.4725
3564.00,0.4733
3563.00,0.4740
3562.00,0.4748
3561.00,0.4756
3560.00,0.4763
3559.00,0.4770
3558.00,0.4778
3557.00,0.4786
3556.00,0.4794
3555.00,0.4803
3554.00,0.4812
3553.00,0.4821
3552.00,0.4830
3551.00,0.4839
3550.00,0.4848
3549.00,0.4857
3548.00,0.4866
3547.00,0.4877
3546.00,0.4887
3545.00,0.4897
3544.00,0.4908
3543.00,0.4917
3542.00,0.4927
3541.00,0.4936
3540.00,0.4946
3539.00,0.4956
3538.00,0.4965
3537.00,0.4974
3536.00,0.4984
3535.00,0.4994
3534.00,0.5003
3533.00,0.5013
3532.00,0.5023
3531.00,0.5032
3530.00,0.5042
3529.00,0.5051
3528.00,0.5062
3527.00,0.5072
3526.00,0.5082
3525.00,0.5092
3524.00,0.5101
3523.00,0.5111
3522.00,0.5121
3521.00,0.5131
3520.00,0.5142
3519.00,0.5153
3518.00,0.5164
3517.00,0.5175
3516.00,0.5185
3515.00,0.5195
3514.00,0.5205
3513.00,0.5216
3512.00,0.5228
3511.00,0.5240
3510.00,0.5251
3509.00,0.5262
3508.00,0.5274
3507.00,0.5286
3506.00,0.5299
3505.00,0.5312
3504.00,0.5324
3503.00,0.5336
3502.00,0.5347
3501.00,0.5359
3500.00,0.5370
3499.00,0.5382
3498.00,0.5394
3497.00,0.5406
3496.00,0.5418
3495.00,0.5429
3494.00,0.5441
3493.00,0.5454
3492.00,0.5467
3491.00,0.5481
3490.00,0.5494
3489.00,0.5507
3488.00,0.5520
3487.00,0.5534
3486.00,0.5547
3485.00,0.5560
3484.00,0.5573
3483.00,0.5585
3482.00,0.5597
3481.00,0.5608
3480.00,0.5620
3479.00,0.5632
3478.00,0.5645
3477.00,0.5658
3476.00,0.5671
3475.00,0.5683
3474.00,0.5695
3473.00,0.5706
3472.00,0.5718
3471.00,0.5729
3470.00,0.5741
3469.00,0.5754
3468.00,0.5766
3467.00,0.5778
3466.00,0.5791
3465.00,0.5804
3464.00,0.5817
3463.00,0.5830
3462.00,0.5843
3461.00,0.5855
3460.00,0.5867
3459.00,0.5880
3458.00,0.5892
3457.00,0.5904
3456.00,0.5917
3455.00,0.5930
3454.00,0.5943
3453.00,0.5957
3452.00,0.5971
3451.00,0.5985
3450.00,0.5998
3449.00,0.6011
3448.00,0.6025
3447.00,0.6039
3446.00,0.6053
3445.00,0.6068
3444.00,0.6083
3443.00,0.6098
3442.00,0.6113
3441.00,0.6128
3440.00,0.6142
3439.00,0.6157
3438.00,0.6171
3437.00,0.6186
3436.00,0.6200
3435.00,0.6214
3434.00,0.6228
3433.00,0.6243
3432.00,0.6258
3431.00,0.6273
3430.00,0.6287
3429.00,0.6302
3428.00,0.6317
3427.00,0.6332
3426.00,0.6348
3425.00,0.6364
3424.00,0.6380
3423.00,0.6395
3422.00,0.6410
3421.00,0.6426
3420.00,0.6442
3419.00,0.6457
3418.00,0.6473
3417.00,0.6489
3416.00,0.6506
3415.00,0.6523
3414.00,0.6542
3413.00,0.6560
3412.00,0.6578
3411.00,0.6595
3410.00,0.6612
3409.00,0.6630
3408.00,0.6647
3407.00,0.6665
3406.00,0.6683
3405.00,0.6701
3404.00,0.6719
3403.00,0.6738
3402.00,0.6758
3401.00,0.6777
3400.00,0.6795
3399.00,0.6812
3398.00,0.6830
3397.00,0.6848
3396.00,0.6868
3395.00,0.6887
3394.00,0.6906
3393.00,0.6924
3392.00,0.6942
3391.00,0.6961
3390.00,0.6979
3389.00,0.6997
3388.00,0.7015
3387.00,0.7033
3386.00,0.7052
3385.00,0.7071
3384.00,0.7091
3383.00,0.7109
3382.00,0.7129
3381.00,0.7148
3380.00,0.7169
3379.00,0.7190
3378.00,0.7211
3377.00,0.7232
3376.00,0.7253
3375.00,0.7273
3374.00,0.7294
3373.00,0.7314
3372.00,0.7336
3371.00,0.7359
3370.00,0.7383
3369.00,0.7407
3368.00,0.7430
3367.00,0.7453
3366.00,0.7476
3365.00,0.7499
3364.00,0.7523
3363.00,0.7547
3362.00,0.7571
3361.00,0.7596
3360.00,0.7621
3359.00,0.7645
3358.00,0.7668
3357.00,0.7691
3356.00,0.7715
3355.00,0.7741
3354.00,0.7767
3353.00,0.7793
3352.00,0.7818
3351.00,0.7843
3350.00,0.7867
3349.00,0.7891
3348.00,0.7916
3347.00,0.7940
3346.00,0.7963
3345.00,0.7985
3344.00,0.8005
3343.00,0.8026
3342.00,0.8046
3341.00,0.8067
3340.00,0.8087
3339.00,0.8106
3338.00,0.8123
3337.00,0.8139
3336.00,0.8153
3335.00,0.8165
3334.00,0.8175
3333.00,0.8184
3332.00,0.8193
3331.00,0.8201
3330.00,0.8209
3329.00,0.8216
3328.00,0.8221
3327.00,0.8223
3326.00,0.8223
3325.00,0.8221
3324.00,0.8217
3323.00,0.8213
3322.00,0.8209
3321.00,0.8204
3320.00,0.8198
3319.00,0.8191
3318.00,0.8183
3317.00,0.8173
3316.00,0.8164
3315.00,0.8154
3314.00,0.8144
3313.00,0.8132
3312.00,0.8121
3311.00,0.8109
3310.00,0.8097
3309.00,0.8085
3308.00,0.8073
3307.00,0.8060
3306.00,0.8046
3305.00,0.8032
3304.00,0.8019
3303.00,0.8006
3302.00,0.7995
3301.00,0.7983
3300.00,0.7971
3299.00,0.7958
3298.00,0.7947
3297.00,0.7938
3296.00,0.7929
3295.00,0.7921
3294.00,0.7913
3293.00,0.7905
3292.00,0.7897
3291.00,0.7890
3290.00,0.7883
3289.00,0.7876
3288.00,0.7870
3287.00,0.7864
3286.00,0.7860
3285.00,0.7856
3284.00,0.7851
3283.00,0.7847
3282.00,0.7844
3281.00,0.7843
3280.00,0.7844
3279.00,0.7845
3278.00,0.7847
3277.00,0.7848
3276.00,0.7849
3275.00,0.7850
3274.00,0.7852
3273.00,0.7855
3272.00,0.7858
3271.00,0.7861
3270.00,0.7864
3269.00,0.7868
3268.00,0.7873
3267.00,0.7878
3266.00,0.7883
3265.00,0.7889
3264.00,0.7894
3263.00,0.7898
3262.00,0.7902
3261.00,0.7907
3260.00,0.7911
3259.00,0.7914
3258.00,0.7915
3257.00,0.7917
3256.00,0.7920
3255.00,0.7923
3254.00,0.7926
3253.00,0.7928
3252.00,0.7930
3251.00,0.7931
3250.00,0.7933
3249.00,0.7935
3248.00,0.7936
3247.00,0.7935
3246.00,0.7932
3245.00,0.7928
3244.00,0.7925
3243.00,0.7921
3242.00,0.7916
3241.00,0.7913
3240.00,0.7909
3239.00,0.7906
3238.00,0.7903
3237.00,0.7899
3236.00,0.7895
3235.00,0.7889
3234.00,0.7881
3233.00,0.7872
3232.00,0.7862
3231.00,0.7851
3230.00,0.7839
3229.00,0.7828
3228.00,0.7817
3227.00,0.7806
3226.00,0.7795
3225.00,0.7783
3224.00,0.7771
3223.00,0.7758
3222.00,0.7744
3221.00,0.7731
3220.00,0.7717
3219.00,0.7703
3218.00,0.7687
3217.00,0.7671
3216.00,0.7655
3215.00,0.7639
3214.00,0.7623
3213.00,0.7607
3212.00,0.7591
3211.00,0.7575
3210.00,0.7558
3209.00,0.7542
3208.00,0.7525
3207.00,0.7509
3206.00,0.7492
3205.00,0.7474
3204.00,0.7457
3203.00,0.7439
3202.00,0.7421
3201.00,0.7403
3200.00,0.7384
3199.00,0.7365
3198.00,0.7348
3197.00,0.7331
3196.00,0.7314
3195.00,0.7297
3194.00,0.7278
3193.00,0.7259
3192.00,0.7239
3191.00,0.7220
3190.00,0.7202
3189.00,0.7184
3188.00,0.7165
3187.00,0.7145
3186.00,0.7125
3185.00,0.7107
3184.00,0.7089
3183.00,0.7071
3182.00,0.7052
3181.00,0.7032
3180.00,0.7012
3179.00,0.6991
3178.00,0.6970
3177.00,0.6948
3176.00,0.6927
3175.00,0.6908
3174.00,0.6889
3173.00,0.6870
3172.00,0.6850
3171.00,0.6830
3170.00,0.6809
3169.00,0.6790
3168.00,0.6771
3167.00,0.6752
3166.00,0.6734
3165.00,0.6715
3164.00,0.6697
3163.00,0.6680
3162.00,0.6662
3161.00,0.6644
3160.00,0.6626
3159.00,0.6608
3158.00,0.6591
3157.00,0.6573
3156.00,0.6556
3155.00,0.6539
3154.00,0.6522
3153.00,0.6505
3152.00,0.6488
3151.00,0.6470
3150.00,0.6454
3149.00,0.6437
3148.00,0.6421
3147.00,0.6405
3146.00,0.6389
3145.00,0.6373
3144.00,0.6358
3143.00,0.6342
3142.00,0.6327
3141.00,0.6312
3140.00,0.6297
3139.00,0.6283
3138.00,0.6269
3137.00,0.6256
3136.00,0.6244
3135.00,0.6233
3134.00,0.6221
3133.00,0.6209
3132.00,0.6197
3131.00,0.6185
3130.00,0.6174
3129.00,0.6165
3128.00,0.6156
3127.00,0.6148
3126.00,0.6140
3125.00,0.6133
3124.00,0.6125
3123.00,0.6118
3122.00,0.6111
3121.00,0.6104
3120.00,0.6098
3119.00,0.6092
3118.00,0.6087
3117.00,0.6082
3116.00,0.6077
3115.00,0.6073
3114.00,0.6068
3113.00,0.6065
3112.00,0.6061
3111.00,0.6059
3110.00,0.6058
3109.00,0.6057
3108.00,0.6056
3107.00,0.6055
3106.00,0.6054
3105.00,0.6053
3104.00,0.6053
3103.00,0.6055
3102.00,0.6056
3101.00,0.6059
3100.00,0.6061
3099.00,0.6063
3098.00,0.6066
3097.00,0.6070
3096.00,0.6075
3095.00,0.6082
3094.00,0.6091
3093.00,0.6101
3092.00,0.6112
3091.00,0.6123
3090.00,0.6134
3089.00,0.6147
3088.00,0.6161
3087.00,0.6177
3086.00,0.6195
3085.00,0.6214
3084.00,0.6234
3083.00,0.6255
3082.00,0.6278
3081.00,0.6302
3080.00,0.6328
3079.00,0.6355
3078.00,0.6382
3077.00,0.6409
3076.00,0.6438
3075.00,0.6467
3074.00,0.6497
3073.00,0.6527
3072.00,0.6557
3071.00,0.6587
3070.00,0.6618
3069.00,0.6648
3068.00,0.6679
3067.00,0.6710
3066.00,0.6741
3065.00,0.6771
3064.00,0.6799
3063.00,0.6826
3062.00,0.6852
3061.00,0.6877
3060.00,0.6899
3059.00,0.6920
3058.00,0.6940
3057.00,0.6961
3056.00,0.6983
3055.00,0.7005
3054.00,0.7028
3053.00,0.7051
3052.00,0.7075
3051.00,0.7101
3050.00,0.7129
3049.00,0.7160
3048.00,0.7192
3047.00,0.7226
3046.00,0.7260
3045.00,0.7296
3044.00,0.7333
3043.00,0.7369
3042.00,0.7407
3041.00,0.7446
3040.00,0.7487
3039.00,0.7529
3038.00,0.7573
3037.00,0.7618
3036.00,0.7665
3035.00,0.7714
3034.00,0.7767
3033.00,0.7823
3032.00,0.7882
3031.00,0.7944
3030.00,0.8010
3029.00,0.8079
3028.00,0.8152
3027.00,0.8228
3026.00,0.8305
3025.00,0.8383
3024.00,0.8464
3023.00,0.8548
3022.00,0.8637
3021.00,0.8730
3020.00,0.8829
3019.00,0.8931
3018.00,0.9035
3017.00,0.9143
3016.00,0.9253
3015.00,0.9366
3014.00,0.9480
3013.00,0.9599
3012.00,0.9722
3011.00,0.9852
3010.00,0.9990
3009.00,1.0135
3008.00,1.0289
3007.00,1.0450
3006.00,1.0620
3005.00,1.0799
3004.00,1.0988
3003.00,1.1188
3002.00,1.1399
3001.00,1.1618
3000.00,1.1848
2999.00,1.2090
2998.00,1.2350
2997.00,1.2628
2996.00,1.2927
2995.00,1.3250
2994.00,1.3601
2993.00,1.3982
2992.00,1.4397
2991.00,1.4847
2990.00,1.5338
2989.00,1.5875
2988.00,1.6465
2987.00,1.7117
2986.00,1.7842
2985.00,1.8651
2984.00,1.9550
2983.00,2.0546
2982.00,2.1648
2981.00,2.2857
2980.00,2.4169
2979.00,2.5584
2978.00,2.7122
2977.00,2.8815
2976.00,3.0702
2975.00,3.2800
2974.00,3.5108
2973.00,3.7595
2972.00,4.0148
2971.00,4.3612
2970.00,4.6656
2969.00,4.5160
2968.00,4.3564
2967.00,4.2014
2966.00,4.0750
2965.00,3.9401
2964.00,3.8754
2963.00,3.8759
2962.00,3.9362
2961.00,4.1212
2960.00,4.2692
2959.00,4.0980
2958.00,3.9215
2957.00,3.8564
2956.00,3.9892
2955.00,4.2887
2954.00,4.2748
2953.00,4.0796
2952.00,4.0672
2951.00,4.3643
2950.00,4.3429
2949.00,4.1557
2948.00,4.2787
2947.00,4.6407
2946.00,4.5058
2945.00,4.3022
2944.00,4.4859
2943.00,4.6977
2942.00,4.2832
2941.00,4.0801
2940.00,4.0718
2939.00,4.1533
2938.00,4.1294
2937.00,3.9968
2936.00,3.9069
2935.00,3.8705
2934.00,3.9073
2933.00,4.0023
2932.00,4.1604
2931.00,4.3489
2930.00,4.3025
2929.00,4.0253
2928.00,3.7986
2927.00,3.6907
2926.00,3.6841
2925.00,3.7469
2924.00,3.8660
2923.00,4.0222
2922.00,4.2654
2921.00,4.6442
2920.00,4.6148
2919.00,4.3098
2918.00,4.1611
2917.00,4.2524
2916.00,4.4243
2915.00,4.3571
2914.00,4.1710
2913.00,4.0010
2912.00,3.8917
2911.00,3.8202
2910.00,3.7957
2909.00,3.8156
2908.00,3.8740
2907.00,3.9354
2906.00,3.9306
2905.00,3.8569
2904.00,3.8105
2903.00,3.8318
2902.00,3.9984
2901.00,4.4301
2900.00,4.7664
2899.00,4.7698
2898.00,4.5315
2897.00,4.3405
2896.00,4.1064
2895.00,3.9988
2894.00,4.1688
2893.00,4.5227
2892.00,4.8680
2891.00,4.7116
2890.00,4.2522
2889.00,3.9964
2888.00,3.8460
2887.00,3.8704
2886.00,4.1579
2885.00,4.3892
2884.00,4.1337
2883.00,3.9134
2882.00,3.8594
2881.00,3.8706
2880.00,3.8440
2879.00,3.9885
2878.00,4.4146
2877.00,4.4170
2876.00,4.1746
2875.00,4.0350
2874.00,4.2207
2873.00,4.4170
2872.00,4.2653
2871.00,4.1409
2870.00,3.9846
2869.00,3.9144
2868.00,3.9458
2867.00,4.1367
2866.00,4.5635
2865.00,4.6386
2864.00,4.2352
2863.00,4.0062
2862.00,3.9411
2861.00,3.8762
2860.00,3.8163
2859.00,3.8313
2858.00,3.9899
2857.00,4.3678
2856.00,4.3958
2855.00,4.0742
2854.00,3.8661
2853.00,3.8359
2852.00,3.8851
2851.00,3.9542
2850.00,4.0157
2849.00,3.9446
2848.00,3.8396
2847.00,3.7909
2846.00,3.8070
2845.00,3.8432
2844.00,3.8575
2843.00,3.8712
2842.00,3.8674
2841.00,3.7845
2840.00,3.6620
2839.00,3.5472
2838.00,3.4207
2837.00,3.2435
2836.00,3.0382
2835.00,2.8383
2834.00,2.6525
2833.00,2.4832
2832.00,2.3315
2831.00,2.1973
2830.00,2.0792
2829.00,1.9743
2828.00,1.8807
2827.00,1.7968
2826.00,1.7216
2825.00,1.6540
2824.00,1.5931
2823.00,1.5378
2822.00,1.4872
2821.00,1.4407
2820.00,1.3979
2819.00,1.3582
2818.00,1.3214
2817.00,1.2870
2816.00,1.2550
2815.00,1.2251
2814.00,1.1969
2813.00,1.1702
2812.00,1.1450
2811.00,1.1212
2810.00,1.0985
2809.00,1.0768
2808.00,1.0559
2807.00,1.0359
2806.00,1.0169
2805.00,0.9987
2804.00,0.9814
2803.00,0.9649
2802.00,0.9492
2801.00,0.9341
2800.00,0.9198
2799.00,0.9061
2798.00,0.8931
2797.00,0.8805
2796.00,0.8683
2795.00,0.8566
2794.00,0.8453
2793.00,0.8345
2792.00,0.8241
2791.00,0.8140
2790.00,0.8040
2789.00,0.7942
2788.00,0.7846
2787.00,0.7753
2786.00,0.7662
2785.00,0.7572
2784.00,0.7485
2783.00,0.7400
2782.00,0.7319
2781.00,0.7241
2780.00,0.7166
2779.00,0.7095
2778.00,0.7027
2777.00,0.6962
2776.00,0.6900
2775.00,0.6842
2774.00,0.6787
2773.00,0.6736
2772.00,0.6689
2771.00,0.6646
2770.00,0.6606
2769.00,0.6568
2768.00,0.6533
2767.00,0.6502
2766.00,0.6474
2765.00,0.6449
2764.00,0.6427
2763.00,0.6407
2762.00,0.6389
2761.00,0.6373
2760.00,0.6359
2759.00,0.6346
2758.00,0.6334
2757.00,0.6323
2756.00,0.6312
2755.00,0.6302
2754.00,0.6293
2753.00,0.6286
2752.00,0.6280
2751.00,0.6275
2750.00,0.6273
2749.00,0.6274
2748.00,0.6277
2747.00,0.6281
2746.00,0.6288
2745.00,0.6297
2744.00,0.6308
2743.00,0.6322
2742.00,0.6338
2741.00,0.6358
2740.00,0.6382
2739.00,0.6409
2738.00,0.6441
2737.00,0.6476
2736.00,0.6516
2735.00,0.6558
2734.00,0.6602
2733.00,0.6646
2732.00,0.6685
2731.00,0.6716
2730.00,0.6737
2729.00,0.6747
2728.00,0.6748
2727.00,0.6740
2726.00,0.6725
2725.00,0.6706
2724.00,0.6684
2723.00,0.6660
2722.00,0.6634
2721.00,0.6606
2720.00,0.6575
2719.00,0.6543
2718.00,0.6508
2717.00,0.6471
2716.00,0.6432
2715.00,0.6392
2714.00,0.6351
2713.00,0.6312
2712.00,0.6274
2711.00,0.6238
2710.00,0.6206
2709.00,0.6177
2708.00,0.6153
2707.00,0.6133
2706.00,0.6115
2705.00,0.6100
2704.00,0.6088
2703.00,0.6078
2702.00,0.6072
2701.00,0.6069
2700.00,0.6068
2699.00,0.6069
2698.00,0.6071
2697.00,0.6076
2696.00,0.6081
2695.00,0.6088
2694.00,0.6097
2693.00,0.6106
2692.00,0.6116
2691.00,0.6127
2690.00,0.6136
2689.00,0.6145
2688.00,0.6152
2687.00,0.6158
2686.00,0.6163
2685.00,0.6167
2684.00,0.6171
2683.00,0.6172
2682.00,0.6173
2681.00,0.6173
2680.00,0.6172
2679.00,0.6171
2678.00,0.6171
2677.00,0.6171
2676.00,0.6172
2675.00,0.6172
2674.00,0.6172
2673.00,0.6170
2672.00,0.6167
2671.00,0.6162
2670.00,0.6155
2669.00,0.6145
2668.00,0.6133
2667.00,0.6119
2666.00,0.6102
2665.00,0.6084
2664.00,0.6065
2663.00,0.6045
2662.00,0.6024
2661.00,0.6002
2660.00,0.5980
2659.00,0.5959
2658.00,0.5939
2657.00,0.5920
2656.00,0.5901
2655.00,0.5883
2654.00,0.5866
2653.00,0.5849
2652.00,0.5832
2651.00,0.5816
2650.00,0.5800
2649.00,0.5784
2648.00,0.5768
2647.00,0.5753
2646.00,0.5738
2645.00,0.5725
2644.00,0.5712
2643.00,0.5700
2642.00,0.5689
2641.00,0.5678
2640.00,0.5667
2639.00,0.5657
2638.00,0.5647
2637.00,0.5638
2636.00,0.5628
2635.00,0.5619
2634.00,0.5609
2633.00,0.5599
2632.00,0.5589
2631.00,0.5579
2630.00,0.5568
2629.00,0.5558
2628.00,0.5547
2627.00,0.5537
2626.00,0.5527
2625.00,0.5517
2624.00,0.5507
2623.00,0.5497
2622.00,0.5486
2621.00,0.5476
2620.00,0.5466
2619.00,0.5456
2618.00,0.5447
2617.00,0.5437
2616.00,0.5427
2615.00,0.5417
2614.00,0.5407
2613.00,0.5396
2612.00,0.5386
2611.00,0.5377
2610.00,0.5368
2609.00,0.5358
2608.00,0.5348
2607.00,0.5339
2606.00,0.5329
2605.00,0.5318
2604.00,0.5308
2603.00,0.5296
2602.00,0.5285
2601.00,0.5274
2600.00,0.5262
2599.00,0.5250
2598.00,0.5237
2597.00,0.5223
2596.00,0.5208
2595.00,0.5192
2594.00,0.5176
2593.00,0.5159
2592.00,0.5142
2591.00,0.5124
2590.00,0.5106
2589.00,0.5089
2588.00,0.5072
2587.00,0.5055
2586.00,0.5039
2585.00,0.5023
2584.00,0.5006
2583.00,0.4989
2582.00,0.4972
2581.00,0.4955
2580.00,0.4938
2579.00,0.4921
2578.00,0.4904
2577.00,0.4887
2576.00,0.4870
2575.00,0.4853
2574.00,0.4838
2573.00,0.4824
2572.00,0.4811
2571.00,0.4797
2570.00,0.4784
2569.00,0.4770
2568.00,0.4755
2567.00,0.4741
2566.00,0.4727
2565.00,0.4713
2564.00,0.4699
2563.00,0.4685
2562.00,0.4671
2561.00,0.4657
2560.00,0.4643
2559.00,0.4629
2558.00,0.4616
2557.00,0.4605
2556.00,0.4593
2555.00,0.4581
2554.00,0.4569
2553.00,0.4557
2552.00,0.4546
2551.00,0.4535
2550.00,0.4526
2549.00,0.4516
2548.00,0.4507
2547.00,0.4499
2546.00,0.4490
2545.00,0.4482
2544.00,0.4475
2543.00,0.4467
2542.00,0.4461
2541.00,0.4454
2540.00,0.4449
2539.00,0.4443
2538.00,0.4437
2537.00,0.4431
2536.00,0.4424
2535.00,0.4419
2534.00,0.4413
2533.00,0.4407
2532.00,0.4400
2531.00,0.4392
2530.00,0.4383
2529.00,0.4374
2528.00,0.4364
2527.00,0.4354
2526.00,0.4343
2525.00,0.4333
2524.00,0.4321
2523.00,0.4310
2522.00,0.4299
2521.00,0.4287
2520.00,0.4277
2519.00,0.4267
2518.00,0.4257
2517.00,0.4248
2516.00,0.4240
2515.00,0.4232
2514.00,0.4224
2513.00,0.4216
2512.00,0.4208
2511.00,0.4201
2510.00,0.4194
2509.00,0.4187
2508.00,0.4181
2507.00,0.4176
2506.00,0.4171
2505.00,0.4167
2504.00,0.4164
2503.00,0.4160
2502.00,0.4157
2501.00,0.4153
2500.00,0.4149
2499.00,0.4146
2498.00,0.4142
2497.00,0.4137
2496.00,0.4133
2495.00,0.4130
2494.00,0.4126
2493.00,0.4121
2492.00,0.4117
2491.00,0.4112
2490.00,0.4107
2489.00,0.4102
2488.00,0.4097
2487.00,0.4092
2486.00,0.4086
2485.00,0.4081
2484.00,0.4076
2483.00,0.4071
2482.00,0.4067
2481.00,0.4063
2480.00,0.4059
2479.00,0.4055
2478.00,0.4051
2477.00,0.4046
2476.00,0.4042
2475.00,0.4038
2474.00,0.4035
2473.00,0.4032
2472.00,0.4029
2471.00,0.4027
2470.00,0.4024
2469.00,0.4022
2468.00,0.4020
2467.00,0.4018
2466.00,0.4016
2465.00,0.4013
2464.00,0.4011
2463.00,0.4008
2462.00,0.4006
2461.00,0.4003
2460.00,0.4001
2459.00,0.3998
2458.00,0.3996
2457.00,0.3993
2456.00,0.3991
2455.00,0.3988
2454.00,0.3986
2453.00,0.3984
2452.00,0.3983
2451.00,0.3982
2450.00,0.3980
2449.00,0.3978
2448.00,0.3976
2447.00,0.3975
2446.00,0.3975
2445.00,0.3975
2444.00,0.3975
2443.00,0.3976
2442.00,0.3976
2441.00,0.3977
2440.00,0.3977
2439.00,0.3978
2438.00,0.3979
2437.00,0.3980
2436.00,0.3981
2435.00,0.3982
2434.00,0.3983
2433.00,0.3984
2432.00,0.3985
2431.00,0.3987
2430.00,0.3988
2429.00,0.3990
2428.00,0.3991
2427.00,0.3992
2426.00,0.3993
2425.00,0.3994
2424.00,0.3995
2423.00,0.3995
2422.00,0.3995
2421.00,0.3996
2420.00,0.3997
2419.00,0.3997
2418.00,0.3997
2417.00,0.3997
2416.00,0.3997
2415.00,0.3997
2414.00,0.3996
2413.00,0.3997
2412.00,0.3997
2411.00,0.3997
2410.00,0.3997
2409.00,0.3997
2408.00,0.3997
2407.00,0.3998
2406.00,0.3997
2405.00,0.3997
2404.00,0.3997
2403.00,0.3997
2402.00,0.3996
2401.00,0.3996
2400.00,0.3995
2399.00,0.3995
2398.00,0.3994
2397.00,0.3994
2396.00,0.3994
2395.00,0.3993
2394.00,0.3992
2393.00,0.3991
2392.00,0.3991
2391.00,0.3991
2390.00,0.3992
2389.00,0.3992
2388.00,0.3993
2387.00,0.3993
2386.00,0.3993
2385.00,0.3994
2384.00,0.3995
2383.00,0.3995
2382.00,0.3995
2381.00,0.3996
2380.00,0.3996
2379.00,0.3997
2378.00,0.3997
2377.00,0.3997
2376.00,0.3998
2375.00,0.3997
2374.00,0.3997
2373.00,0.3996
2372.00,0.3996
2371.00,0.3995
2370.00,0.3995
2369.00,0.3995
2368.00,0.3995
2367.00,0.3995
2366.00,0.3995
2365.00,0.3995
2364.00,0.3995
2363.00,0.3995
2362.00,0.3995
2361.00,0.3995
2360.00,0.3995
2359.00,0.3995
2358.00,0.3995
2357.00,0.3995
2356.00,0.3994
2355.00,0.3994
2354.00,0.3993
2353.00,0.3993
2352.00,0.3993
2351.00,0.3993
2350.00,0.3993
2349.00,0.3992
2348.00,0.3991
2347.00,0.3991
2346.00,0.3991
2345.00,0.3990
2344.00,0.3989
2343.00,0.3988
2342.00,0.3988
2341.00,0.3988
2340.00,0.3989
2339.00,0.3988
2338.00,0.3987
2337.00,0.3985
2336.00,0.3984
2335.00,0.3982
2334.00,0.3980
2333.00,0.3978
2332.00,0.3977
2331.00,0.3974
2330.00,0.3972
2329.00,0.3969
2328.00,0.3966
2327.00,0.3963
2326.00,0.3961
2325.00,0.3959
2324.00,0.3958
2323.00,0.3956
2322.00,0.3953
2321.00,0.3950
2320.00,0.3946
2319.00,0.3943
2318.00,0.3940
2317.00,0.3937
2316.00,0.3935
2315.00,0.3933
2314.00,0.3930
2313.00,0.3928
2312.00,0.3925
2311.00,0.3922
2310.00,0.3918
2309.00,0.3914
2308.00,0.3911
2307.00,0.3908
2306.00,0.3905
2305.00,0.3903
2304.00,0.3900
2303.00,0.3897
2302.00,0.3894
2301.00,0.3892
2300.00,0.3888
2299.00,0.3885
2298.00,0.3881
2297.00,0.3878
2296.00,0.3874
2295.00,0.3871
2294.00,0.3867
2293.00,0.3865
2292.00,0.3862
2291.00,0.3859
2290.00,0.3856
2289.00,0.3852
2288.00,0.3849
2287.00,0.3845
2286.00,0.3841
2285.00,0.3838
2284.00,0.3835
2283.00,0.3832
2282.00,0.3829
2281.00,0.3825
2280.00,0.3822
2279.00,0.3819
2278.00,0.3816
2277.00,0.3813
2276.00,0.3811
2275.00,0.3809
2274.00,0.3807
2273.00,0.3805
2272.00,0.3804
2271.00,0.3803
2270.00,0.3801
2269.00,0.3800
2268.00,0.3799
2267.00,0.3799
2266.00,0.3798
2265.00,0.3796
2264.00,0.3794
2263.00,0.3792
2262.00,0.3790
2261.00,0.3787
2260.00,0.3784
2259.00,0.3780
2258.00,0.3777
2257.00,0.3773
2256.00,0.3770
2255.00,0.3767
2254.00,0.3763
2253.00,0.3760
2252.00,0.3756
2251.00,0.3753
2250.00,0.3749
2249.00,0.3746
2248.00,0.3743
2247.00,0.3740
2246.00,0.3737
2245.00,0.3735
2244.00,0.3733
2243.00,0.3731
2242.00,0.3730
2241.00,0.3728
2240.00,0.3727
2239.00,0.3726
2238.00,0.3726
2237.00,0.3725
2236.00,0.3724
2235.00,0.3722
2234.00,0.3721
2233.00,0.3720
2232.00,0.3720
2231.00,0.3719
2230.00,0.3719
2229.00,0.3718
2228.00,0.3717
2227.00,0.3717
2226.00,0.3716
2225.00,0.3714
2224.00,0.3712
2223.00,0.3710
2222.00,0.3709
2221.00,0.3708
2220.00,0.3707
2219.00,0.3705
2218.00,0.3704
2217.00,0.3702
2216.00,0.3701
2215.00,0.3700
2214.00,0.3699
2213.00,0.3697
2212.00,0.3696
2211.00,0.3695
2210.00,0.3694
2209.00,0.3693
2208.00,0.3693
2207.00,0.3693
2206.00,0.3692
2205.00,0.3692
2204.00,0.3691
2203.00,0.3691
2202.00,0.3691
2201.00,0.3691
2200.00,0.3692
2199.00,0.3692
2198.00,0.3693
2197.00,0.3694
2196.00,0.3695
2195.00,0.3696
2194.00,0.3697
2193.00,0.3698
2192.00,0.3699
2191.00,0.3700
2190.00,0.3701
2189.00,0.3701
2188.00,0.3701
2187.00,0.3702
2186.00,0.3701
2185.00,0.3701
2184.00,0.3700
2183.00,0.3699
2182.00,0.3698
2181.00,0.3697
2180.00,0.3695
2179.00,0.3694
2178.00,0.3691
2177.00,0.3689
2176.00,0.3686
2175.00,0.3684
2174.00,0.3681
2173.00,0.3680
2172.00,0.3679
2171.00,0.3678
2170.00,0.3678
2169.00,0.3677
2168.00,0.3676
2167.00,0.3675
2166.00,0.3673
2165.00,0.3672
2164.00,0.3672
2163.00,0.3671
2162.00,0.3671
2161.00,0.3670
2160.00,0.3670
2159.00,0.3669
2158.00,0.3668
2157.00,0.3668
2156.00,0.3669
2155.00,0.3669
2154.00,0.3669
2153.00,0.3669
2152.00,0.3668
2151.00,0.3667
2150.00,0.3664
2149.00,0.3662
2148.00,0.3658
2147.00,0.3654
2146.00,0.3649
2145.00,0.3644
2144.00,0.3639
2143.00,0.3634
2142.00,0.3628
2141.00,0.3623
2140.00,0.3618
2139.00,0.3613
2138.00,0.3608
2137.00,0.3603
2136.00,0.3598
2135.00,0.3593
2134.00,0.3589
2133.00,0.3586
2132.00,0.3584
2131.00,0.3582
2130.00,0.3580
2129.00,0.3579
2128.00,0.3578
2127.00,0.3577
2126.00,0.3575
2125.00,0.3574
2124.00,0.3573
2123.00,0.3573
2122.00,0.3573
2121.00,0.3573
2120.00,0.3573
2119.00,0.3573
2118.00,0.3573
2117.00,0.3573
2116.00,0.3573
2115.00,0.3573
2114.00,0.3572
2113.00,0.3571
2112.00,0.3569
2111.00,0.3568
2110.00,0.3566
2109.00,0.3565
2108.00,0.3564
2107.00,0.3562
2106.00,0.3561
2105.00,0.3559
2104.00,0.3558
2103.00,0.3557
2102.00,0.3556
2101.00,0.3554
2100.00,0.3553
2099.00,0.3551
2098.00,0.3550
2097.00,0.3549
2096.00,0.3548
2095.00,0.3547
2094.00,0.3547
2093.00,0.3547
2092.00,0.3547
2091.00,0.3547
2090.00,0.3547
2089.00,0.3547
2088.00,0.3547
2087.00,0.3548
2086.00,0.3548
2085.00,0.3549
2084.00,0.3549
2083.00,0.3549
2082.00,0.3550
2081.00,0.3551
2080.00,0.3552
2079.00,0.3552
2078.00,0.3553
2077.00,0.3554
2076.00,0.3555
2075.00,0.3555
2074.00,0.3555
2073.00,0.3555
2072.00,0.3556
2071.00,0.3556
2070.00,0.3557
2069.00,0.3558
2068.00,0.3559
2067.00,0.3560
2066.00,0.3560
2065.00,0.3561
2064.00,0.3561
2063.00,0.3561
2062.00,0.3561
2061.00,0.3561
2060.00,0.3561
2059.00,0.3561
2058.00,0.3562
2057.00,0.3563
2056.00,0.3565
2055.00,0.3566
2054.00,0.3567
2053.00,0.3569
2052.00,0.3570
2051.00,0.3572
2050.00,0.3574
2049.00,0.3577
2048.00,0.3580
2047.00,0.3583
2046.00,0.3585
2045.00,0.3589
2044.00,0.3592
2043.00,0.3595
2042.00,0.3596
2041.00,0.3597
2040.00,0.3598
2039.00,0.3598
2038.00,0.3598
2037.00,0.3599
2036.00,0.3601
2035.00,0.3602
2034.00,0.3603
2033.00,0.3604
2032.00,0.3603
2031.00,0.3603
2030.00,0.3603
2029.00,0.3603
2028.00,0.3603
2027.00,0.3603
2026.00,0.3602
2025.00,0.3601
2024.00,0.3598
2023.00,0.3596
2022.00,0.3593
2021.00,0.3591
2020.00,0.3588
2019.00,0.3584
2018.00,0.3578
2017.00,0.3571
2016.00,0.3562
2015.00,0.3552
2014.00,0.3543
2013.00,0.3535
2012.00,0.3528
2011.00,0.3522
2010.00,0.3516
2009.00,0.3511
2008.00,0.3507
2007.00,0.3502
2006.00,0.3498
2005.00,0.3495
2004.00,0.3492
2003.00,0.3490
2002.00,0.3488
2001.00,0.3487
2000.00,0.3486
1999.00,0.3485
1998.00,0.3483
1997.00,0.3483
1996.00,0.3484
1995.00,0.3486
1994.00,0.3487
1993.00,0.3487
1992.00,0.3485
1991.00,0.3482
1990.00,0.3478
1989.00,0.3474
1988.00,0.3471
1987.00,0.3467
1986.00,0.3464
1985.00,0.3462
1984.00,0.3461
1983.00,0.3460
1982.00,0.3459
1981.00,0.3459
1980.00,0.3458
1979.00,0.3457
1978.00,0.3456
1977.00,0.3455
1976.00,0.3455
1975.00,0.3454
1974.00,0.3453
1973.00,0.3454
1972.00,0.3456
1971.00,0.3459
1970.00,0.3463
1969.00,0.3467
1968.00,0.3469
1967.00,0.3468
1966.00,0.3465
1965.00,0.3463
1964.00,0.3461
1963.00,0.3460
1962.00,0.3460
1961.00,0.3460
1960.00,0.3460
1959.00,0.3461
1958.00,0.3463
1957.00,0.3464
1956.00,0.3466
1955.00,0.3467
1954.00,0.3467
1953.00,0.3468
1952.00,0.3468
1951.00,0.3468
1950.00,0.3468
1949.00,0.3470
1948.00,0.3473
1947.00,0.3477
1946.00,0.3481
1945.00,0.3487
1944.00,0.3491
1943.00,0.3493
1942.00,0.3493
1941.00,0.3492
1940.00,0.3490
1939.00,0.3490
1938.00,0.3489
1937.00,0.3489
1936.00,0.3489
1935.00,0.3487
1934.00,0.3485
1933.00,0.3484
1932.00,0.3482
1931.00,0.3481
1930.00,0.3480
1929.00,0.3481
1928.00,0.3483
1927.00,0.3487
1926.00,0.3492
1925.00,0.3497
1924.00,0.3502
1923.00,0.3506
1922.00,0.3509
1921.00,0.3512
1920.00,0.3513
1919.00,0.3514
1918.00,0.3516
1917.00,0.3518
1916.00,0.3519
1915.00,0.3519
1914.00,0.3520
1913.00,0.3522
1912.00,0.3525
1911.00,0.3527
1910.00,0.3527
1909.00,0.3526
1908.00,0.3524
1907.00,0.3522
1906.00,0.3519
1905.00,0.3517
1904.00,0.3516
1903.00,0.3515
1902.00,0.3514
1901.00,0.3513
1900.00,0.3512
1899.00,0.3513
1898.00,0.3514
1897.00,0.3515
1896.00,0.3516
1895.00,0.3516
1894.00,0.3517
1893.00,0.3520
1892.00,0.3522
1891.00,0.3524
1890.00,0.3524
1889.00,0.3523
1888.00,0.3522
1887.00,0.3521
1886.00,0.3520
1885.00,0.3520
1884.00,0.3521
1883.00,0.3521
1882.00,0.3522
1881.00,0.3522
1880.00,0.3522
1879.00,0.3522
1878.00,0.3520
1877.00,0.3519
1876.00,0.3518
1875.00,0.3517
1874.00,0.3516
1873.00,0.3515
1872.00,0.3515
1871.00,0.3514
1870.00,0.3512
1869.00,0.3511
1868.00,0.3509
1867.00,0.3509
1866.00,0.3508
1865.00,0.3507
1864.00,0.3505
1863.00,0.3503
1862.00,0.3501
1861.00,0.3498
1860.00,0.3496
1859.00,0.3494
1858.00,0.3492
1857.00,0.3490
1856.00,0.3489
1855.00,0.3487
1854.00,0.3486
1853.00,0.3485
1852.00,0.3485
1851.00,0.3485
1850.00,0.3484
1849.00,0.3483
1848.00,0.3483
1847.00,0.3483
1846.00,0.3483
1845.00,0.3485
1844.00,0.3486
1843.00,0.3488
1842.00,0.3489
1841.00,0.3490
1840.00,0.3491
1839.00,0.3492
1838.00,0.3492
1837.00,0.3499
1836.00,0.3500
1835.00,0.3501
1834.00,0.3504
1833.00,0.3506
1832.00,0.3511
1831.00,0.3491
1830.00,0.3488
1829.00,0.3489
1828.00,0.3488
1827.00,0.3488
1826.00,0.3489
1825.00,0.3489
1824.00,0.3490
1823.00,0.3491
1822.00,0.3491
1821.00,0.3492
1820.00,0.3494
1819.00,0.3495
1818.00,0.3497
1817.00,0.3499
1816.00,0.3502
1815.00,0.3504
1814.00,0.3506
1813.00,0.3509
1812.00,0.3512
1811.00,0.3515
1810.00,0.3518
1809.00,0.3522
1808.00,0.3527
1807.00,0.3532
1806.00,0.3537
1805.00,0.3542
1804.00,0.3547
1803.00,0.3553
1802.00,0.3558
1801.00,0.3565
1800.00,0.3573
1799.00,0.3581
1798.00,0.3588
1797.00,0.3595
1796.00,0.3602
1795.00,0.3609
1794.00,0.3613
1793.00,0.3647
1792.00,0.3659
1791.00,0.3661
1790.00,0.3666
1789.00,0.3670
1788.00,0.3678
1787.00,0.3688
1786.00,0.3699
1785.00,0.3710
1784.00,0.3724
1783.00,0.3737
1782.00,0.3749
1781.00,0.3761
1780.00,0.3774
1779.00,0.3786
1778.00,0.3801
1777.00,0.3820
1776.00,0.3840
1775.00,0.3859
1774.00,0.3874
1773.00,0.3894
1772.00,0.3920
1771.00,0.3946
1770.00,0.3968
1769.00,0.3989
1768.00,0.4015
1767.00,0.4049
1766.00,0.4090
1765.00,0.4135
1764.00,0.4188
1763.00,0.4253
1762.00,0.4334
1761.00,0.4430
1760.00,0.4537
1759.00,0.4654
1758.00,0.4788
1757.00,0.4952
1756.00,0.5145
1755.00,0.5357
1754.00,0.5583
1753.00,0.5835
1752.00,0.6125
1751.00,0.6439
1750.00,0.6751
1749.00,0.7038
1748.00,0.7293
1747.00,0.7509
1746.00,0.7681
1745.00,0.7804
1744.00,0.7875
1743.00,0.7891
1742.00,0.7858
1741.00,0.7787
1740.00,0.7690
1739.00,0.7584
1738.00,0.7484
1737.00,0.7393
1736.00,0.7302
1735.00,0.7207
1734.00,0.7115
1733.00,0.7029
1732.00,0.6939
1731.00,0.6830
1730.00,0.6695
1729.00,0.6541
1728.00,0.6375
1727.00,0.6207
1726.00,0.6043
1725.00,0.5889
1724.00,0.5747
1723.00,0.5623
1722.00,0.5520
1721.00,0.5438
1720.00,0.5370
1719.00,0.5311
1718.00,0.5256
1717.00,0.5205
1716.00,0.5160
1715.00,0.5119
1714.00,0.5085
1713.00,0.5060
1712.00,0.5042
1711.00,0.5029
1710.00,0.5022
1709.00,0.5020
1708.00,0.5018
1707.00,0.5014
1706.00,0.5008
1705.00,0.5002
1704.00,0.4991
1703.00,0.4965
1702.00,0.4923
1701.00,0.4880
1700.00,0.4848
1699.00,0.4822
1698.00,0.4790
1697.00,0.4746
1696.00,0.4702
1695.00,0.4671
1694.00,0.4652
1693.00,0.4640
1692.00,0.4633
1691.00,0.4632
1690.00,0.4636
1689.00,0.4645
1688.00,0.4654
1687.00,0.4659
1686.00,0.4662
1685.00,0.4669
1684.00,0.4680
1683.00,0.4689
1682.00,0.4693
1681.00,0.4695
1680.00,0.4700
1679.00,0.4707
1678.00,0.4715
1677.00,0.4722
1676.00,0.4736
1675.00,0.4757
1674.00,0.4782
1673.00,0.4805
1672.00,0.4823
1671.00,0.4835
1670.00,0.4845
1669.00,0.4856
1668.00,0.4869
1667.00,0.4881
1666.00,0.4892
1665.00,0.4901
1664.00,0.4913
1663.00,0.4925
1662.00,0.4938
1661.00,0.4951
1660.00,0.4965
1659.00,0.4982
1658.00,0.5004
1657.00,0.5031
1656.00,0.5054
1655.00,0.5066
1654.00,0.5072
1653.00,0.5089
1652.00,0.5123
1651.00,0.5155
1650.00,0.5177
1649.00,0.5197
1648.00,0.5215
1647.00,0.5232
1646.00,0.5251
1645.00,0.5275
1644.00,0.5301
1643.00,0.5327
1642.00,0.5355
1641.00,0.5392
1640.00,0.5436
1639.00,0.5480
1638.00,0.5517
1637.00,0.5551
1636.00,0.5587
1635.00,0.5627
1634.00,0.5668
1633.00,0.5706
1632.00,0.5740
1631.00,0.5770
1630.00,0.5800
1629.00,0.5830
1628.00,0.5862
1627.00,0.5891
1626.00,0.5915
1625.00,0.5939
1624.00,0.5966
1623.00,0.5997
1622.00,0.6031
1621.00,0.6070
1620.00,0.6108
1619.00,0.6145
1618.00,0.6188
1617.00,0.6247
1616.00,0.6320
1615.00,0.6393
1614.00,0.6459
1613.00,0.6527
1612.00,0.6603
1611.00,0.6686
1610.00,0.6771
1609.00,0.6861
1608.00,0.6955
1607.00,0.7048
1606.00,0.7140
1605.00,0.7235
1604.00,0.7336
1603.00,0.7436
1602.00,0.7534
1601.00,0.7638
1600.00,0.7754
1599.00,0.7881
1598.00,0.8028
1597.00,0.8208
1596.00,0.8434
1595.00,0.8711
1594.00,0.9047
1593.00,0.9466
1592.00,0.9996
1591.00,1.0656
1590.00,1.1479
1589.00,1.2525
1588.00,1.3859
1587.00,1.5524
1586.00,1.7547
1585.00,2.0009
1584.00,2.3075
1583.00,2.6668
1582.00,2.9806
1581.00,3.1811
1580.00,3.3379
1579.00,3.1953
1578.00,2.7865
1577.00,2.4324
1576.00,2.1492
1575.00,1.9198
1574.00,1.7432
1573.00,1.6118
1572.00,1.5105
1571.00,1.4284
1570.00,1.3653
1569.00,1.3272
1568.00,1.3164
1567.00,1.3300
1566.00,1.3681
1565.00,1.4355
1564.00,1.5334
1563.00,1.6517
1562.00,1.7727
1561.00,1.8793
1560.00,1.9218
1559.00,1.8217
1558.00,1.6412
1557.00,1.4762
1556.00,1.3344
1555.00,1.2036
1554.00,1.0877
1553.00,0.9951
1552.00,0.9242
1551.00,0.8670
1550.00,0.8188
1549.00,0.7797
1548.00,0.7499
1547.00,0.7271
1546.00,0.7088
1545.00,0.6942
1544.00,0.6825
1543.00,0.6726
1542.00,0.6634
1541.00,0.6536
1540.00,0.6427
1539.00,0.6320
1538.00,0.6229
1537.00,0.6153
1536.00,0.6083
1535.00,0.6014
1534.00,0.5948
1533.00,0.5898
1532.00,0.5868
1531.00,0.5856
1530.00,0.5856
1529.00,0.5865
1528.00,0.5871
1527.00,0.5862
1526.00,0.5836
1525.00,0.5804
1524.00,0.5771
1523.00,0.5737
1522.00,0.5704
1521.00,0.5685
1520.00,0.5682
1519.00,0.5689
1518.00,0.5701
1517.00,0.5718
1516.00,0.5738
1515.00,0.5754
1514.00,0.5768
1513.00,0.5788
1512.00,0.5820
1511.00,0.5861
1510.00,0.5908
1509.00,0.5959
1508.00,0.6008
1507.00,0.6050
1506.00,0.6100
1505.00,0.6171
1504.00,0.6247
1503.00,0.6317
1502.00,0.6387
1501.00,0.6465
1500.00,0.6548
1499.00,0.6632
1498.00,0.6720
1497.00,0.6821
1496.00,0.6940
1495.00,0.7068
1494.00,0.7201
1493.00,0.7347
1492.00,0.7514
1491.00,0.7699
1490.00,0.7894
1489.00,0.8092
1488.00,0.8292
1487.00,0.8499
1486.00,0.8729
1485.00,0.8997
1484.00,0.9307
1483.00,0.9664
1482.00,1.0083
1481.00,1.0578
1480.00,1.1144
1479.00,1.1778
1478.00,1.2515
1477.00,1.3400
1476.00,1.4455
1475.00,1.5691
1474.00,1.7197
1473.00,1.9155
1472.00,2.1697
1471.00,2.4787
1470.00,2.8389
1469.00,3.2947
1468.00,3.9847
1467.00,4.9615
1466.00,4.4311
1465.00,4.0325
1464.00,4.1034
1463.00,4.1468
1462.00,3.9382
1461.00,4.2615
1460.00,4.5835
1459.00,3.9414
1458.00,3.7317
1457.00,3.6762
1456.00,3.7286
1455.00,3.8931
1454.00,3.8761
1453.00,3.8194
1452.00,3.7214
1451.00,3.5499
1450.00,3.4859
1449.00,3.5700
1448.00,3.5986
1447.00,3.3799
1446.00,3.1762
1445.00,3.0238
1444.00,2.8613
1443.00,2.6913
1442.00,2.5426
1441.00,2.4177
1440.00,2.3021
1439.00,2.1880
1438.00,2.0735
1437.00,1.9566
1436.00,1.8414
1435.00,1.7359
1434.00,1.6410
1433.00,1.5508
1432.00,1.4621
1431.00,1.3778
1430.00,1.3022
1429.00,1.2376
1428.00,1.1846
1427.00,1.1424
1426.00,1.1088
1425.00,1.0815
1424.00,1.0598
1423.00,1.0439
1422.00,1.0332
1421.00,1.0259
1420.00,1.0205
1419.00,1.0161
1418.00,1.0120
1417.00,1.0077
1416.00,1.0035
1415.00,1.0003
1414.00,0.9989
1413.00,0.9995
1412.00,1.0018
1411.00,1.0051
1410.00,1.0077
1409.00,1.0074
1408.00,1.0021
1407.00,0.9905
1406.00,0.9723
1405.00,0.9486
1404.00,0.9227
1403.00,0.8980
1402.00,0.8764
1401.00,0.8579
1400.00,0.8421
1399.00,0.8294
1398.00,0.8200
1397.00,0.8138
1396.00,0.8105
1395.00,0.8109
1394.00,0.8154
1393.00,0.8246
1392.00,0.8393
1391.00,0.8607
1390.00,0.8902
1389.00,0.9300
1388.00,0.9826
1387.00,1.0490
1386.00,1.1271
1385.00,1.2143
1384.00,1.3106
1383.00,1.4197
1382.00,1.5451
1381.00,1.6900
1380.00,1.8542
1379.00,2.0226
1378.00,2.1521
1377.00,2.1900
1376.00,2.1272
1375.00,2.0000
1374.00,1.8516
1373.00,1.7138
1372.00,1.6008
1371.00,1.5147
1370.00,1.4537
1369.00,1.4148
1368.00,1.3916
1367.00,1.3726
1366.00,1.3447
1365.00,1.3006
1364.00,1.2426
1363.00,1.1797
1362.00,1.1217
1361.00,1.0746
1360.00,1.0390
1359.00,1.0133
1358.00,0.9951
1357.00,0.9828
1356.00,0.9752
1355.00,0.9714
1354.00,0.9704
1353.00,0.9712
1352.00,0.9723
1351.00,0.9727
1350.00,0.9721
1349.00,0.9704
1348.00,0.9681
1347.00,0.9655
1346.00,0.9631
1345.00,0.9610
1344.00,0.9590
1343.00,0.9566
1342.00,0.9532
1341.00,0.9478
1340.00,0.9397
1339.00,0.9284
1338.00,0.9143
1337.00,0.8980
1336.00,0.8803
1335.00,0.8621
1334.00,0.8446
1333.00,0.8284
1332.00,0.8143
1331.00,0.8027
1330.00,0.7936
1329.00,0.7869
1328.00,0.7824
1327.00,0.7802
1326.00,0.7799
1325.00,0.7813
1324.00,0.7839
1323.00,0.7871
1322.00,0.7906
1321.00,0.7940
1320.00,0.7973
1319.00,0.8005
1318.00,0.8038
1317.00,0.8072
1316.00,0.8109
1315.00,0.8146
1314.00,0.8181
1313.00,0.8213
1312.00,0.8245
1311.00,0.8282
1310.00,0.8324
1309.00,0.8373
1308.00,0.8424
1307.00,0.8474
1306.00,0.8515
1305.00,0.8543
1304.00,0.8552
1303.00,0.8545
1302.00,0.8525
1301.00,0.8500
1300.00,0.8474
1299.00,0.8450
1298.00,0.8428
1297.00,0.8408
1296.00,0.8396
1295.00,0.8398
1294.00,0.8416
1293.00,0.8448
1292.00,0.8488
1291.00,0.8526
1290.00,0.8559
1289.00,0.8580
1288.00,0.8589
1287.00,0.8582
1286.00,0.8558
1285.00,0.8519
1284.00,0.8468
1283.00,0.8414
1282.00,0.8365
1281.00,0.8323
1280.00,0.8291
1279.00,0.8265
1278.00,0.8243
1277.00,0.8224
1276.00,0.8209
1275.00,0.8197
1274.00,0.8190
1273.00,0.8188
1272.00,0.8189
1271.00,0.8192
1270.00,0.8193
1269.00,0.8183
1268.00,0.8152
1267.00,0.8091
1266.00,0.8004
1265.00,0.7902
1264.00,0.7802
1263.00,0.7718
1262.00,0.7653
1261.00,0.7607
1260.00,0.7572
1259.00,0.7542
1258.00,0.7512
1257.00,0.7477
1256.00,0.7436
1255.00,0.7391
1254.00,0.7347
1253.00,0.7305
1252.00,0.7268
1251.00,0.7235
1250.00,0.7204
1249.00,0.7174
1248.00,0.7145
1247.00,0.7118
1246.00,0.7094
1245.00,0.7071
1244.00,0.7047
1243.00,0.7021
1242.00,0.6992
1241.00,0.6959
1240.00,0.6924
1239.00,0.6890
1238.00,0.6859
1237.00,0.6830
1236.00,0.6806
1235.00,0.6790
1234.00,0.6783
1233.00,0.6786
1232.00,0.6798
1231.00,0.6818
1230.00,0.6840
1229.00,0.6855
1228.00,0.6852
1227.00,0.6828
1226.00,0.6785
1225.00,0.6729
1224.00,0.6667
1223.00,0.6608
1222.00,0.6559
1221.00,0.6519
1220.00,0.6491
1219.00,0.6473
1218.00,0.6465
1217.00,0.6468
1216.00,0.6482
1215.00,0.6503
1214.00,0.6525
1213.00,0.6539
1212.00,0.6538
1211.00,0.6524
1210.00,0.6500
1209.00,0.6473
1208.00,0.6448
1207.00,0.6429
1206.00,0.6413
1205.00,0.6400
1204.00,0.6390
1203.00,0.6386
1202.00,0.6389
1201.00,0.6399
1200.00,0.6415
1199.00,0.6435
1198.00,0.6455
1197.00,0.6469
1196.00,0.6475
1195.00,0.6474
1194.00,0.6468
1193.00,0.6458
1192.00,0.6445
1191.00,0.6431
1190.00,0.6418
1189.00,0.6405
1188.00,0.6393
1187.00,0.6385
1186.00,0.6379
1185.00,0.6377
1184.00,0.6380
1183.00,0.6387
1182.00,0.6401
1181.00,0.6422
1180.00,0.6448
1179.00,0.6480
1178.00,0.6516
1177.00,0.6554
1176.00,0.6595
1175.00,0.6642
1174.00,0.6695
1173.00,0.6752
1172.00,0.6809
1171.00,0.6861
1170.00,0.6903
1169.00,0.6930
1168.00,0.6941
1167.00,0.6940
1166.00,0.6933
1165.00,0.6927
1164.00,0.6924
1163.00,0.6924
1162.00,0.6927
1161.00,0.6929
1160.00,0.6931
1159.00,0.6934
1158.00,0.6938
1157.00,0.6940
1156.00,0.6940
1155.00,0.6936
1154.00,0.6928
1153.00,0.6919
1152.00,0.6908
1151.00,0.6897
1150.00,0.6890
1149.00,0.6887
1148.00,0.6891
1147.00,0.6903
1146.00,0.6925
1145.00,0.6958
1144.00,0.7003
1143.00,0.7063
1142.00,0.7139
1141.00,0.7232
1140.00,0.7340
1139.00,0.7462
1138.00,0.7597
1137.00,0.7746
1136.00,0.7905
1135.00,0.8065
1134.00,0.8206
1133.00,0.8297
1132.00,0.8317
1131.00,0.8267
1130.00,0.8168
1129.00,0.8055
1128.00,0.7955
1127.00,0.7885
1126.00,0.7846
1125.00,0.7835
1124.00,0.7839
1123.00,0.7847
1122.00,0.7848
1121.00,0.7840
1120.00,0.7826
1119.00,0.7814
1118.00,0.7812
1117.00,0.7824
1116.00,0.7850
1115.00,0.7874
1114.00,0.7869
1113.00,0.7813
1112.00,0.7704
1111.00,0.7563
1110.00,0.7422
1109.00,0.7307
1108.00,0.7228
1107.00,0.7186
1106.00,0.7172
1105.00,0.7176
1104.00,0.7185
1103.00,0.7190
1102.00,0.7186
1101.00,0.7170
1100.00,0.7135
1099.00,0.7081
1098.00,0.7009
1097.00,0.6926
1096.00,0.6842
1095.00,0.6765
1094.00,0.6700
1093.00,0.6646
1092.00,0.6602
1091.00,0.6569
1090.00,0.6550
1089.00,0.6549
1088.00,0.6567
1087.00,0.6606
1086.00,0.6666
1085.00,0.6746
1084.00,0.6847
1083.00,0.6969
1082.00,0.7110
1081.00,0.7263
1080.00,0.7419
1079.00,0.7564
1078.00,0.7681
1077.00,0.7752
1076.00,0.7770
1075.00,0.7736
1074.00,0.7661
1073.00,0.7560
1072.00,0.7447
1071.00,0.7334
1070.00,0.7228
1069.00,0.7133
1068.00,0.7049
1067.00,0.6975
1066.00,0.6911
1065.00,0.6854
1064.00,0.6807
1063.00,0.6770
1062.00,0.6746
1061.00,0.6730
1060.00,0.6719
1059.00,0.6706
1058.00,0.6688
1057.00,0.6662
1056.00,0.6628
1055.00,0.6590
1054.00,0.6551
1053.00,0.6515
1052.00,0.6488
1051.00,0.6474
1050.00,0.6474
1049.00,0.6486
1048.00,0.6508
1047.00,0.6535
1046.00,0.6562
1045.00,0.6585
1044.00,0.6601
1043.00,0.6611
1042.00,0.6615
1041.00,0.6615
1040.00,0.6610
1039.00,0.6597
1038.00,0.6575
1037.00,0.6548
1036.00,0.6521
1035.00,0.6501
1034.00,0.6493
1033.00,0.6499
1032.00,0.6517
1031.00,0.6546
1030.00,0.6581
1029.00,0.6611
1028.00,0.6623
1027.00,0.6606
1026.00,0.6554
1025.00,0.6473
1024.00,0.6373
1023.00,0.6271
1022.00,0.6176
1021.00,0.6093
1020.00,0.6020
1019.00,0.5958
1018.00,0.5906
1017.00,0.5864
1016.00,0.5831
1015.00,0.5803
1014.00,0.5780
1013.00,0.5762
1012.00,0.5748
1011.00,0.5740
1010.00,0.5738
1009.00,0.5743
1008.00,0.5755
1007.00,0.5774
1006.00,0.5800
1005.00,0.5831
1004.00,0.5866
1003.00,0.5907
1002.00,0.5951
1001.00,0.5996
1000.00,0.6035
999.00,0.6063
998.00,0.6075
997.00,0.6073
996.00,0.6057
995.00,0.6030
994.00,0.5995
993.00,0.5955
992.00,0.5909
991.00,0.5859
990.00,0.5808
989.00,0.5758
988.00,0.5715
987.00,0.5684
986.00,0.5668
985.00,0.5665
984.00,0.5674
983.00,0.5692
982.00,0.5715
981.00,0.5740
980.00,0.5762
979.00,0.5780
978.00,0.5793
977.00,0.5800
976.00,0.5804
975.00,0.5805
974.00,0.5803
973.00,0.5799
972.00,0.5791
971.00,0.5784
970.00,0.5777
969.00,0.5770
968.00,0.5763
967.00,0.5754
966.00,0.5742
965.00,0.5724
964.00,0.5700
963.00,0.5670
962.00,0.5636
961.00,0.5603
960.00,0.5575
959.00,0.5554
958.00,0.5540
957.00,0.5531
956.00,0.5523
955.00,0.5513
954.00,0.5499
953.00,0.5482
952.00,0.5464
951.00,0.5448
950.00,0.5438
949.00,0.5435
948.00,0.5442
947.00,0.5458
946.00,0.5483
945.00,0.5512
944.00,0.5545
943.00,0.5580
942.00,0.5615
941.00,0.5646
940.00,0.5672
939.00,0.5692
938.00,0.5704
937.00,0.5706
936.00,0.5698
935.00,0.5680
934.00,0.5652
933.00,0.5619
932.00,0.5584
931.00,0.5554
930.00,0.5533
929.00,0.5525
928.00,0.5533
927.00,0.5560
926.00,0.5610
925.00,0.5682
924.00,0.5773
923.00,0.5877
922.00,0.5976
921.00,0.6047
920.00,0.6067
919.00,0.6027
918.00,0.5938
917.00,0.5824
916.00,0.5709
915.00,0.5609
914.00,0.5528
913.00,0.5467
912.00,0.5426
911.00,0.5402
910.00,0.5391
909.00,0.5391
908.00,0.5397
907.00,0.5408
906.00,0.5421
905.00,0.5435
904.00,0.5445
903.00,0.5448
902.00,0.5442
901.00,0.5422
900.00,0.5386
899.00,0.5339
898.00,0.5284
897.00,0.5229
896.00,0.5180
895.00,0.5142
894.00,0.5117
893.00,0.5106
892.00,0.5106
891.00,0.5114
890.00,0.5123
889.00,0.5124
888.00,0.5108
887.00,0.5075
886.00,0.5028
885.00,0.4974
884.00,0.4923
883.00,0.4882
882.00,0.4855
881.00,0.4838
880.00,0.4830
879.00,0.4827
878.00,0.4829
877.00,0.4832
876.00,0.4838
875.00,0.4848
874.00,0.4861
873.00,0.4876
872.00,0.4891
871.00,0.4908
870.00,0.4930
869.00,0.4958
868.00,0.4997
867.00,0.5050
866.00,0.5120
865.00,0.5205
864.00,0.5297
863.00,0.5379
862.00,0.5432
861.00,0.5434
860.00,0.5380
859.00,0.5285
858.00,0.5172
857.00,0.5064
856.00,0.4973
855.00,0.4903
854.00,0.4852
853.00,0.4816
852.00,0.4789
851.00,0.4768
850.00,0.4750
849.00,0.4733
848.00,0.4718
847.00,0.4707
846.00,0.4701
845.00,0.4698
844.00,0.4698
843.00,0.4704
842.00,0.4723
841.00,0.4765
840.00,0.4837
839.00,0.4940
838.00,0.5067
837.00,0.5192
836.00,0.5281
835.00,0.5300
834.00,0.5242
833.00,0.5128
832.00,0.4998
831.00,0.4883
830.00,0.4801
829.00,0.4753
828.00,0.4733
827.00,0.4734
826.00,0.4748
825.00,0.4771
824.00,0.4801
823.00,0.4835
822.00,0.4872
821.00,0.4908
820.00,0.4942
819.00,0.4973
818.00,0.5001
817.00,0.5024
816.00,0.5040
815.00,0.5050
814.00,0.5051
813.00,0.5039
812.00,0.5015
811.00,0.4982
810.00,0.4947
809.00,0.4915
808.00,0.4889
807.00,0.4865
806.00,0.4843
805.00,0.4820
804.00,0.4798
803.00,0.4777
802.00,0.4756
801.00,0.4737
800.00,0.4724
799.00,0.4721
798.00,0.4725
797.00,0.4734
796.00,0.4742
795.00,0.4750
794.00,0.4761
793.00,0.4774
792.00,0.4790
791.00,0.4812
790.00,0.4835
789.00,0.4857
788.00,0.4873
787.00,0.4885
786.00,0.4900
785.00,0.4927
784.00,0.4967
783.00,0.5017
782.00,0.5067
781.00,0.5110
780.00,0.5144
779.00,0.5170
778.00,0.5189
777.00,0.5206
776.00,0.5225
775.00,0.5249
774.00,0.5278
773.00,0.5309
772.00,0.5339
771.00,0.5366
770.00,0.5393
769.00,0.5420
768.00,0.5448
767.00,0.5479
766.00,0.5510
765.00,0.5541
764.00,0.5575
763.00,0.5616
762.00,0.5665
761.00,0.5720
760.00,0.5777
759.00,0.5831
758.00,0.5871
757.00,0.5892
756.00,0.5899
755.00,0.5904
754.00,0.5922
753.00,0.5957
752.00,0.6006
751.00,0.6063
750.00,0.6124
749.00,0.6189
748.00,0.6257
747.00,0.6331
746.00,0.6413
745.00,0.6503
744.00,0.6601
743.00,0.6704
742.00,0.6809
741.00,0.6911
740.00,0.7004
739.00,0.7086
738.00,0.7157
737.00,0.7219
736.00,0.7279
735.00,0.7341
734.00,0.7409
733.00,0.7483
732.00,0.7572
731.00,0.7693
730.00,0.7860
729.00,0.8081
728.00,0.8357
727.00,0.8696
726.00,0.9104
725.00,0.9573
724.00,1.0059
723.00,1.0476
722.00,1.0701
721.00,1.0624
720.00,1.0235
719.00,0.9651
718.00,0.9018
717.00,0.8434
716.00,0.7940
715.00,0.7543
714.00,0.7228
713.00,0.6973
712.00,0.6760
711.00,0.6582
710.00,0.6438
709.00,0.6325
708.00,0.6234
707.00,0.6156
706.00,0.6082
705.00,0.6009
704.00,0.5939
703.00,0.5873
702.00,0.5813
701.00,0.5755
700.00,0.5695
699.00,0.5624
698.00,0.5536
697.00,0.5433
696.00,0.5325
695.00,0.5225
694.00,0.5142
693.00,0.5076
692.00,0.5021
691.00,0.4976
690.00,0.4940
689.00,0.4908
688.00,0.4880
687.00,0.4856
686.00,0.4838
685.00,0.4824
684.00,0.4811
683.00,0.4799
682.00,0.4789
681.00,0.4784
680.00,0.4784
679.00,0.4789
678.00,0.4793
677.00,0.4793
676.00,0.4792
675.00,0.4793
674.00,0.4798
673.00,0.4806
672.00,0.4815
671.00,0.4824
670.00,0.4830
669.00,0.4832
668.00,0.4828
667.00,0.4821
666.00,0.4819
665.00,0.4823
664.00,0.4828
663.00,0.4837
662.00,0.4847
661.00,0.4857
660.00,0.4865
659.00,0.4870
658.00,0.4876
657.00,0.4884
656.00,0.4894
655.00,0.4907
654.00,0.4922
653.00,0.4937
652.00,0.4949
651.00,0.4956
650.00,0.4959
649.00,0.4960
648.00,0.4962
647.00,0.4966
646.00,0.4973
645.00,0.4980
644.00,0.4986
643.00,0.4994
642.00,0.5008
641.00,0.5025
640.00,0.5040
639.00,0.5051
638.00,0.5060
637.00,0.5067
636.00,0.5073
635.00,0.5074
634.00,0.5072
633.00,0.5069
632.00,0.5070
631.00,0.5076
630.00,0.5085
629.00,0.5096
628.00,0.5106
627.00,0.5116
626.00,0.5127
625.00,0.5137
624.00,0.5149
623.00,0.5162
622.00,0.5176
621.00,0.5190
620.00,0.5203
619.00,0.5215
618.00,0.5224
617.00,0.5228
616.00,0.5227
615.00,0.5224
614.00,0.5221
613.00,0.5218
612.00,0.5213
611.00,0.5201
610.00,0.5185
609.00,0.5168
608.00,0.5152
607.00,0.5138
606.00,0.5127
605.00,0.5117
604.00,0.5110
603.00,0.5107
602.00,0.5106
601.00,0.5105
600.00,0.5102
599.00,0.5100
598.00,0.5104
597.00,0.5114
596.00,0.5131
595.00,0.5152
594.00,0.5174
593.00,0.5195
592.00,0.5214
591.00,0.5231
590.00,0.5246
589.00,0.5262
588.00,0.5281
587.00,0.5305
586.00,0.5332
585.00,0.5359
584.00,0.5386
583.00,0.5414
582.00,0.5443
581.00,0.5471
580.00,0.5498
579.00,0.5527
578.00,0.5561
577.00,0.5593
576.00,0.5618
575.00,0.5637
574.00,0.5656
573.00,0.5679
572.00,0.5710
571.00,0.5748
570.00,0.5789
569.00,0.5828
568.00,0.5862
567.00,0.5888
566.00,0.5907
565.00,0.5923
564.00,0.5939
563.00,0.5959
562.00,0.5979
561.00,0.5995
560.00,0.6005
559.00,0.6014
558.00,0.6028
557.00,0.6046
556.00,0.6064
555.00,0.6078
554.00,0.6084
553.00,0.6083
552.00,0.6081
551.00,0.6081
550.00,0.6085
