Created as New Dataset,
cm-1,A
4000.00,0.5582
3999.00,0.5580
3998.00,0.5577
3997.00,0.5574
3996.00,0.5570
3995.00,0.5567
3994.00,0.5564
3993.00,0.5560
3992.00,0.5557
3991.00,0.5553
3990.00,0.5550
3989.00,0.5547
3988.00,0.5543
3987.00,0.5539
3986.00,0.5536
3985.00,0.5532
3984.00,0.5528
3983.00,0.5525
3982.00,0.5521
3981.00,0.5518
3980.00,0.5515
3979.00,0.5511
3978.00,0.5508
3977.00,0.5504
3976.00,0.5501
3975.00,0.5497
3974.00,0.5494
3973.00,0.5491
3972.00,0.5488
3971.00,0.5485
3970.00,0.5483
3969.00,0.5480
3968.00,0.5478
3967.00,0.5476
3966.00,0.5474
3965.00,0.5472
3964.00,0.5469
3963.00,0.5467
3962.00,0.5464
3961.00,0.5462
3960.00,0.5460
3959.00,0.5458
3958.00,0.5456
3957.00,0.5455
3956.00,0.5454
3955.00,0.5453
3954.00,0.5453
3953.00,0.5453
3952.00,0.5453
3951.00,0.5453
3950.00,0.5452
3949.00,0.5450
3948.00,0.5447
3947.00,0.5444
3946.00,0.5442
3945.00,0.5440
3944.00,0.5438
3943.00,0.5439
3942.00,0.5439
3941.00,0.5439
3940.00,0.5437
3939.00,0.5435
3938.00,0.5434
3937.00,0.5433
3936.00,0.5433
3935.00,0.5432
3934.00,0.5432
3933.00,0.5433
3932.00,0.5433
3931.00,0.5434
3930.00,0.5435
3929.00,0.5435
3928.00,0.5434
3927.00,0.5433
3926.00,0.5432
3925.00,0.5433
3924.00,0.5434
3923.00,0.5434
3922.00,0.5434
3921.00,0.5434
3920.00,0.5433
3919.00,0.5432
3918.00,0.5431
3917.00,0.5430
3916.00,0.5430
3915.00,0.5429
3914.00,0.5428
3913.00,0.5427
3912.00,0.5426
3911.00,0.5425
3910.00,0.5425
3909.00,0.5425
3908.00,0.5426
3907.00,0.5426
3906.00,0.5426
3905.00,0.5426
3904.00,0.5427
3903.00,0.5428
3902.00,0.5430
3901.00,0.5430
3900.00,0.5430
3899.00,0.5430
3898.00,0.5429
3897.00,0.5428
3896.00,0.5426
3895.00,0.5425
3894.00,0.5424
3893.00,0.5423
3892.00,0.5421
3891.00,0.5420
3890.00,0.5419
3889.00,0.5419
3888.00,0.5417
3887.00,0.5416
3886.00,0.5415
3885.00,0.5415
3884.00,0.5414
3883.00,0.5412
3882.00,0.5410
3881.00,0.5409
3880.00,0.5409
3879.00,0.5409
3878.00,0.5408
3877.00,0.5407
3876.00,0.5405
3875.00,0.5405
3874.00,0.5405
3873.00,0.5404
3872.00,0.5402
3871.00,0.5400
3870.00,0.5400
3869.00,0.5401
3868.00,0.5401
3867.00,0.5400
3866.00,0.5398
3865.00,0.5397
3864.00,0.5395
3863.00,0.5394
3862.00,0.5392
3861.00,0.5390
3860.00,0.5390
3859.00,0.5390
3858.00,0.5391
3857.00,0.5393
3856.00,0.5394
3855.00,0.5395
3854.00,0.5396
3853.00,0.5397
3852.00,0.5397
3851.00,0.5395
3850.00,0.5392
3849.00,0.5389
3848.00,0.5386
3847.00,0.5385
3846.00,0.5383
3845.00,0.5382
3844.00,0.5381
3843.00,0.5381
3842.00,0.5381
3841.00,0.5381
3840.00,0.5382
3839.00,0.5382
3838.00,0.5382
3837.00,0.5381
3836.00,0.5380
3835.00,0.5379
3834.00,0.5377
3833.00,0.5376
3832.00,0.5375
3831.00,0.5374
3830.00,0.5373
3829.00,0.5372
3828.00,0.5370
3827.00,0.5370
3826.00,0.5371
3825.00,0.5372
3824.00,0.5372
3823.00,0.5371
3822.00,0.5370
3821.00,0.5370
3820.00,0.5369
3819.00,0.5367
3818.00,0.5363
3817.00,0.5361
3816.00,0.5360
3815.00,0.5360
3814.00,0.5357
3813.00,0.5354
3812.00,0.5351
3811.00,0.5348
3810.00,0.5346
3809.00,0.5344
3808.00,0.5342
3807.00,0.5341
3806.00,0.5342
3805.00,0.5341
3804.00,0.5340
3803.00,0.5337
3802.00,0.5336
3801.00,0.5336
3800.00,0.5335
3799.00,0.5333
3798.00,0.5330
3797.00,0.5327
3796.00,0.5326
3795.00,0.5324
3794.00,0.5321
3793.00,0.5318
3792.00,0.5316
3791.00,0.5314
3790.00,0.5313
3789.00,0.5311
3788.00,0.5310
3787.00,0.5309
3786.00,0.5308
3785.00,0.5308
3784.00,0.5307
3783.00,0.5306
3782.00,0.5305
3781.00,0.5304
3780.00,0.5304
3779.00,0.5303
3778.00,0.5302
3777.00,0.5299
3776.00,0.5297
3775.00,0.5296
3774.00,0.5295
3773.00,0.5293
3772.00,0.5291
3771.00,0.5289
3770.00,0.5288
3769.00,0.5288
3768.00,0.5288
3767.00,0.5286
3766.00,0.5285
3765.00,0.5283
3764.00,0.5282
3763.00,0.5281
3762.00,0.5279
3761.00,0.5278
3760.00,0.5277
3759.00,0.5276
3758.00,0.5274
3757.00,0.5273
3756.00,0.5273
3755.00,0.5273
3754.00,0.5273
3753.00,0.5274
3752.00,0.5274
3751.00,0.5274
3750.00,0.5275
3749.00,0.5278
3748.00,0.5280
3747.00,0.5280
3746.00,0.5277
3745.00,0.5275
3744.00,0.5274
3743.00,0.5273
3742.00,0.5270
3741.00,0.5268
3740.00,0.5268
3739.00,0.5268
3738.00,0.5268
3737.00,0.5267
3736.00,0.5266
3735.00,0.5265
3734.00,0.5264
3733.00,0.5262
3732.00,0.5260
3731.00,0.5258
3730.00,0.5255
3729.00,0.5252
3728.00,0.5250
3727.00,0.5248
3726.00,0.5246
3725.00,0.5244
3724.00,0.5241
3723.00,0.5239
3722.00,0.5238
3721.00,0.5238
3720.00,0.5237
3719.00,0.5236
3718.00,0.5236
3717.00,0.5237
3716.00,0.5239
3715.00,0.5240
3714.00,0.5241
3713.00,0.5242
3712.00,0.5244
3711.00,0.5245
3710.00,0.5246
3709.00,0.5247
3708.00,0.5248
3707.00,0.5249
3706.00,0.5250
3705.00,0.5250
3704.00,0.5250
3703.00,0.5250
3702.00,0.5251
3701.00,0.5252
3700.00,0.5252
3699.00,0.5252
3698.00,0.5252
3697.00,0.5253
3696.00,0.5255
3695.00,0.5257
3694.00,0.5258
3693.00,0.5260
3692.00,0.5262
3691.00,0.5262
3690.00,0.5262
3689.00,0.5262
3688.00,0.5263
3687.00,0.5264
3686.00,0.5265
3685.00,0.5266
3684.00,0.5267
3683.00,0.5268
3682.00,0.5269
3681.00,0.5271
3680.00,0.5273
3679.00,0.5276
3678.00,0.5278
3677.00,0.5279
3676.00,0.5282
3675.00,0.5286
3674.00,0.5289
3673.00,0.5291
3672.00,0.5292
3671.00,0.5294
3670.00,0.5296
3669.00,0.5298
3668.00,0.5297
3667.00,0.5296
3666.00,0.5296
3665.00,0.5297
3664.00,0.5299
3663.00,0.5302
3662.00,0.5305
3661.00,0.5309
3660.00,0.5313
3659.00,0.5317
3658.00,0.5321
3657.00,0.5326
3656.00,0.5333
3655.00,0.5340
3654.00,0.5345
3653.00,0.5350
3652.00,0.5355
3651.00,0.5361
3650.00,0.5368
3649.00,0.5373
3648.00,0.5377
3647.00,0.5382
3646.00,0.5386
3645.00,0.5390
3644.00,0.5394
3643.00,0.5400
3642.00,0.5405
3641.00,0.5411
3640.00,0.5417
3639.00,0.5424
3638.00,0.5431
3637.00,0.5439
3636.00,0.5447
3635.00,0.5455
3634.00,0.5464
3633.00,0.5473
3632.00,0.5483
3631.00,0.5494
3630.00,0.5507
3629.00,0.5525
3628.00,0.5544
3627.00,0.5561
3626.00,0.5575
3625.00,0.5587
3624.00,0.5595
3623.00,0.5600
3622.00,0.5601
3621.00,0.5597
3620.00,0.5589
3619.00,0.5580
3618.00,0.5571
3617.00,0.5562
3616.00,0.5556
3615.00,0.5551
3614.00,0.5549
3613.00,0.5550
3612.00,0.5551
3611.00,0.5554
3610.00,0.5558
3609.00,0.5564
3608.00,0.5571
3607.00,0.5576
3606.00,0.5581
3605.00,0.5584
3604.00,0.5587
3603.00,0.5589
3602.00,0.5589
3601.00,0.5588
3600.00,0.5586
3599.00,0.5583
3598.00,0.5579
3597.00,0.5576
3596.00,0.5573
3595.00,0.5570
3594.00,0.5568
3593.00,0.5567
3592.00,0.5565
3591.00,0.5564
3590.00,0.5563
3589.00,0.5564
3588.00,0.5565
3587.00,0.5567
3586.00,0.5569
3585.00,0.5570
3584.00,0.5572
3583.00,0.5574
3582.00,0.5576
3581.00,0.5577
3580.00,0.5579
3579.00,0.5581
3578.00,0.5584
3577.00,0.5588
3576.00,0.5592
3575.00,0.5596
3574.00,0.5601
3573.00,0.5607
3572.00,0.5614
3571.00,0.5619
3570.00,0.5624
3569.00,0.5629
3568.00,0.5635
3567.00,0.5642
3566.00,0.5648
3565.00,0.5655
3564.00,0.5661
3563.00,0.5667
3562.00,0.5673
3561.00,0.5680
3560.00,0.5686
3559.00,0.5693
3558.00,0.5700
3557.00,0.5707
3556.00,0.5714
3555.00,0.5722
3554.00,0.5729
3553.00,0.5737
3552.00,0.5746
3551.00,0.5755
3550.00,0.5764
3549.00,0.5774
3548.00,0.5783
3547.00,0.5792
3546.00,0.5801
3545.00,0.5811
3544.00,0.5819
3543.00,0.5828
3542.00,0.5837
3541.00,0.5846
3540.00,0.5856
3539.00,0.5866
3538.00,0.5876
3537.00,0.5886
3536.00,0.5895
3535.00,0.5904
3534.00,0.5913
3533.00,0.5922
3532.00,0.5931
3531.00,0.5940
3530.00,0.5949
3529.00,0.5958
3528.00,0.5968
3527.00,0.5978
3526.00,0.5987
3525.00,0.5997
3524.00,0.6008
3523.00,0.6018
3522.00,0.6029
3521.00,0.6040
3520.00,0.6050
3519.00,0.6060
3518.00,0.6070
3517.00,0.6080
3516.00,0.6090
3515.00,0.6100
3514.00,0.6111
3513.00,0.6123
3512.00,0.6136
3511.00,0.6148
3510.00,0.6159
3509.00,0.6171
3508.00,0.6182
3507.00,0.6194
3506.00,0.6206
3505.00,0.6219
3504.00,0.6231
3503.00,0.6243
3502.00,0.6255
3501.00,0.6267
3500.00,0.6280
3499.00,0.6293
3498.00,0.6306
3497.00,0.6318
3496.00,0.6331
3495.00,0.6342
3494.00,0.6354
3493.00,0.6365
3492.00,0.6377
3491.00,0.6390
3490.00,0.6405
3489.00,0.6419
3488.00,0.6433
3487.00,0.6446
3486.00,0.6459
3485.00,0.6472
3484.00,0.6485
3483.00,0.6497
3482.00,0.6510
3481.00,0.6523
3480.00,0.6536
3479.00,0.6549
3478.00,0.6561
3477.00,0.6573
3476.00,0.6585
3475.00,0.6597
3474.00,0.6610
3473.00,0.6623
3472.00,0.6636
3471.00,0.6649
3470.00,0.6661
3469.00,0.6674
3468.00,0.6688
3467.00,0.6702
3466.00,0.6716
3465.00,0.6729
3464.00,0.6742
3463.00,0.6754
3462.00,0.6766
3461.00,0.6780
3460.00,0.6793
3459.00,0.6806
3458.00,0.6819
3457.00,0.6831
3456.00,0.6844
3455.00,0.6859
3454.00,0.6873
3453.00,0.6888
3452.00,0.6903
3451.00,0.6918
3450.00,0.6934
3449.00,0.6951
3448.00,0.6967
3447.00,0.6983
3446.00,0.6999
3445.00,0.7014
3444.00,0.7030
3443.00,0.7046
3442.00,0.7062
3441.00,0.7079
3440.00,0.7095
3439.00,0.7112
3438.00,0.7129
3437.00,0.7146
3436.00,0.7163
3435.00,0.7180
3434.00,0.7197
3433.00,0.7214
3432.00,0.7231
3431.00,0.7248
3430.00,0.7265
3429.00,0.7283
3428.00,0.7301
3427.00,0.7319
3426.00,0.7337
3425.00,0.7356
3424.00,0.7375
3423.00,0.7394
3422.00,0.7414
3421.00,0.7434
3420.00,0.7455
3419.00,0.7475
3418.00,0.7494
3417.00,0.7512
3416.00,0.7531
3415.00,0.7552
3414.00,0.7572
3413.00,0.7593
3412.00,0.7614
3411.00,0.7634
3410.00,0.7655
3409.00,0.7676
3408.00,0.7697
3407.00,0.7719
3406.00,0.7741
3405.00,0.7764
3404.00,0.7787
3403.00,0.7811
3402.00,0.7834
3401.00,0.7857
3400.00,0.7881
3399.00,0.7904
3398.00,0.7927
3397.00,0.7950
3396.00,0.7973
3395.00,0.7996
3394.00,0.8019
3393.00,0.8042
3392.00,0.8064
3391.00,0.8086
3390.00,0.8108
3389.00,0.8132
3388.00,0.8156
3387.00,0.8181
3386.00,0.8207
3385.00,0.8233
3384.00,0.8258
3383.00,0.8282
3382.00,0.8306
3381.00,0.8330
3380.00,0.8353
3379.00,0.8376
3378.00,0.8400
3377.00,0.8425
3376.00,0.8453
3375.00,0.8482
3374.00,0.8511
3373.00,0.8540
3372.00,0.8568
3371.00,0.8597
3370.00,0.8626
3369.00,0.8655
3368.00,0.8685
3367.00,0.8715
3366.00,0.8747
3365.00,0.8779
3364.00,0.8811
3363.00,0.8841
3362.00,0.8871
3361.00,0.8900
3360.00,0.8930
3359.00,0.8961
3358.00,0.8994
3357.00,0.9027
3356.00,0.9063
3355.00,0.9098
3354.00,0.9132
3353.00,0.9165
3352.00,0.9199
3351.00,0.9233
3350.00,0.9268
3349.00,0.9301
3348.00,0.9331
3347.00,0.9360
3346.00,0.9387
3345.00,0.9414
3344.00,0.9440
3343.00,0.9466
3342.00,0.9493
3341.00,0.9521
3340.00,0.9548
3339.00,0.9572
3338.00,0.9594
3337.00,0.9615
3336.00,0.9634
3335.00,0.9652
3334.00,0.9668
3333.00,0.9683
3332.00,0.9696
3331.00,0.9707
3330.00,0.9716
3329.00,0.9722
3328.00,0.9726
3327.00,0.9729
3326.00,0.9731
3325.00,0.9731
3324.00,0.9730
3323.00,0.9726
3322.00,0.9722
3321.00,0.9717
3320.00,0.9711
3319.00,0.9704
3318.00,0.9694
3317.00,0.9682
3316.00,0.9670
3315.00,0.9657
3314.00,0.9643
3313.00,0.9628
3312.00,0.9613
3311.00,0.9599
3310.00,0.9584
3309.00,0.9569
3308.00,0.9553
3307.00,0.9536
3306.00,0.9518
3305.00,0.9500
3304.00,0.9483
3303.00,0.9467
3302.00,0.9451
3301.00,0.9436
3300.00,0.9419
3299.00,0.9401
3298.00,0.9385
3297.00,0.9371
3296.00,0.9360
3295.00,0.9352
3294.00,0.9345
3293.00,0.9339
3292.00,0.9332
3291.00,0.9324
3290.00,0.9316
3289.00,0.9309
3288.00,0.9303
3287.00,0.9297
3286.00,0.9292
3285.00,0.9287
3284.00,0.9283
3283.00,0.9281
3282.00,0.9280
3281.00,0.9281
3280.00,0.9282
3279.00,0.9283
3278.00,0.9284
3277.00,0.9284
3276.00,0.9283
3275.00,0.9283
3274.00,0.9285
3273.00,0.9289
3272.00,0.9294
3271.00,0.9300
3270.00,0.9307
3269.00,0.9313
3268.00,0.9320
3267.00,0.9327
3266.00,0.9335
3265.00,0.9344
3264.00,0.9353
3263.00,0.9360
3262.00,0.9366
3261.00,0.9371
3260.00,0.9378
3259.00,0.9385
3258.00,0.9393
3257.00,0.9399
3256.00,0.9404
3255.00,0.9409
3254.00,0.9413
3253.00,0.9418
3252.00,0.9422
3251.00,0.9424
3250.00,0.9425
3249.00,0.9426
3248.00,0.9427
3247.00,0.9428
3246.00,0.9430
3245.00,0.9432
3244.00,0.9434
3243.00,0.9434
3242.00,0.9433
3241.00,0.9429
3240.00,0.9424
3239.00,0.9418
3238.00,0.9411
3237.00,0.9405
3236.00,0.9398
3235.00,0.9390
3234.00,0.9382
3233.00,0.9374
3232.00,0.9364
3231.00,0.9353
3230.00,0.9340
3229.00,0.9327
3228.00,0.9312
3227.00,0.9297
3226.00,0.9282
3225.00,0.9266
3224.00,0.9250
3223.00,0.9232
3222.00,0.9214
3221.00,0.9196
3220.00,0.9179
3219.00,0.9160
3218.00,0.9141
3217.00,0.9121
3216.00,0.9102
3215.00,0.9082
3214.00,0.9062
3213.00,0.9041
3212.00,0.9019
3211.00,0.8996
3210.00,0.8975
3209.00,0.8953
3208.00,0.8931
3207.00,0.8908
3206.00,0.8885
3205.00,0.8862
3204.00,0.8839
3203.00,0.8816
3202.00,0.8793
3201.00,0.8769
3200.00,0.8745
3199.00,0.8720
3198.00,0.8695
3197.00,0.8671
3196.00,0.8648
3195.00,0.8625
3194.00,0.8602
3193.00,0.8579
3192.00,0.8556
3191.00,0.8532
3190.00,0.8508
3189.00,0.8484
3188.00,0.8460
3187.00,0.8436
3186.00,0.8411
3185.00,0.8385
3184.00,0.8358
3183.00,0.8334
3182.00,0.8311
3181.00,0.8289
3180.00,0.8267
3179.00,0.8244
3178.00,0.8220
3177.00,0.8195
3176.00,0.8170
3175.00,0.8144
3174.00,0.8119
3173.00,0.8095
3172.00,0.8072
3171.00,0.8049
3170.00,0.8027
3169.00,0.8004
3168.00,0.7981
3167.00,0.7956
3166.00,0.7932
3165.00,0.7908
3164.00,0.7886
3163.00,0.7865
3162.00,0.7845
3161.00,0.7825
3160.00,0.7806
3159.00,0.7787
3158.00,0.7767
3157.00,0.7747
3156.00,0.7727
3155.00,0.7706
3154.00,0.7685
3153.00,0.7663
3152.00,0.7642
3151.00,0.7623
3150.00,0.7605
3149.00,0.7587
3148.00,0.7570
3147.00,0.7552
3146.00,0.7535
3145.00,0.7519
3144.00,0.7503
3143.00,0.7487
3142.00,0.7470
3141.00,0.7453
3140.00,0.7436
3139.00,0.7419
3138.00,0.7403
3137.00,0.7388
3136.00,0.7375
3135.00,0.7361
3134.00,0.7347
3133.00,0.7334
3132.00,0.7321
3131.00,0.7309
3130.00,0.7296
3129.00,0.7285
3128.00,0.7275
3127.00,0.7265
3126.00,0.7256
3125.00,0.7247
3124.00,0.7238
3123.00,0.7229
3122.00,0.7221
3121.00,0.7214
3120.00,0.7207
3119.00,0.7199
3118.00,0.7191
3117.00,0.7184
3116.00,0.7177
3115.00,0.7172
3114.00,0.7168
3113.00,0.7164
3112.00,0.7162
3111.00,0.7161
3110.00,0.7159
3109.00,0.7159
3108.00,0.7158
3107.00,0.7157
3106.00,0.7157
3105.00,0.7157
3104.00,0.7158
3103.00,0.7157
3102.00,0.7157
3101.00,0.7156
3100.00,0.7157
3099.00,0.7158
3098.00,0.7160
3097.00,0.7164
3096.00,0.7170
3095.00,0.7177
3094.00,0.7185
3093.00,0.7194
3092.00,0.7204
3091.00,0.7215
3090.00,0.7227
3089.00,0.7241
3088.00,0.7256
3087.00,0.7272
3086.00,0.7289
3085.00,0.7307
3084.00,0.7326
3083.00,0.7345
3082.00,0.7365
3081.00,0.7386
3080.00,0.7409
3079.00,0.7434
3078.00,0.7461
3077.00,0.7488
3076.00,0.7515
3075.00,0.7541
3074.00,0.7567
3073.00,0.7594
3072.00,0.7621
3071.00,0.7651
3070.00,0.7683
3069.00,0.7715
3068.00,0.7747
3067.00,0.7779
3066.00,0.7810
3065.00,0.7840
3064.00,0.7869
3063.00,0.7897
3062.00,0.7922
3061.00,0.7947
3060.00,0.7970
3059.00,0.7992
3058.00,0.8013
3057.00,0.8034
3056.00,0.8056
3055.00,0.8080
3054.00,0.8105
3053.00,0.8132
3052.00,0.8161
3051.00,0.8191
3050.00,0.8221
3049.00,0.8252
3048.00,0.8285
3047.00,0.8320
3046.00,0.8357
3045.00,0.8395
3044.00,0.8434
3043.00,0.8472
3042.00,0.8511
3041.00,0.8551
3040.00,0.8592
3039.00,0.8634
3038.00,0.8676
3037.00,0.8721
3036.00,0.8767
3035.00,0.8817
3034.00,0.8870
3033.00,0.8927
3032.00,0.8987
3031.00,0.9051
3030.00,0.9120
3029.00,0.9192
3028.00,0.9269
3027.00,0.9349
3026.00,0.9431
3025.00,0.9514
3024.00,0.9599
3023.00,0.9685
3022.00,0.9775
3021.00,0.9868
3020.00,0.9964
3019.00,1.0065
3018.00,1.0171
3017.00,1.0282
3016.00,1.0396
3015.00,1.0512
3014.00,1.0630
3013.00,1.0753
3012.00,1.0881
3011.00,1.1015
3010.00,1.1157
3009.00,1.1307
3008.00,1.1467
3007.00,1.1639
3006.00,1.1821
3005.00,1.2012
3004.00,1.2210
3003.00,1.2419
3002.00,1.2639
3001.00,1.2873
3000.00,1.3116
2999.00,1.3371
2998.00,1.3639
2997.00,1.3924
2996.00,1.4234
2995.00,1.4572
2994.00,1.4938
2993.00,1.5329
2992.00,1.5742
2991.00,1.6187
2990.00,1.6673
2989.00,1.7209
2988.00,1.7797
2987.00,1.8438
2986.00,1.9137
2985.00,1.9903
2984.00,2.0749
2983.00,2.1692
2982.00,2.2742
2981.00,2.3894
2980.00,2.5134
2979.00,2.6449
2978.00,2.7830
2977.00,2.9279
2976.00,3.0850
2975.00,3.2658
2974.00,3.4760
2973.00,3.6792
2972.00,3.7811
2971.00,3.7665
2970.00,3.7359
2969.00,3.7562
2968.00,3.8275
2967.00,3.9155
2966.00,3.9832
2965.00,4.0252
2964.00,4.0603
2963.00,4.0657
2962.00,4.0049
2961.00,3.8931
2960.00,3.7951
2959.00,3.7534
2958.00,3.7580
2957.00,3.7811
2956.00,3.8038
2955.00,3.7966
2954.00,3.7635
2953.00,3.7549
2952.00,3.8298
2951.00,3.9966
2950.00,4.2114
2949.00,4.3657
2948.00,4.2559
2947.00,4.0978
2946.00,4.0065
2945.00,4.0021
2944.00,4.0116
2943.00,3.9845
2942.00,3.9529
2941.00,3.9133
2940.00,3.9046
2939.00,3.9805
2938.00,4.2331
2937.00,4.6816
2936.00,4.7010
2935.00,4.5006
2934.00,4.5545
2933.00,4.7300
2932.00,4.2725
2931.00,4.0435
2930.00,4.0167
2929.00,4.1501
2928.00,4.3776
2927.00,4.3579
2926.00,4.2485
2925.00,4.2457
2924.00,4.2807
2923.00,4.2153
2922.00,4.1259
2921.00,4.1989
2920.00,4.1941
2919.00,3.9508
2918.00,3.7742
2917.00,3.7295
2916.00,3.7827
2915.00,3.8761
2914.00,3.9319
2913.00,3.8997
2912.00,3.8345
2911.00,3.8103
2910.00,3.8451
2909.00,3.9671
2908.00,4.2575
2907.00,4.5772
2906.00,4.3841
2905.00,4.1730
2904.00,4.0839
2903.00,4.1916
2902.00,4.4324
2901.00,4.3590
2900.00,4.1901
2899.00,4.1195
2898.00,4.1995
2897.00,4.2244
2896.00,4.1872
2895.00,4.3984
2894.00,4.7733
2893.00,4.3134
2892.00,4.0259
2891.00,3.9226
2890.00,4.0158
2889.00,4.1072
2888.00,3.9891
2887.00,3.8959
2886.00,3.9062
2885.00,4.1659
2884.00,4.6943
2883.00,4.3861
2882.00,4.1205
2881.00,3.9523
2880.00,3.8942
2879.00,3.8772
2878.00,3.9667
2877.00,4.0542
2876.00,3.9571
2875.00,3.9039
2874.00,4.0030
2873.00,4.1670
2872.00,4.1511
2871.00,4.1159
2870.00,4.1915
2869.00,4.2648
2868.00,4.2094
2867.00,4.1294
2866.00,4.0948
2865.00,4.1500
2864.00,4.3468
2863.00,4.6050
2862.00,4.7853
2861.00,4.3600
2860.00,3.9472
2859.00,3.7217
2858.00,3.6556
2857.00,3.7261
2856.00,3.8254
2855.00,3.9007
2854.00,3.9485
2853.00,4.0170
2852.00,4.1784
2851.00,4.2445
2850.00,4.0884
2849.00,3.9233
2848.00,3.8841
2847.00,3.9550
2846.00,4.0801
2845.00,4.2009
2844.00,4.1539
2843.00,4.0195
2842.00,3.9224
2841.00,3.8410
2840.00,3.7240
2839.00,3.6100
2838.00,3.5224
2837.00,3.3909
2836.00,3.1911
2835.00,2.9801
2834.00,2.7924
2833.00,2.6284
2832.00,2.4822
2831.00,2.3502
2830.00,2.2304
2829.00,2.1221
2828.00,2.0256
2827.00,1.9403
2826.00,1.8644
2825.00,1.7957
2824.00,1.7329
2823.00,1.6753
2822.00,1.6226
2821.00,1.5746
2820.00,1.5310
2819.00,1.4914
2818.00,1.4547
2817.00,1.4200
2816.00,1.3871
2815.00,1.3560
2814.00,1.3271
2813.00,1.3001
2812.00,1.2745
2811.00,1.2501
2810.00,1.2268
2809.00,1.2046
2808.00,1.1835
2807.00,1.1633
2806.00,1.1441
2805.00,1.1257
2804.00,1.1082
2803.00,1.0916
2802.00,1.0757
2801.00,1.0607
2800.00,1.0464
2799.00,1.0327
2798.00,1.0196
2797.00,1.0067
2796.00,0.9942
2795.00,0.9821
2794.00,0.9705
2793.00,0.9595
2792.00,0.9490
2791.00,0.9389
2790.00,0.9290
2789.00,0.9193
2788.00,0.9097
2787.00,0.9004
2786.00,0.8913
2785.00,0.8824
2784.00,0.8737
2783.00,0.8652
2782.00,0.8569
2781.00,0.8490
2780.00,0.8415
2779.00,0.8344
2778.00,0.8276
2777.00,0.8211
2776.00,0.8150
2775.00,0.8091
2774.00,0.8036
2773.00,0.7984
2772.00,0.7935
2771.00,0.7889
2770.00,0.7847
2769.00,0.7809
2768.00,0.7776
2767.00,0.7746
2766.00,0.7717
2765.00,0.7691
2764.00,0.7668
2763.00,0.7647
2762.00,0.7630
2761.00,0.7615
2760.00,0.7600
2759.00,0.7586
2758.00,0.7572
2757.00,0.7560
2756.00,0.7549
2755.00,0.7540
2754.00,0.7532
2753.00,0.7526
2752.00,0.7520
2751.00,0.7516
2750.00,0.7514
2749.00,0.7515
2748.00,0.7518
2747.00,0.7523
2746.00,0.7530
2745.00,0.7539
2744.00,0.7550
2743.00,0.7564
2742.00,0.7580
2741.00,0.7598
2740.00,0.7620
2739.00,0.7647
2738.00,0.7679
2737.00,0.7715
2736.00,0.7755
2735.00,0.7798
2734.00,0.7842
2733.00,0.7885
2732.00,0.7923
2731.00,0.7953
2730.00,0.7974
2729.00,0.7984
2728.00,0.7984
2727.00,0.7975
2726.00,0.7960
2725.00,0.7940
2724.00,0.7918
2723.00,0.7894
2722.00,0.7869
2721.00,0.7841
2720.00,0.7812
2719.00,0.7781
2718.00,0.7747
2717.00,0.7711
2716.00,0.7673
2715.00,0.7633
2714.00,0.7591
2713.00,0.7550
2712.00,0.7512
2711.00,0.7477
2710.00,0.7446
2709.00,0.7419
2708.00,0.7395
2707.00,0.7374
2706.00,0.7356
2705.00,0.7341
2704.00,0.7329
2703.00,0.7320
2702.00,0.7314
2701.00,0.7311
2700.00,0.7309
2699.00,0.7309
2698.00,0.7311
2697.00,0.7316
2696.00,0.7323
2695.00,0.7331
2694.00,0.7340
2693.00,0.7349
2692.00,0.7358
2691.00,0.7367
2690.00,0.7376
2689.00,0.7386
2688.00,0.7394
2687.00,0.7400
2686.00,0.7403
2685.00,0.7405
2684.00,0.7408
2683.00,0.7411
2682.00,0.7413
2681.00,0.7415
2680.00,0.7415
2679.00,0.7416
2678.00,0.7418
2677.00,0.7420
2676.00,0.7422
2675.00,0.7423
2674.00,0.7422
2673.00,0.7422
2672.00,0.7420
2671.00,0.7418
2670.00,0.7413
2669.00,0.7405
2668.00,0.7394
2667.00,0.7380
2666.00,0.7363
2665.00,0.7345
2664.00,0.7326
2663.00,0.7307
2662.00,0.7287
2661.00,0.7267
2660.00,0.7247
2659.00,0.7226
2658.00,0.7206
2657.00,0.7186
2656.00,0.7166
2655.00,0.7148
2654.00,0.7130
2653.00,0.7114
2652.00,0.7098
2651.00,0.7081
2650.00,0.7064
2649.00,0.7047
2648.00,0.7032
2647.00,0.7017
2646.00,0.7002
2645.00,0.6987
2644.00,0.6973
2643.00,0.6960
2642.00,0.6948
2641.00,0.6937
2640.00,0.6927
2639.00,0.6917
2638.00,0.6907
2637.00,0.6896
2636.00,0.6886
2635.00,0.6876
2634.00,0.6865
2633.00,0.6855
2632.00,0.6845
2631.00,0.6835
2630.00,0.6824
2629.00,0.6814
2628.00,0.6804
2627.00,0.6793
2626.00,0.6782
2625.00,0.6771
2624.00,0.6761
2623.00,0.6751
2622.00,0.6740
2621.00,0.6730
2620.00,0.6719
2619.00,0.6709
2618.00,0.6699
2617.00,0.6689
2616.00,0.6680
2615.00,0.6670
2614.00,0.6660
2613.00,0.6649
2612.00,0.6639
2611.00,0.6628
2610.00,0.6618
2609.00,0.6607
2608.00,0.6598
2607.00,0.6588
2606.00,0.6579
2605.00,0.6569
2604.00,0.6560
2603.00,0.6550
2602.00,0.6540
2601.00,0.6530
2600.00,0.6518
2599.00,0.6506
2598.00,0.6493
2597.00,0.6479
2596.00,0.6464
2595.00,0.6448
2594.00,0.6431
2593.00,0.6414
2592.00,0.6396
2591.00,0.6379
2590.00,0.6363
2589.00,0.6347
2588.00,0.6330
2587.00,0.6313
2586.00,0.6296
2585.00,0.6280
2584.00,0.6262
2583.00,0.6245
2582.00,0.6228
2581.00,0.6210
2580.00,0.6193
2579.00,0.6175
2578.00,0.6158
2577.00,0.6140
2576.00,0.6123
2575.00,0.6106
2574.00,0.6090
2573.00,0.6076
2572.00,0.6062
2571.00,0.6049
2570.00,0.6036
2569.00,0.6023
2568.00,0.6010
2567.00,0.5997
2566.00,0.5984
2565.00,0.5971
2564.00,0.5957
2563.00,0.5944
2562.00,0.5930
2561.00,0.5917
2560.00,0.5904
2559.00,0.5891
2558.00,0.5879
2557.00,0.5866
2556.00,0.5853
2555.00,0.5841
2554.00,0.5829
2553.00,0.5817
2552.00,0.5806
2551.00,0.5796
2550.00,0.5786
2549.00,0.5776
2548.00,0.5767
2547.00,0.5759
2546.00,0.5750
2545.00,0.5742
2544.00,0.5734
2543.00,0.5726
2542.00,0.5718
2541.00,0.5710
2540.00,0.5704
2539.00,0.5698
2538.00,0.5692
2537.00,0.5687
2536.00,0.5681
2535.00,0.5676
2534.00,0.5671
2533.00,0.5666
2532.00,0.5660
2531.00,0.5653
2530.00,0.5645
2529.00,0.5635
2528.00,0.5625
2527.00,0.5614
2526.00,0.5603
2525.00,0.5592
2524.00,0.5581
2523.00,0.5571
2522.00,0.5560
2521.00,0.5549
2520.00,0.5539
2519.00,0.5529
2518.00,0.5519
2517.00,0.5510
2516.00,0.5500
2515.00,0.5491
2514.00,0.5483
2513.00,0.5475
2512.00,0.5467
2511.00,0.5460
2510.00,0.5453
2509.00,0.5448
2508.00,0.5442
2507.00,0.5437
2506.00,0.5432
2505.00,0.5428
2504.00,0.5425
2503.00,0.5421
2502.00,0.5418
2501.00,0.5415
2500.00,0.5412
2499.00,0.5409
2498.00,0.5407
2497.00,0.5404
2496.00,0.5401
2495.00,0.5398
2494.00,0.5395
2493.00,0.5391
2492.00,0.5387
2491.00,0.5384
2490.00,0.5379
2489.00,0.5375
2488.00,0.5370
2487.00,0.5364
2486.00,0.5358
2485.00,0.5353
2484.00,0.5348
2483.00,0.5343
2482.00,0.5339
2481.00,0.5335
2480.00,0.5331
2479.00,0.5326
2478.00,0.5321
2477.00,0.5316
2476.00,0.5312
2475.00,0.5308
2474.00,0.5305
2473.00,0.5301
2472.00,0.5298
2471.00,0.5295
2470.00,0.5293
2469.00,0.5290
2468.00,0.5288
2467.00,0.5286
2466.00,0.5283
2465.00,0.5280
2464.00,0.5278
2463.00,0.5275
2462.00,0.5272
2461.00,0.5269
2460.00,0.5267
2459.00,0.5264
2458.00,0.5261
2457.00,0.5258
2456.00,0.5256
2455.00,0.5254
2454.00,0.5252
2453.00,0.5251
2452.00,0.5250
2451.00,0.5249
2450.00,0.5247
2449.00,0.5244
2448.00,0.5243
2447.00,0.5243
2446.00,0.5243
2445.00,0.5244
2444.00,0.5245
2443.00,0.5245
2442.00,0.5246
2441.00,0.5246
2440.00,0.5247
2439.00,0.5247
2438.00,0.5248
2437.00,0.5249
2436.00,0.5249
2435.00,0.5250
2434.00,0.5250
2433.00,0.5251
2432.00,0.5252
2431.00,0.5253
2430.00,0.5255
2429.00,0.5256
2428.00,0.5257
2427.00,0.5258
2426.00,0.5259
2425.00,0.5260
2424.00,0.5261
2423.00,0.5262
2422.00,0.5263
2421.00,0.5264
2420.00,0.5265
2419.00,0.5265
2418.00,0.5266
2417.00,0.5266
2416.00,0.5267
2415.00,0.5267
2414.00,0.5267
2413.00,0.5267
2412.00,0.5266
2411.00,0.5265
2410.00,0.5264
2409.00,0.5263
2408.00,0.5262
2407.00,0.5262
2406.00,0.5263
2405.00,0.5263
2404.00,0.5263
2403.00,0.5263
2402.00,0.5263
2401.00,0.5262
2400.00,0.5262
2399.00,0.5261
2398.00,0.5261
2397.00,0.5261
2396.00,0.5261
2395.00,0.5261
2394.00,0.5260
2393.00,0.5259
2392.00,0.5259
2391.00,0.5260
2390.00,0.5261
2389.00,0.5262
2388.00,0.5264
2387.00,0.5265
2386.00,0.5266
2385.00,0.5267
2384.00,0.5269
2383.00,0.5270
2382.00,0.5272
2381.00,0.5273
2380.00,0.5274
2379.00,0.5275
2378.00,0.5276
2377.00,0.5277
2376.00,0.5277
2375.00,0.5275
2374.00,0.5274
2373.00,0.5272
2372.00,0.5273
2371.00,0.5273
2370.00,0.5274
2369.00,0.5275
2368.00,0.5275
2367.00,0.5274
2366.00,0.5273
2365.00,0.5272
2364.00,0.5272
2363.00,0.5273
2362.00,0.5273
2361.00,0.5274
2360.00,0.5274
2359.00,0.5274
2358.00,0.5273
2357.00,0.5273
2356.00,0.5273
2355.00,0.5272
2354.00,0.5271
2353.00,0.5272
2352.00,0.5272
2351.00,0.5273
2350.00,0.5272
2349.00,0.5271
2348.00,0.5270
2347.00,0.5269
2346.00,0.5268
2345.00,0.5266
2344.00,0.5265
2343.00,0.5264
2342.00,0.5263
2341.00,0.5263
2340.00,0.5262
2339.00,0.5262
2338.00,0.5262
2337.00,0.5261
2336.00,0.5261
2335.00,0.5260
2334.00,0.5259
2333.00,0.5257
2332.00,0.5256
2331.00,0.5254
2330.00,0.5252
2329.00,0.5249
2328.00,0.5246
2327.00,0.5243
2326.00,0.5240
2325.00,0.5238
2324.00,0.5236
2323.00,0.5234
2322.00,0.5231
2321.00,0.5228
2320.00,0.5225
2319.00,0.5222
2318.00,0.5219
2317.00,0.5217
2316.00,0.5214
2315.00,0.5212
2314.00,0.5209
2313.00,0.5207
2312.00,0.5204
2311.00,0.5200
2310.00,0.5197
2309.00,0.5194
2308.00,0.5191
2307.00,0.5188
2306.00,0.5185
2305.00,0.5183
2304.00,0.5179
2303.00,0.5176
2302.00,0.5172
2301.00,0.5169
2300.00,0.5166
2299.00,0.5164
2298.00,0.5160
2297.00,0.5157
2296.00,0.5154
2295.00,0.5151
2294.00,0.5148
2293.00,0.5144
2292.00,0.5140
2291.00,0.5136
2290.00,0.5132
2289.00,0.5129
2288.00,0.5126
2287.00,0.5123
2286.00,0.5120
2285.00,0.5117
2284.00,0.5114
2283.00,0.5111
2282.00,0.5108
2281.00,0.5105
2280.00,0.5102
2279.00,0.5099
2278.00,0.5096
2277.00,0.5094
2276.00,0.5091
2275.00,0.5089
2274.00,0.5086
2273.00,0.5085
2272.00,0.5083
2271.00,0.5082
2270.00,0.5081
2269.00,0.5080
2268.00,0.5080
2267.00,0.5079
2266.00,0.5078
2265.00,0.5076
2264.00,0.5075
2263.00,0.5072
2262.00,0.5070
2261.00,0.5067
2260.00,0.5064
2259.00,0.5061
2258.00,0.5059
2257.00,0.5056
2256.00,0.5053
2255.00,0.5049
2254.00,0.5046
2253.00,0.5043
2252.00,0.5041
2251.00,0.5038
2250.00,0.5034
2249.00,0.5030
2248.00,0.5026
2247.00,0.5023
2246.00,0.5021
2245.00,0.5019
2244.00,0.5017
2243.00,0.5014
2242.00,0.5012
2241.00,0.5010
2240.00,0.5009
2239.00,0.5007
2238.00,0.5006
2237.00,0.5005
2236.00,0.5005
2235.00,0.5004
2234.00,0.5003
2233.00,0.5002
2232.00,0.5001
2231.00,0.5000
2230.00,0.5001
2229.00,0.5001
2228.00,0.5001
2227.00,0.5000
2226.00,0.4999
2225.00,0.4997
2224.00,0.4996
2223.00,0.4995
2222.00,0.4994
2221.00,0.4993
2220.00,0.4992
2219.00,0.4991
2218.00,0.4989
2217.00,0.4988
2216.00,0.4987
2215.00,0.4987
2214.00,0.4986
2213.00,0.4984
2212.00,0.4983
2211.00,0.4982
2210.00,0.4981
2209.00,0.4981
2208.00,0.4981
2207.00,0.4981
2206.00,0.4980
2205.00,0.4980
2204.00,0.4980
2203.00,0.4979
2202.00,0.4979
2201.00,0.4980
2200.00,0.4980
2199.00,0.4981
2198.00,0.4982
2197.00,0.4983
2196.00,0.4984
2195.00,0.4984
2194.00,0.4985
2193.00,0.4986
2192.00,0.4988
2191.00,0.4989
2190.00,0.4990
2189.00,0.4989
2188.00,0.4989
2187.00,0.4989
2186.00,0.4988
2185.00,0.4988
2184.00,0.4988
2183.00,0.4988
2182.00,0.4987
2181.00,0.4986
2180.00,0.4985
2179.00,0.4984
2178.00,0.4982
2177.00,0.4981
2176.00,0.4980
2175.00,0.4978
2174.00,0.4977
2173.00,0.4975
2172.00,0.4974
2171.00,0.4972
2170.00,0.4971
2169.00,0.4971
2168.00,0.4970
2167.00,0.4969
2166.00,0.4968
2165.00,0.4967
2164.00,0.4966
2163.00,0.4966
2162.00,0.4965
2161.00,0.4965
2160.00,0.4964
2159.00,0.4964
2158.00,0.4964
2157.00,0.4963
2156.00,0.4963
2155.00,0.4962
2154.00,0.4962
2153.00,0.4961
2152.00,0.4960
2151.00,0.4959
2150.00,0.4958
2149.00,0.4957
2148.00,0.4955
2147.00,0.4951
2146.00,0.4947
2145.00,0.4942
2144.00,0.4937
2143.00,0.4932
2142.00,0.4926
2141.00,0.4921
2140.00,0.4917
2139.00,0.4912
2138.00,0.4908
2137.00,0.4904
2136.00,0.4900
2135.00,0.4895
2134.00,0.4892
2133.00,0.4889
2132.00,0.4887
2131.00,0.4885
2130.00,0.4883
2129.00,0.4881
2128.00,0.4878
2127.00,0.4876
2126.00,0.4875
2125.00,0.4874
2124.00,0.4874
2123.00,0.4873
2122.00,0.4872
2121.00,0.4871
2120.00,0.4871
2119.00,0.4871
2118.00,0.4871
2117.00,0.4871
2116.00,0.4871
2115.00,0.4870
2114.00,0.4869
2113.00,0.4869
2112.00,0.4869
2111.00,0.4868
2110.00,0.4867
2109.00,0.4866
2108.00,0.4866
2107.00,0.4865
2106.00,0.4864
2105.00,0.4863
2104.00,0.4862
2103.00,0.4860
2102.00,0.4858
2101.00,0.4857
2100.00,0.4856
2099.00,0.4854
2098.00,0.4853
2097.00,0.4851
2096.00,0.4850
2095.00,0.4849
2094.00,0.4848
2093.00,0.4848
2092.00,0.4849
2091.00,0.4850
2090.00,0.4850
2089.00,0.4849
2088.00,0.4848
2087.00,0.4848
2086.00,0.4848
2085.00,0.4848
2084.00,0.4849
2083.00,0.4850
2082.00,0.4850
2081.00,0.4851
2080.00,0.4852
2079.00,0.4853
2078.00,0.4854
2077.00,0.4855
2076.00,0.4856
2075.00,0.4857
2074.00,0.4857
2073.00,0.4858
2072.00,0.4858
2071.00,0.4858
2070.00,0.4859
2069.00,0.4859
2068.00,0.4860
2067.00,0.4862
2066.00,0.4864
2065.00,0.4866
2064.00,0.4867
2063.00,0.4867
2062.00,0.4867
2061.00,0.4868
2060.00,0.4868
2059.00,0.4869
2058.00,0.4870
2057.00,0.4871
2056.00,0.4872
2055.00,0.4873
2054.00,0.4873
2053.00,0.4875
2052.00,0.4877
2051.00,0.4879
2050.00,0.4881
2049.00,0.4883
2048.00,0.4885
2047.00,0.4888
2046.00,0.4890
2045.00,0.4893
2044.00,0.4895
2043.00,0.4898
2042.00,0.4901
2041.00,0.4904
2040.00,0.4905
2039.00,0.4906
2038.00,0.4905
2037.00,0.4906
2036.00,0.4908
2035.00,0.4910
2034.00,0.4911
2033.00,0.4912
2032.00,0.4913
2031.00,0.4913
2030.00,0.4913
2029.00,0.4913
2028.00,0.4914
2027.00,0.4914
2026.00,0.4914
2025.00,0.4913
2024.00,0.4912
2023.00,0.4909
2022.00,0.4906
2021.00,0.4903
2020.00,0.4900
2019.00,0.4896
2018.00,0.4892
2017.00,0.4886
2016.00,0.4878
2015.00,0.4869
2014.00,0.4860
2013.00,0.4852
2012.00,0.4844
2011.00,0.4838
2010.00,0.4833
2009.00,0.4829
2008.00,0.4825
2007.00,0.4821
2006.00,0.4817
2005.00,0.4814
2004.00,0.4811
2003.00,0.4809
2002.00,0.4807
2001.00,0.4805
2000.00,0.4803
1999.00,0.4802
1998.00,0.4801
1997.00,0.4800
1996.00,0.4799
1995.00,0.4799
1994.00,0.4800
1993.00,0.4801
1992.00,0.4803
1991.00,0.4802
1990.00,0.4800
1989.00,0.4797
1988.00,0.4794
1987.00,0.4791
1986.00,0.4788
1985.00,0.4786
1984.00,0.4783
1983.00,0.4781
1982.00,0.4780
1981.00,0.4779
1980.00,0.4778
1979.00,0.4778
1978.00,0.4777
1977.00,0.4777
1976.00,0.4777
1975.00,0.4776
1974.00,0.4774
1973.00,0.4774
1972.00,0.4775
1971.00,0.4776
1970.00,0.4777
1969.00,0.4779
1968.00,0.4780
1967.00,0.4782
1966.00,0.4783
1965.00,0.4783
1964.00,0.4783
1963.00,0.4783
1962.00,0.4782
1961.00,0.4783
1960.00,0.4784
1959.00,0.4785
1958.00,0.4786
1957.00,0.4787
1956.00,0.4789
1955.00,0.4791
1954.00,0.4793
1953.00,0.4794
1952.00,0.4794
1951.00,0.4794
1950.00,0.4794
1949.00,0.4794
1948.00,0.4795
1947.00,0.4797
1946.00,0.4798
1945.00,0.4802
1944.00,0.4806
1943.00,0.4812
1942.00,0.4816
1941.00,0.4817
1940.00,0.4817
1939.00,0.4816
1938.00,0.4814
1937.00,0.4813
1936.00,0.4813
1935.00,0.4811
1934.00,0.4810
1933.00,0.4808
1932.00,0.4808
1931.00,0.4807
1930.00,0.4808
1929.00,0.4809
1928.00,0.4811
1927.00,0.4812
1926.00,0.4814
1925.00,0.4818
1924.00,0.4823
1923.00,0.4828
1922.00,0.4832
1921.00,0.4835
1920.00,0.4837
1919.00,0.4840
1918.00,0.4843
1917.00,0.4847
1916.00,0.4849
1915.00,0.4850
1914.00,0.4849
1913.00,0.4848
1912.00,0.4847
1911.00,0.4848
1910.00,0.4849
1909.00,0.4850
1908.00,0.4851
1907.00,0.4850
1906.00,0.4848
1905.00,0.4845
1904.00,0.4844
1903.00,0.4842
1902.00,0.4842
1901.00,0.4841
1900.00,0.4841
1899.00,0.4840
1898.00,0.4840
1897.00,0.4841
1896.00,0.4842
1895.00,0.4843
1894.00,0.4844
1893.00,0.4845
1892.00,0.4845
1891.00,0.4847
1890.00,0.4848
1889.00,0.4850
1888.00,0.4851
1887.00,0.4851
1886.00,0.4851
1885.00,0.4851
1884.00,0.4851
1883.00,0.4851
1882.00,0.4850
1881.00,0.4850
1880.00,0.4851
1879.00,0.4851
1878.00,0.4850
1877.00,0.4848
1876.00,0.4848
1875.00,0.4847
1874.00,0.4846
1873.00,0.4846
1872.00,0.4846
1871.00,0.4847
1870.00,0.4849
1869.00,0.4850
1868.00,0.4850
1867.00,0.4848
1866.00,0.4845
1865.00,0.4842
1864.00,0.4839
1863.00,0.4836
1862.00,0.4833
1861.00,0.4831
1860.00,0.4830
1859.00,0.4827
1858.00,0.4825
1857.00,0.4822
1856.00,0.4820
1855.00,0.4818
1854.00,0.4816
1853.00,0.4814
1852.00,0.4813
1851.00,0.4813
1850.00,0.4814
1849.00,0.4816
1848.00,0.4819
1847.00,0.4821
1846.00,0.4822
1845.00,0.4822
1844.00,0.4822
1843.00,0.4822
1842.00,0.4821
1841.00,0.4819
1840.00,0.4816
1839.00,0.4814
1838.00,0.4814
1837.00,0.4814
1836.00,0.4815
1835.00,0.4815
1834.00,0.4815
1833.00,0.4815
1832.00,0.4814
1831.00,0.4813
1830.00,0.4813
1829.00,0.4813
1828.00,0.4816
1827.00,0.4818
1826.00,0.4821
1825.00,0.4823
1824.00,0.4824
1823.00,0.4822
1822.00,0.4820
1821.00,0.4818
1820.00,0.4818
1819.00,0.4820
1818.00,0.4823
1817.00,0.4825
1816.00,0.4827
1815.00,0.4828
1814.00,0.4828
1813.00,0.4830
1812.00,0.4834
1811.00,0.4837
1810.00,0.4841
1809.00,0.4845
1808.00,0.4849
1807.00,0.4852
1806.00,0.4855
1805.00,0.4859
1804.00,0.4867
1803.00,0.4877
1802.00,0.4886
1801.00,0.4893
1800.00,0.4897
1799.00,0.4901
1798.00,0.4907
1797.00,0.4915
1796.00,0.4924
1795.00,0.4932
1794.00,0.4938
1793.00,0.4945
1792.00,0.4954
1791.00,0.4964
1790.00,0.4971
1789.00,0.4976
1788.00,0.4980
1787.00,0.4987
1786.00,0.4996
1785.00,0.5007
1784.00,0.5018
1783.00,0.5026
1782.00,0.5033
1781.00,0.5041
1780.00,0.5051
1779.00,0.5061
1778.00,0.5070
1777.00,0.5080
1776.00,0.5091
1775.00,0.5103
1774.00,0.5115
1773.00,0.5127
1772.00,0.5141
1771.00,0.5161
1770.00,0.5185
1769.00,0.5211
1768.00,0.5239
1767.00,0.5266
1766.00,0.5292
1765.00,0.5323
1764.00,0.5364
1763.00,0.5416
1762.00,0.5482
1761.00,0.5560
1760.00,0.5647
1759.00,0.5744
1758.00,0.5856
1757.00,0.5989
1756.00,0.6140
1755.00,0.6298
1754.00,0.6463
1753.00,0.6642
1752.00,0.6839
1751.00,0.7039
1750.00,0.7222
1749.00,0.7372
1748.00,0.7483
1747.00,0.7554
1746.00,0.7587
1745.00,0.7583
1744.00,0.7543
1743.00,0.7472
1742.00,0.7379
1741.00,0.7270
1740.00,0.7153
1739.00,0.7039
1738.00,0.6943
1737.00,0.6865
1736.00,0.6794
1735.00,0.6720
1734.00,0.6647
1733.00,0.6585
1732.00,0.6533
1731.00,0.6480
1730.00,0.6424
1729.00,0.6368
1728.00,0.6313
1727.00,0.6263
1726.00,0.6221
1725.00,0.6186
1724.00,0.6157
1723.00,0.6133
1722.00,0.6114
1721.00,0.6101
1720.00,0.6094
1719.00,0.6089
1718.00,0.6089
1717.00,0.6092
1716.00,0.6097
1715.00,0.6099
1714.00,0.6100
1713.00,0.6104
1712.00,0.6110
1711.00,0.6117
1710.00,0.6125
1709.00,0.6135
1708.00,0.6145
1707.00,0.6153
1706.00,0.6157
1705.00,0.6156
1704.00,0.6149
1703.00,0.6133
1702.00,0.6105
1701.00,0.6060
1700.00,0.6006
1699.00,0.5963
1698.00,0.5933
1697.00,0.5906
1696.00,0.5875
1695.00,0.5845
1694.00,0.5822
1693.00,0.5806
1692.00,0.5796
1691.00,0.5791
1690.00,0.5792
1689.00,0.5797
1688.00,0.5804
1687.00,0.5810
1686.00,0.5816
1685.00,0.5821
1684.00,0.5827
1683.00,0.5835
1682.00,0.5842
1681.00,0.5848
1680.00,0.5852
1679.00,0.5855
1678.00,0.5860
1677.00,0.5867
1676.00,0.5877
1675.00,0.5889
1674.00,0.5903
1673.00,0.5917
1672.00,0.5931
1671.00,0.5942
1670.00,0.5954
1669.00,0.5969
1668.00,0.5987
1667.00,0.6002
1666.00,0.6014
1665.00,0.6026
1664.00,0.6038
1663.00,0.6051
1662.00,0.6066
1661.00,0.6082
1660.00,0.6099
1659.00,0.6115
1658.00,0.6130
1657.00,0.6149
1656.00,0.6170
1655.00,0.6192
1654.00,0.6212
1653.00,0.6235
1652.00,0.6263
1651.00,0.6289
1650.00,0.6305
1649.00,0.6319
1648.00,0.6340
1647.00,0.6365
1646.00,0.6395
1645.00,0.6427
1644.00,0.6458
1643.00,0.6487
1642.00,0.6515
1641.00,0.6548
1640.00,0.6582
1639.00,0.6616
1638.00,0.6651
1637.00,0.6692
1636.00,0.6739
1635.00,0.6789
1634.00,0.6840
1633.00,0.6886
1632.00,0.6928
1631.00,0.6966
1630.00,0.7003
1629.00,0.7042
1628.00,0.7084
1627.00,0.7123
1626.00,0.7160
1625.00,0.7197
1624.00,0.7235
1623.00,0.7274
1622.00,0.7315
1621.00,0.7361
1620.00,0.7409
1619.00,0.7459
1618.00,0.7518
1617.00,0.7593
1616.00,0.7682
1615.00,0.7772
1614.00,0.7858
1613.00,0.7945
1612.00,0.8041
1611.00,0.8142
1610.00,0.8249
1609.00,0.8361
1608.00,0.8477
1607.00,0.8588
1606.00,0.8695
1605.00,0.8803
1604.00,0.8916
1603.00,0.9030
1602.00,0.9148
1601.00,0.9280
1600.00,0.9433
1599.00,0.9607
1598.00,0.9807
1597.00,1.0047
1596.00,1.0342
1595.00,1.0700
1594.00,1.1135
1593.00,1.1680
1592.00,1.2366
1591.00,1.3216
1590.00,1.4263
1589.00,1.5572
1588.00,1.7226
1587.00,1.9270
1586.00,2.1716
1585.00,2.4666
1584.00,2.8506
1583.00,3.3503
1582.00,3.7505
1581.00,3.9569
1580.00,4.0213
1579.00,4.0463
1578.00,3.4827
1577.00,2.9449
1576.00,2.6015
1575.00,2.3265
1574.00,2.1123
1573.00,1.9546
1572.00,1.8337
1571.00,1.7354
1570.00,1.6595
1569.00,1.6145
1568.00,1.6032
1567.00,1.6220
1566.00,1.6702
1565.00,1.7542
1564.00,1.8773
1563.00,2.0289
1562.00,2.1883
1561.00,2.3380
1560.00,2.4146
1559.00,2.2812
1558.00,2.0373
1557.00,1.8249
1556.00,1.6462
1555.00,1.4831
1554.00,1.3405
1553.00,1.2269
1552.00,1.1397
1551.00,1.0695
1550.00,1.0105
1549.00,0.9625
1548.00,0.9252
1547.00,0.8958
1546.00,0.8715
1545.00,0.8513
1544.00,0.8348
1543.00,0.8205
1542.00,0.8073
1541.00,0.7946
1540.00,0.7823
1539.00,0.7707
1538.00,0.7608
1537.00,0.7525
1536.00,0.7452
1535.00,0.7381
1534.00,0.7315
1533.00,0.7270
1532.00,0.7251
1531.00,0.7251
1530.00,0.7259
1529.00,0.7270
1528.00,0.7278
1527.00,0.7270
1526.00,0.7239
1525.00,0.7195
1524.00,0.7149
1523.00,0.7108
1522.00,0.7076
1521.00,0.7059
1520.00,0.7058
1519.00,0.7065
1518.00,0.7079
1517.00,0.7105
1516.00,0.7136
1515.00,0.7163
1514.00,0.7184
1513.00,0.7205
1512.00,0.7230
1511.00,0.7259
1510.00,0.7293
1509.00,0.7338
1508.00,0.7395
1507.00,0.7461
1506.00,0.7531
1505.00,0.7605
1504.00,0.7679
1503.00,0.7746
1502.00,0.7814
1501.00,0.7887
1500.00,0.7967
1499.00,0.8050
1498.00,0.8145
1497.00,0.8262
1496.00,0.8400
1495.00,0.8541
1494.00,0.8682
1493.00,0.8832
1492.00,0.9004
1491.00,0.9199
1490.00,0.9414
1489.00,0.9641
1488.00,0.9871
1487.00,1.0105
1486.00,1.0360
1485.00,1.0648
1484.00,1.0975
1483.00,1.1347
1482.00,1.1781
1481.00,1.2293
1480.00,1.2876
1479.00,1.3528
1478.00,1.4284
1477.00,1.5188
1476.00,1.6258
1475.00,1.7505
1474.00,1.9026
1473.00,2.1013
1472.00,2.3590
1471.00,2.6649
1470.00,2.9972
1469.00,3.3522
1468.00,3.7112
1467.00,3.9362
1466.00,3.9318
1465.00,3.9702
1464.00,4.1467
1463.00,4.3211
1462.00,4.1641
1461.00,3.8468
1460.00,3.7280
1459.00,3.8765
1458.00,4.0223
1457.00,3.9284
1456.00,3.8713
1455.00,3.7865
1454.00,3.8350
1453.00,4.1578
1452.00,4.5166
1451.00,4.3037
1450.00,4.0381
1449.00,3.9949
1448.00,3.9542
1447.00,3.7100
1446.00,3.5070
1445.00,3.3670
1444.00,3.1899
1443.00,2.9890
1442.00,2.8205
1441.00,2.6864
1440.00,2.5631
1439.00,2.4382
1438.00,2.3108
1437.00,2.1803
1436.00,2.0517
1435.00,1.9356
1434.00,1.8341
1433.00,1.7406
1432.00,1.6500
1431.00,1.5639
1430.00,1.4869
1429.00,1.4216
1428.00,1.3684
1427.00,1.3261
1426.00,1.2923
1425.00,1.2651
1424.00,1.2437
1423.00,1.2281
1422.00,1.2177
1421.00,1.2111
1420.00,1.2066
1419.00,1.2035
1418.00,1.2009
1417.00,1.1981
1416.00,1.1956
1415.00,1.1941
1414.00,1.1947
1413.00,1.1975
1412.00,1.2021
1411.00,1.2072
1410.00,1.2108
1409.00,1.2104
1408.00,1.2041
1407.00,1.1903
1406.00,1.1686
1405.00,1.1405
1404.00,1.1091
1403.00,1.0784
1402.00,1.0506
1401.00,1.0262
1400.00,1.0051
1399.00,0.9879
1398.00,0.9748
1397.00,0.9658
1396.00,0.9607
1395.00,0.9597
1394.00,0.9629
1393.00,0.9703
1392.00,0.9828
1391.00,1.0017
1390.00,1.0286
1389.00,1.0655
1388.00,1.1147
1387.00,1.1770
1386.00,1.2504
1385.00,1.3321
1384.00,1.4229
1383.00,1.5262
1382.00,1.6458
1381.00,1.7844
1380.00,1.9419
1379.00,2.1053
1378.00,2.2357
1377.00,2.2806
1376.00,2.2237
1375.00,2.0996
1374.00,1.9551
1373.00,1.8223
1372.00,1.7144
1371.00,1.6332
1370.00,1.5773
1369.00,1.5436
1368.00,1.5250
1367.00,1.5090
1366.00,1.4813
1365.00,1.4349
1364.00,1.3736
1363.00,1.3078
1362.00,1.2480
1361.00,1.1996
1360.00,1.1633
1359.00,1.1371
1358.00,1.1188
1357.00,1.1068
1356.00,1.1000
1355.00,1.0975
1354.00,1.0981
1353.00,1.1006
1352.00,1.1038
1351.00,1.1067
1350.00,1.1087
1349.00,1.1097
1348.00,1.1100
1347.00,1.1098
1346.00,1.1091
1345.00,1.1077
1344.00,1.1057
1343.00,1.1030
1342.00,1.0991
1341.00,1.0932
1340.00,1.0847
1339.00,1.0728
1338.00,1.0573
1337.00,1.0385
1336.00,1.0174
1335.00,0.9955
1334.00,0.9744
1333.00,0.9550
1332.00,0.9381
1331.00,0.9240
1330.00,0.9131
1329.00,0.9052
1328.00,0.8998
1327.00,0.8968
1326.00,0.8958
1325.00,0.8963
1324.00,0.8980
1323.00,0.9001
1322.00,0.9022
1321.00,0.9037
1320.00,0.9047
1319.00,0.9056
1318.00,0.9065
1317.00,0.9079
1316.00,0.9097
1315.00,0.9123
1314.00,0.9157
1313.00,0.9200
1312.00,0.9248
1311.00,0.9298
1310.00,0.9349
1309.00,0.9398
1308.00,0.9445
1307.00,0.9488
1306.00,0.9520
1305.00,0.9534
1304.00,0.9525
1303.00,0.9492
1302.00,0.9442
1301.00,0.9381
1300.00,0.9318
1299.00,0.9253
1298.00,0.9189
1297.00,0.9126
1296.00,0.9069
1295.00,0.9022
1294.00,0.8989
1293.00,0.8964
1292.00,0.8945
1291.00,0.8928
1290.00,0.8911
1289.00,0.8895
1288.00,0.8878
1287.00,0.8855
1286.00,0.8821
1285.00,0.8774
1284.00,0.8718
1283.00,0.8664
1282.00,0.8619
1281.00,0.8585
1280.00,0.8560
1279.00,0.8540
1278.00,0.8520
1277.00,0.8496
1276.00,0.8471
1275.00,0.8449
1274.00,0.8435
1273.00,0.8432
1272.00,0.8441
1271.00,0.8462
1270.00,0.8488
1269.00,0.8510
1268.00,0.8515
1267.00,0.8491
1266.00,0.8436
1265.00,0.8361
1264.00,0.8284
1263.00,0.8220
1262.00,0.8178
1261.00,0.8155
1260.00,0.8146
1259.00,0.8146
1258.00,0.8147
1257.00,0.8140
1256.00,0.8124
1255.00,0.8101
1254.00,0.8079
1253.00,0.8060
1252.00,0.8049
1251.00,0.8044
1250.00,0.8041
1249.00,0.8037
1248.00,0.8030
1247.00,0.8020
1246.00,0.8008
1245.00,0.7994
1244.00,0.7978
1243.00,0.7960
1242.00,0.7939
1241.00,0.7918
1240.00,0.7899
1239.00,0.7884
1238.00,0.7876
1237.00,0.7875
1236.00,0.7883
1235.00,0.7900
1234.00,0.7925
1233.00,0.7956
1232.00,0.7994
1231.00,0.8036
1230.00,0.8075
1229.00,0.8099
1228.00,0.8098
1227.00,0.8064
1226.00,0.8003
1225.00,0.7924
1224.00,0.7841
1223.00,0.7767
1222.00,0.7706
1221.00,0.7660
1220.00,0.7626
1219.00,0.7606
1218.00,0.7599
1217.00,0.7605
1216.00,0.7621
1215.00,0.7646
1214.00,0.7672
1213.00,0.7687
1212.00,0.7686
1211.00,0.7667
1210.00,0.7636
1209.00,0.7602
1208.00,0.7569
1207.00,0.7542
1206.00,0.7519
1205.00,0.7501
1204.00,0.7489
1203.00,0.7485
1202.00,0.7490
1201.00,0.7501
1200.00,0.7518
1199.00,0.7538
1198.00,0.7558
1197.00,0.7572
1196.00,0.7578
1195.00,0.7577
1194.00,0.7571
1193.00,0.7561
1192.00,0.7550
1191.00,0.7537
1190.00,0.7523
1189.00,0.7507
1188.00,0.7493
1187.00,0.7480
1186.00,0.7470
1185.00,0.7462
1184.00,0.7457
1183.00,0.7457
1182.00,0.7463
1181.00,0.7473
1180.00,0.7487
1179.00,0.7505
1178.00,0.7526
1177.00,0.7549
1176.00,0.7576
1175.00,0.7608
1174.00,0.7648
1173.00,0.7693
1172.00,0.7741
1171.00,0.7787
1170.00,0.7825
1169.00,0.7849
1168.00,0.7857
1167.00,0.7853
1166.00,0.7843
1165.00,0.7833
1164.00,0.7830
1163.00,0.7835
1162.00,0.7845
1161.00,0.7856
1160.00,0.7867
1159.00,0.7879
1158.00,0.7891
1157.00,0.7901
1156.00,0.7905
1155.00,0.7902
1154.00,0.7892
1153.00,0.7879
1152.00,0.7865
1151.00,0.7853
1150.00,0.7844
1149.00,0.7836
1148.00,0.7829
1147.00,0.7828
1146.00,0.7832
1145.00,0.7847
1144.00,0.7873
1143.00,0.7916
1142.00,0.7976
1141.00,0.8056
1140.00,0.8157
1139.00,0.8280
1138.00,0.8427
1137.00,0.8594
1136.00,0.8777
1135.00,0.8961
1134.00,0.9118
1133.00,0.9211
1132.00,0.9213
1131.00,0.9127
1130.00,0.8983
1129.00,0.8826
1128.00,0.8691
1127.00,0.8598
1126.00,0.8547
1125.00,0.8530
1124.00,0.8532
1123.00,0.8542
1122.00,0.8553
1121.00,0.8563
1120.00,0.8578
1119.00,0.8609
1118.00,0.8663
1117.00,0.8744
1116.00,0.8844
1115.00,0.8942
1114.00,0.9004
1113.00,0.9000
1112.00,0.8923
1111.00,0.8797
1110.00,0.8659
1109.00,0.8539
1108.00,0.8453
1107.00,0.8405
1106.00,0.8389
1105.00,0.8392
1104.00,0.8402
1103.00,0.8408
1102.00,0.8398
1101.00,0.8363
1100.00,0.8299
1099.00,0.8210
1098.00,0.8106
1097.00,0.7999
1096.00,0.7895
1095.00,0.7804
1094.00,0.7728
1093.00,0.7668
1092.00,0.7622
1091.00,0.7589
1090.00,0.7572
1089.00,0.7574
1088.00,0.7599
1087.00,0.7646
1086.00,0.7715
1085.00,0.7802
1084.00,0.7910
1083.00,0.8038
1082.00,0.8184
1081.00,0.8341
1080.00,0.8499
1079.00,0.8646
1078.00,0.8762
1077.00,0.8824
1076.00,0.8820
1075.00,0.8753
1074.00,0.8642
1073.00,0.8511
1072.00,0.8380
1071.00,0.8263
1070.00,0.8164
1069.00,0.8082
1068.00,0.8014
1067.00,0.7958
1066.00,0.7914
1065.00,0.7878
1064.00,0.7852
1063.00,0.7835
1062.00,0.7829
1061.00,0.7829
1060.00,0.7830
1059.00,0.7828
1058.00,0.7819
1057.00,0.7799
1056.00,0.7768
1055.00,0.7727
1054.00,0.7681
1053.00,0.7638
1052.00,0.7604
1051.00,0.7586
1050.00,0.7586
1049.00,0.7600
1048.00,0.7625
1047.00,0.7655
1046.00,0.7681
1045.00,0.7698
1044.00,0.7707
1043.00,0.7711
1042.00,0.7715
1041.00,0.7719
1040.00,0.7720
1039.00,0.7716
1038.00,0.7708
1037.00,0.7696
1036.00,0.7685
1035.00,0.7683
1034.00,0.7695
1033.00,0.7723
1032.00,0.7766
1031.00,0.7818
1030.00,0.7872
1029.00,0.7918
1028.00,0.7941
1027.00,0.7927
1026.00,0.7869
1025.00,0.7774
1024.00,0.7655
1023.00,0.7529
1022.00,0.7410
1021.00,0.7307
1020.00,0.7220
1019.00,0.7150
1018.00,0.7093
1017.00,0.7046
1016.00,0.7007
1015.00,0.6974
1014.00,0.6950
1013.00,0.6933
1012.00,0.6924
1011.00,0.6922
1010.00,0.6927
1009.00,0.6940
1008.00,0.6960
1007.00,0.6987
1006.00,0.7023
1005.00,0.7066
1004.00,0.7115
1003.00,0.7169
1002.00,0.7223
1001.00,0.7276
1000.00,0.7324
999.00,0.7362
998.00,0.7382
997.00,0.7380
996.00,0.7357
995.00,0.7320
994.00,0.7275
993.00,0.7223
992.00,0.7164
991.00,0.7098
990.00,0.7029
989.00,0.6964
988.00,0.6909
987.00,0.6867
986.00,0.6840
985.00,0.6828
984.00,0.6829
983.00,0.6839
982.00,0.6854
981.00,0.6870
980.00,0.6883
979.00,0.6891
978.00,0.6894
977.00,0.6891
976.00,0.6883
975.00,0.6872
974.00,0.6856
973.00,0.6837
972.00,0.6815
971.00,0.6794
970.00,0.6776
969.00,0.6759
968.00,0.6743
967.00,0.6728
966.00,0.6712
965.00,0.6693
964.00,0.6667
963.00,0.6635
962.00,0.6601
961.00,0.6568
960.00,0.6540
959.00,0.6520
958.00,0.6509
957.00,0.6504
956.00,0.6501
955.00,0.6496
954.00,0.6485
953.00,0.6467
952.00,0.6445
951.00,0.6426
950.00,0.6414
949.00,0.6410
948.00,0.6417
947.00,0.6434
946.00,0.6458
945.00,0.6488
944.00,0.6523
943.00,0.6564
942.00,0.6607
941.00,0.6648
940.00,0.6681
939.00,0.6702
938.00,0.6710
937.00,0.6707
936.00,0.6694
935.00,0.6673
934.00,0.6648
933.00,0.6620
932.00,0.6593
931.00,0.6573
930.00,0.6562
929.00,0.6563
928.00,0.6578
927.00,0.6613
926.00,0.6672
925.00,0.6759
924.00,0.6871
923.00,0.6997
922.00,0.7111
921.00,0.7184
920.00,0.7191
919.00,0.7126
918.00,0.7006
917.00,0.6858
916.00,0.6709
915.00,0.6578
914.00,0.6472
913.00,0.6390
912.00,0.6330
911.00,0.6288
910.00,0.6262
909.00,0.6247
908.00,0.6237
907.00,0.6232
906.00,0.6229
905.00,0.6227
904.00,0.6224
903.00,0.6218
902.00,0.6209
901.00,0.6193
900.00,0.6171
899.00,0.6146
898.00,0.6123
897.00,0.6105
896.00,0.6093
895.00,0.6090
894.00,0.6099
893.00,0.6119
892.00,0.6146
891.00,0.6175
890.00,0.6200
889.00,0.6212
888.00,0.6206
887.00,0.6180
886.00,0.6138
885.00,0.6087
884.00,0.6034
883.00,0.5989
882.00,0.5958
881.00,0.5944
880.00,0.5943
879.00,0.5951
878.00,0.5962
877.00,0.5973
876.00,0.5983
875.00,0.5996
874.00,0.6011
873.00,0.6027
872.00,0.6045
871.00,0.6064
870.00,0.6090
869.00,0.6128
868.00,0.6179
867.00,0.6248
866.00,0.6334
865.00,0.6437
864.00,0.6550
863.00,0.6654
862.00,0.6720
861.00,0.6720
860.00,0.6651
859.00,0.6530
858.00,0.6391
857.00,0.6260
856.00,0.6151
855.00,0.6065
854.00,0.6000
853.00,0.5952
852.00,0.5918
851.00,0.5892
850.00,0.5871
849.00,0.5853
848.00,0.5836
847.00,0.5820
846.00,0.5806
845.00,0.5796
844.00,0.5795
843.00,0.5807
842.00,0.5839
841.00,0.5900
840.00,0.5994
839.00,0.6123
838.00,0.6278
837.00,0.6429
836.00,0.6532
835.00,0.6547
834.00,0.6461
833.00,0.6305
832.00,0.6129
831.00,0.5977
830.00,0.5868
829.00,0.5802
828.00,0.5768
827.00,0.5758
826.00,0.5764
825.00,0.5781
824.00,0.5806
823.00,0.5837
822.00,0.5873
821.00,0.5911
820.00,0.5948
819.00,0.5983
818.00,0.6014
817.00,0.6039
816.00,0.6056
815.00,0.6061
814.00,0.6055
813.00,0.6037
812.00,0.6012
811.00,0.5982
810.00,0.5948
809.00,0.5914
808.00,0.5883
807.00,0.5856
806.00,0.5834
805.00,0.5811
804.00,0.5788
803.00,0.5765
802.00,0.5744
801.00,0.5727
800.00,0.5717
799.00,0.5717
798.00,0.5723
797.00,0.5729
796.00,0.5731
795.00,0.5731
794.00,0.5734
793.00,0.5744
792.00,0.5762
791.00,0.5786
790.00,0.5813
789.00,0.5835
788.00,0.5848
787.00,0.5857
786.00,0.5868
785.00,0.5888
784.00,0.5916
783.00,0.5947
782.00,0.5977
781.00,0.6004
780.00,0.6027
779.00,0.6046
778.00,0.6062
777.00,0.6080
776.00,0.6103
775.00,0.6131
774.00,0.6159
773.00,0.6186
772.00,0.6213
771.00,0.6243
770.00,0.6274
769.00,0.6306
768.00,0.6340
767.00,0.6376
766.00,0.6413
765.00,0.6453
764.00,0.6497
763.00,0.6550
762.00,0.6614
761.00,0.6682
760.00,0.6748
759.00,0.6801
758.00,0.6832
757.00,0.6838
756.00,0.6825
755.00,0.6807
754.00,0.6801
753.00,0.6813
752.00,0.6843
751.00,0.6885
750.00,0.6936
749.00,0.6992
748.00,0.7051
747.00,0.7114
746.00,0.7185
745.00,0.7262
744.00,0.7346
743.00,0.7437
742.00,0.7536
741.00,0.7640
740.00,0.7743
739.00,0.7839
738.00,0.7929
737.00,0.8013
736.00,0.8095
735.00,0.8181
734.00,0.8275
733.00,0.8379
732.00,0.8500
731.00,0.8647
730.00,0.8833
729.00,0.9065
728.00,0.9355
727.00,0.9714
726.00,1.0157
725.00,1.0685
724.00,1.1258
723.00,1.1779
722.00,1.2089
721.00,1.2041
720.00,1.1622
719.00,1.0979
718.00,1.0288
717.00,0.9657
716.00,0.9130
715.00,0.8713
714.00,0.8391
713.00,0.8140
712.00,0.7938
711.00,0.7771
710.00,0.7630
709.00,0.7512
708.00,0.7414
707.00,0.7330
706.00,0.7254
705.00,0.7180
704.00,0.7107
703.00,0.7038
702.00,0.6977
701.00,0.6921
700.00,0.6864
699.00,0.6793
698.00,0.6701
697.00,0.6587
696.00,0.6462
695.00,0.6345
694.00,0.6248
693.00,0.6171
692.00,0.6109
691.00,0.6058
690.00,0.6015
689.00,0.5980
688.00,0.5953
687.00,0.5933
686.00,0.5918
685.00,0.5905
684.00,0.5895
683.00,0.5889
682.00,0.5886
681.00,0.5886
680.00,0.5889
679.00,0.5894
678.00,0.5899
677.00,0.5902
676.00,0.5900
675.00,0.5897
674.00,0.5896
673.00,0.5901
672.00,0.5910
671.00,0.5920
670.00,0.5927
669.00,0.5929
668.00,0.5923
667.00,0.5915
666.00,0.5916
665.00,0.5922
664.00,0.5928
663.00,0.5933
662.00,0.5937
661.00,0.5941
660.00,0.5945
659.00,0.5950
658.00,0.5958
657.00,0.5967
656.00,0.5978
655.00,0.5990
654.00,0.6003
653.00,0.6012
652.00,0.6018
651.00,0.6023
650.00,0.6032
649.00,0.6044
648.00,0.6057
647.00,0.6071
646.00,0.6088
645.00,0.6107
644.00,0.6124
643.00,0.6137
642.00,0.6143
641.00,0.6148
640.00,0.6152
639.00,0.6157
638.00,0.6161
637.00,0.6160
636.00,0.6150
635.00,0.6134
634.00,0.6116
633.00,0.6106
632.00,0.6106
631.00,0.6114
630.00,0.6125
629.00,0.6137
628.00,0.6149
627.00,0.6160
626.00,0.6168
625.00,0.6173
624.00,0.6181
623.00,0.6194
622.00,0.6209
621.00,0.6219
620.00,0.6224
619.00,0.6230
618.00,0.6239
617.00,0.6246
616.00,0.6247
615.00,0.6240
614.00,0.6228
613.00,0.6214
612.00,0.6199
611.00,0.6182
610.00,0.6163
609.00,0.6141
608.00,0.6120
607.00,0.6103
606.00,0.6091
605.00,0.6081
604.00,0.6071
603.00,0.6058
602.00,0.6046
601.00,0.6038
600.00,0.6040
599.00,0.6051
598.00,0.6068
597.00,0.6082
596.00,0.6092
595.00,0.6102
594.00,0.6115
593.00,0.6132
592.00,0.6154
591.00,0.6178
590.00,0.6198
589.00,0.6212
588.00,0.6223
587.00,0.6238
586.00,0.6261
585.00,0.6287
584.00,0.6313
583.00,0.6340
582.00,0.6372
581.00,0.6410
580.00,0.6449
579.00,0.6486
578.00,0.6515
577.00,0.6534
576.00,0.6547
575.00,0.6564
574.00,0.6590
573.00,0.6624
572.00,0.6661
571.00,0.6701
570.00,0.6743
569.00,0.6787
568.00,0.6827
567.00,0.6861
566.00,0.6895
565.00,0.6933
564.00,0.6975
563.00,0.7013
562.00,0.7043
561.00,0.7065
560.00,0.7085
559.00,0.7106
558.00,0.7128
557.00,0.7152
556.00,0.7173
555.00,0.7188
554.00,0.7192
553.00,0.7186
552.00,0.7177
551.00,0.7173
550.00,0.7180
