Created as New Dataset,
cm-1,A
4000.00,0.3820
3999.00,0.3820
3998.00,0.3821
3997.00,0.3821
3996.00,0.3821
3995.00,0.3819
3994.00,0.3816
3993.00,0.3813
3992.00,0.3810
3991.00,0.3808
3990.00,0.3805
3989.00,0.3802
3988.00,0.3798
3987.00,0.3793
3986.00,0.3788
3985.00,0.3783
3984.00,0.3778
3983.00,0.3774
3982.00,0.3769
3981.00,0.3765
3980.00,0.3760
3979.00,0.3755
3978.00,0.3751
3977.00,0.3746
3976.00,0.3742
3975.00,0.3738
3974.00,0.3735
3973.00,0.3732
3972.00,0.3729
3971.00,0.3725
3970.00,0.3722
3969.00,0.3717
3968.00,0.3713
3967.00,0.3708
3966.00,0.3704
3965.00,0.3699
3964.00,0.3694
3963.00,0.3689
3962.00,0.3683
3961.00,0.3679
3960.00,0.3675
3959.00,0.3671
3958.00,0.3667
3957.00,0.3663
3956.00,0.3659
3955.00,0.3655
3954.00,0.3651
3953.00,0.3648
3952.00,0.3645
3951.00,0.3642
3950.00,0.3639
3949.00,0.3637
3948.00,0.3635
3947.00,0.3632
3946.00,0.3629
3945.00,0.3627
3944.00,0.3624
3943.00,0.3622
3942.00,0.3621
3941.00,0.3619
3940.00,0.3617
3939.00,0.3615
3938.00,0.3613
3937.00,0.3611
3936.00,0.3611
3935.00,0.3611
3934.00,0.3611
3933.00,0.3610
3932.00,0.3609
3931.00,0.3609
3930.00,0.3608
3929.00,0.3607
3928.00,0.3606
3927.00,0.3606
3926.00,0.3606
3925.00,0.3606
3924.00,0.3606
3923.00,0.3606
3922.00,0.3605
3921.00,0.3604
3920.00,0.3604
3919.00,0.3603
3918.00,0.3603
3917.00,0.3603
3916.00,0.3603
3915.00,0.3603
3914.00,0.3602
3913.00,0.3601
3912.00,0.3599
3911.00,0.3598
3910.00,0.3597
3909.00,0.3596
3908.00,0.3595
3907.00,0.3594
3906.00,0.3593
3905.00,0.3591
3904.00,0.3590
3903.00,0.3589
3902.00,0.3589
3901.00,0.3588
3900.00,0.3587
3899.00,0.3587
3898.00,0.3587
3897.00,0.3585
3896.00,0.3583
3895.00,0.3580
3894.00,0.3578
3893.00,0.3575
3892.00,0.3573
3891.00,0.3572
3890.00,0.3572
3889.00,0.3571
3888.00,0.3568
3887.00,0.3565
3886.00,0.3564
3885.00,0.3564
3884.00,0.3564
3883.00,0.3562
3882.00,0.3561
3881.00,0.3560
3880.00,0.3560
3879.00,0.3561
3878.00,0.3560
3877.00,0.3559
3876.00,0.3559
3875.00,0.3559
3874.00,0.3560
3873.00,0.3560
3872.00,0.3558
3871.00,0.3556
3870.00,0.3555
3869.00,0.3556
3868.00,0.3557
3867.00,0.3555
3866.00,0.3553
3865.00,0.3552
3864.00,0.3551
3863.00,0.3550
3862.00,0.3548
3861.00,0.3546
3860.00,0.3544
3859.00,0.3543
3858.00,0.3542
3857.00,0.3541
3856.00,0.3539
3855.00,0.3536
3854.00,0.3535
3853.00,0.3537
3852.00,0.3538
3851.00,0.3538
3850.00,0.3537
3849.00,0.3537
3848.00,0.3537
3847.00,0.3538
3846.00,0.3537
3845.00,0.3536
3844.00,0.3535
3843.00,0.3535
3842.00,0.3535
3841.00,0.3534
3840.00,0.3533
3839.00,0.3533
3838.00,0.3533
3837.00,0.3534
3836.00,0.3535
3835.00,0.3534
3834.00,0.3533
3833.00,0.3531
3832.00,0.3530
3831.00,0.3529
3830.00,0.3528
3829.00,0.3526
3828.00,0.3524
3827.00,0.3521
3826.00,0.3520
3825.00,0.3519
3824.00,0.3517
3823.00,0.3514
3822.00,0.3511
3821.00,0.3511
3820.00,0.3512
3819.00,0.3510
3818.00,0.3507
3817.00,0.3502
3816.00,0.3501
3815.00,0.3500
3814.00,0.3498
3813.00,0.3495
3812.00,0.3492
3811.00,0.3491
3810.00,0.3491
3809.00,0.3489
3808.00,0.3486
3807.00,0.3484
3806.00,0.3484
3805.00,0.3483
3804.00,0.3482
3803.00,0.3480
3802.00,0.3480
3801.00,0.3481
3800.00,0.3481
3799.00,0.3479
3798.00,0.3476
3797.00,0.3474
3796.00,0.3473
3795.00,0.3473
3794.00,0.3472
3793.00,0.3471
3792.00,0.3469
3791.00,0.3467
3790.00,0.3465
3789.00,0.3463
3788.00,0.3460
3787.00,0.3458
3786.00,0.3456
3785.00,0.3455
3784.00,0.3455
3783.00,0.3455
3782.00,0.3455
3781.00,0.3454
3780.00,0.3453
3779.00,0.3453
3778.00,0.3453
3777.00,0.3452
3776.00,0.3451
3775.00,0.3449
3774.00,0.3449
3773.00,0.3449
3772.00,0.3449
3771.00,0.3449
3770.00,0.3450
3769.00,0.3451
3768.00,0.3451
3767.00,0.3450
3766.00,0.3449
3765.00,0.3450
3764.00,0.3452
3763.00,0.3452
3762.00,0.3452
3761.00,0.3451
3760.00,0.3450
3759.00,0.3448
3758.00,0.3446
3757.00,0.3444
3756.00,0.3443
3755.00,0.3441
3754.00,0.3440
3753.00,0.3439
3752.00,0.3437
3751.00,0.3436
3750.00,0.3435
3749.00,0.3436
3748.00,0.3436
3747.00,0.3436
3746.00,0.3434
3745.00,0.3433
3744.00,0.3435
3743.00,0.3435
3742.00,0.3432
3741.00,0.3429
3740.00,0.3427
3739.00,0.3427
3738.00,0.3426
3737.00,0.3425
3736.00,0.3424
3735.00,0.3423
3734.00,0.3422
3733.00,0.3421
3732.00,0.3420
3731.00,0.3420
3730.00,0.3420
3729.00,0.3419
3728.00,0.3417
3727.00,0.3417
3726.00,0.3417
3725.00,0.3417
3724.00,0.3415
3723.00,0.3414
3722.00,0.3414
3721.00,0.3413
3720.00,0.3413
3719.00,0.3412
3718.00,0.3411
3717.00,0.3410
3716.00,0.3409
3715.00,0.3409
3714.00,0.3408
3713.00,0.3409
3712.00,0.3410
3711.00,0.3412
3710.00,0.3414
3709.00,0.3414
3708.00,0.3415
3707.00,0.3415
3706.00,0.3416
3705.00,0.3416
3704.00,0.3417
3703.00,0.3417
3702.00,0.3417
3701.00,0.3417
3700.00,0.3418
3699.00,0.3418
3698.00,0.3419
3697.00,0.3419
3696.00,0.3420
3695.00,0.3421
3694.00,0.3422
3693.00,0.3424
3692.00,0.3425
3691.00,0.3425
3690.00,0.3425
3689.00,0.3426
3688.00,0.3428
3687.00,0.3430
3686.00,0.3431
3685.00,0.3431
3684.00,0.3431
3683.00,0.3432
3682.00,0.3432
3681.00,0.3432
3680.00,0.3432
3679.00,0.3432
3678.00,0.3431
3677.00,0.3429
3676.00,0.3428
3675.00,0.3429
3674.00,0.3430
3673.00,0.3429
3672.00,0.3427
3671.00,0.3426
3670.00,0.3427
3669.00,0.3429
3668.00,0.3429
3667.00,0.3429
3666.00,0.3429
3665.00,0.3430
3664.00,0.3431
3663.00,0.3432
3662.00,0.3434
3661.00,0.3436
3660.00,0.3438
3659.00,0.3440
3658.00,0.3442
3657.00,0.3444
3656.00,0.3448
3655.00,0.3451
3654.00,0.3454
3653.00,0.3457
3652.00,0.3459
3651.00,0.3463
3650.00,0.3467
3649.00,0.3470
3648.00,0.3473
3647.00,0.3476
3646.00,0.3479
3645.00,0.3482
3644.00,0.3485
3643.00,0.3488
3642.00,0.3490
3641.00,0.3492
3640.00,0.3494
3639.00,0.3496
3638.00,0.3498
3637.00,0.3501
3636.00,0.3503
3635.00,0.3504
3634.00,0.3506
3633.00,0.3508
3632.00,0.3511
3631.00,0.3513
3630.00,0.3518
3629.00,0.3525
3628.00,0.3533
3627.00,0.3538
3626.00,0.3541
3625.00,0.3543
3624.00,0.3545
3623.00,0.3545
3622.00,0.3543
3621.00,0.3539
3620.00,0.3533
3619.00,0.3527
3618.00,0.3522
3617.00,0.3519
3616.00,0.3517
3615.00,0.3516
3614.00,0.3516
3613.00,0.3517
3612.00,0.3519
3611.00,0.3521
3610.00,0.3523
3609.00,0.3526
3608.00,0.3528
3607.00,0.3530
3606.00,0.3529
3605.00,0.3527
3604.00,0.3522
3603.00,0.3516
3602.00,0.3508
3601.00,0.3498
3600.00,0.3486
3599.00,0.3475
3598.00,0.3464
3597.00,0.3452
3596.00,0.3441
3595.00,0.3429
3594.00,0.3418
3593.00,0.3408
3592.00,0.3401
3591.00,0.3395
3590.00,0.3389
3589.00,0.3385
3588.00,0.3381
3587.00,0.3378
3586.00,0.3375
3585.00,0.3371
3584.00,0.3368
3583.00,0.3366
3582.00,0.3364
3581.00,0.3362
3580.00,0.3360
3579.00,0.3359
3578.00,0.3358
3577.00,0.3357
3576.00,0.3356
3575.00,0.3356
3574.00,0.3356
3573.00,0.3356
3572.00,0.3356
3571.00,0.3356
3570.00,0.3356
3569.00,0.3356
3568.00,0.3356
3567.00,0.3357
3566.00,0.3357
3565.00,0.3357
3564.00,0.3357
3563.00,0.3358
3562.00,0.3359
3561.00,0.3360
3560.00,0.3361
3559.00,0.3361
3558.00,0.3362
3557.00,0.3363
3556.00,0.3365
3555.00,0.3367
3554.00,0.3370
3553.00,0.3372
3552.00,0.3374
3551.00,0.3377
3550.00,0.3380
3549.00,0.3383
3548.00,0.3387
3547.00,0.3391
3546.00,0.3395
3545.00,0.3399
3544.00,0.3404
3543.00,0.3408
3542.00,0.3413
3541.00,0.3418
3540.00,0.3423
3539.00,0.3428
3538.00,0.3432
3537.00,0.3436
3536.00,0.3440
3535.00,0.3444
3534.00,0.3449
3533.00,0.3453
3532.00,0.3458
3531.00,0.3462
3530.00,0.3467
3529.00,0.3472
3528.00,0.3477
3527.00,0.3482
3526.00,0.3487
3525.00,0.3492
3524.00,0.3497
3523.00,0.3503
3522.00,0.3508
3521.00,0.3514
3520.00,0.3519
3519.00,0.3525
3518.00,0.3531
3517.00,0.3537
3516.00,0.3543
3515.00,0.3550
3514.00,0.3557
3513.00,0.3565
3512.00,0.3572
3511.00,0.3579
3510.00,0.3586
3509.00,0.3593
3508.00,0.3600
3507.00,0.3607
3506.00,0.3614
3505.00,0.3621
3504.00,0.3627
3503.00,0.3634
3502.00,0.3640
3501.00,0.3647
3500.00,0.3654
3499.00,0.3661
3498.00,0.3668
3497.00,0.3676
3496.00,0.3684
3495.00,0.3692
3494.00,0.3699
3493.00,0.3707
3492.00,0.3714
3491.00,0.3721
3490.00,0.3729
3489.00,0.3738
3488.00,0.3747
3487.00,0.3756
3486.00,0.3765
3485.00,0.3774
3484.00,0.3783
3483.00,0.3793
3482.00,0.3803
3481.00,0.3813
3480.00,0.3824
3479.00,0.3835
3478.00,0.3847
3477.00,0.3858
3476.00,0.3869
3475.00,0.3881
3474.00,0.3892
3473.00,0.3904
3472.00,0.3915
3471.00,0.3926
3470.00,0.3938
3469.00,0.3949
3468.00,0.3961
3467.00,0.3973
3466.00,0.3984
3465.00,0.3996
3464.00,0.4008
3463.00,0.4020
3462.00,0.4034
3461.00,0.4047
3460.00,0.4061
3459.00,0.4074
3458.00,0.4088
3457.00,0.4102
3456.00,0.4117
3455.00,0.4132
3454.00,0.4148
3453.00,0.4165
3452.00,0.4182
3451.00,0.4200
3450.00,0.4219
3449.00,0.4239
3448.00,0.4261
3447.00,0.4283
3446.00,0.4307
3445.00,0.4331
3444.00,0.4357
3443.00,0.4384
3442.00,0.4411
3441.00,0.4438
3440.00,0.4465
3439.00,0.4491
3438.00,0.4514
3437.00,0.4535
3436.00,0.4554
3435.00,0.4573
3434.00,0.4590
3433.00,0.4606
3432.00,0.4619
3431.00,0.4632
3430.00,0.4644
3429.00,0.4657
3428.00,0.4669
3427.00,0.4682
3426.00,0.4695
3425.00,0.4708
3424.00,0.4721
3423.00,0.4735
3422.00,0.4748
3421.00,0.4762
3420.00,0.4776
3419.00,0.4790
3418.00,0.4805
3417.00,0.4821
3416.00,0.4838
3415.00,0.4856
3414.00,0.4875
3413.00,0.4895
3412.00,0.4915
3411.00,0.4936
3410.00,0.4956
3409.00,0.4977
3408.00,0.4999
3407.00,0.5022
3406.00,0.5045
3405.00,0.5068
3404.00,0.5091
3403.00,0.5115
3402.00,0.5139
3401.00,0.5163
3400.00,0.5187
3399.00,0.5212
3398.00,0.5238
3397.00,0.5265
3396.00,0.5291
3395.00,0.5317
3394.00,0.5342
3393.00,0.5368
3392.00,0.5394
3391.00,0.5420
3390.00,0.5448
3389.00,0.5476
3388.00,0.5505
3387.00,0.5534
3386.00,0.5562
3385.00,0.5591
3384.00,0.5621
3383.00,0.5651
3382.00,0.5682
3381.00,0.5713
3380.00,0.5744
3379.00,0.5775
3378.00,0.5806
3377.00,0.5837
3376.00,0.5870
3375.00,0.5902
3374.00,0.5935
3373.00,0.5968
3372.00,0.6000
3371.00,0.6031
3370.00,0.6063
3369.00,0.6095
3368.00,0.6126
3367.00,0.6157
3366.00,0.6188
3365.00,0.6219
3364.00,0.6250
3363.00,0.6280
3362.00,0.6309
3361.00,0.6338
3360.00,0.6367
3359.00,0.6395
3358.00,0.6422
3357.00,0.6448
3356.00,0.6474
3355.00,0.6498
3354.00,0.6521
3353.00,0.6543
3352.00,0.6564
3351.00,0.6583
3350.00,0.6602
3349.00,0.6619
3348.00,0.6635
3347.00,0.6650
3346.00,0.6663
3345.00,0.6675
3344.00,0.6685
3343.00,0.6693
3342.00,0.6699
3341.00,0.6705
3340.00,0.6711
3339.00,0.6715
3338.00,0.6718
3337.00,0.6718
3336.00,0.6715
3335.00,0.6711
3334.00,0.6706
3333.00,0.6699
3332.00,0.6691
3331.00,0.6683
3330.00,0.6675
3329.00,0.6666
3328.00,0.6656
3327.00,0.6645
3326.00,0.6633
3325.00,0.6621
3324.00,0.6608
3323.00,0.6595
3322.00,0.6581
3321.00,0.6566
3320.00,0.6551
3319.00,0.6536
3318.00,0.6521
3317.00,0.6507
3316.00,0.6494
3315.00,0.6480
3314.00,0.6466
3313.00,0.6453
3312.00,0.6441
3311.00,0.6429
3310.00,0.6418
3309.00,0.6407
3308.00,0.6398
3307.00,0.6388
3306.00,0.6379
3305.00,0.6371
3304.00,0.6363
3303.00,0.6356
3302.00,0.6349
3301.00,0.6343
3300.00,0.6338
3299.00,0.6334
3298.00,0.6332
3297.00,0.6331
3296.00,0.6330
3295.00,0.6328
3294.00,0.6327
3293.00,0.6327
3292.00,0.6328
3291.00,0.6330
3290.00,0.6333
3289.00,0.6335
3288.00,0.6338
3287.00,0.6340
3286.00,0.6342
3285.00,0.6345
3284.00,0.6349
3283.00,0.6352
3282.00,0.6357
3281.00,0.6362
3280.00,0.6367
3279.00,0.6372
3278.00,0.6377
3277.00,0.6382
3276.00,0.6386
3275.00,0.6390
3274.00,0.6394
3273.00,0.6399
3272.00,0.6403
3271.00,0.6408
3270.00,0.6411
3269.00,0.6415
3268.00,0.6418
3267.00,0.6421
3266.00,0.6424
3265.00,0.6426
3264.00,0.6427
3263.00,0.6428
3262.00,0.6427
3261.00,0.6427
3260.00,0.6426
3259.00,0.6424
3258.00,0.6422
3257.00,0.6419
3256.00,0.6416
3255.00,0.6412
3254.00,0.6407
3253.00,0.6402
3252.00,0.6396
3251.00,0.6388
3250.00,0.6379
3249.00,0.6369
3248.00,0.6357
3247.00,0.6346
3246.00,0.6335
3245.00,0.6323
3244.00,0.6310
3243.00,0.6295
3242.00,0.6280
3241.00,0.6264
3240.00,0.6249
3239.00,0.6233
3238.00,0.6218
3237.00,0.6203
3236.00,0.6187
3235.00,0.6171
3234.00,0.6155
3233.00,0.6137
3232.00,0.6119
3231.00,0.6099
3230.00,0.6080
3229.00,0.6060
3228.00,0.6041
3227.00,0.6023
3226.00,0.6005
3225.00,0.5986
3224.00,0.5968
3223.00,0.5949
3222.00,0.5930
3221.00,0.5910
3220.00,0.5891
3219.00,0.5873
3218.00,0.5854
3217.00,0.5836
3216.00,0.5817
3215.00,0.5798
3214.00,0.5779
3213.00,0.5762
3212.00,0.5744
3211.00,0.5726
3210.00,0.5709
3209.00,0.5691
3208.00,0.5674
3207.00,0.5656
3206.00,0.5639
3205.00,0.5622
3204.00,0.5606
3203.00,0.5590
3202.00,0.5574
3201.00,0.5558
3200.00,0.5542
3199.00,0.5525
3198.00,0.5508
3197.00,0.5492
3196.00,0.5477
3195.00,0.5462
3194.00,0.5447
3193.00,0.5431
3192.00,0.5415
3191.00,0.5399
3190.00,0.5382
3189.00,0.5365
3188.00,0.5347
3187.00,0.5331
3186.00,0.5315
3185.00,0.5298
3184.00,0.5282
3183.00,0.5265
3182.00,0.5247
3181.00,0.5231
3180.00,0.5214
3179.00,0.5198
3178.00,0.5182
3177.00,0.5165
3176.00,0.5148
3175.00,0.5132
3174.00,0.5116
3173.00,0.5099
3172.00,0.5083
3171.00,0.5067
3170.00,0.5052
3169.00,0.5037
3168.00,0.5022
3167.00,0.5007
3166.00,0.4992
3165.00,0.4978
3164.00,0.4965
3163.00,0.4953
3162.00,0.4941
3161.00,0.4929
3160.00,0.4916
3159.00,0.4904
3158.00,0.4891
3157.00,0.4879
3156.00,0.4868
3155.00,0.4857
3154.00,0.4846
3153.00,0.4836
3152.00,0.4826
3151.00,0.4816
3150.00,0.4806
3149.00,0.4796
3148.00,0.4786
3147.00,0.4776
3146.00,0.4767
3145.00,0.4758
3144.00,0.4748
3143.00,0.4739
3142.00,0.4729
3141.00,0.4720
3140.00,0.4710
3139.00,0.4702
3138.00,0.4694
3137.00,0.4688
3136.00,0.4681
3135.00,0.4675
3134.00,0.4668
3133.00,0.4660
3132.00,0.4653
3131.00,0.4647
3130.00,0.4641
3129.00,0.4635
3128.00,0.4631
3127.00,0.4626
3126.00,0.4621
3125.00,0.4617
3124.00,0.4613
3123.00,0.4611
3122.00,0.4609
3121.00,0.4607
3120.00,0.4605
3119.00,0.4604
3118.00,0.4604
3117.00,0.4605
3116.00,0.4606
3115.00,0.4607
3114.00,0.4609
3113.00,0.4611
3112.00,0.4614
3111.00,0.4617
3110.00,0.4621
3109.00,0.4625
3108.00,0.4630
3107.00,0.4636
3106.00,0.4642
3105.00,0.4649
3104.00,0.4656
3103.00,0.4663
3102.00,0.4670
3101.00,0.4678
3100.00,0.4685
3099.00,0.4693
3098.00,0.4701
3097.00,0.4709
3096.00,0.4718
3095.00,0.4726
3094.00,0.4735
3093.00,0.4744
3092.00,0.4753
3091.00,0.4762
3090.00,0.4771
3089.00,0.4781
3088.00,0.4791
3087.00,0.4803
3086.00,0.4815
3085.00,0.4828
3084.00,0.4841
3083.00,0.4854
3082.00,0.4869
3081.00,0.4885
3080.00,0.4901
3079.00,0.4919
3078.00,0.4938
3077.00,0.4958
3076.00,0.4979
3075.00,0.5001
3074.00,0.5025
3073.00,0.5050
3072.00,0.5077
3071.00,0.5105
3070.00,0.5135
3069.00,0.5166
3068.00,0.5199
3067.00,0.5232
3066.00,0.5265
3065.00,0.5299
3064.00,0.5333
3063.00,0.5369
3062.00,0.5405
3061.00,0.5441
3060.00,0.5478
3059.00,0.5514
3058.00,0.5549
3057.00,0.5584
3056.00,0.5617
3055.00,0.5650
3054.00,0.5681
3053.00,0.5711
3052.00,0.5741
3051.00,0.5770
3050.00,0.5798
3049.00,0.5825
3048.00,0.5852
3047.00,0.5880
3046.00,0.5910
3045.00,0.5943
3044.00,0.5979
3043.00,0.6015
3042.00,0.6054
3041.00,0.6094
3040.00,0.6137
3039.00,0.6184
3038.00,0.6233
3037.00,0.6285
3036.00,0.6339
3035.00,0.6395
3034.00,0.6453
3033.00,0.6512
3032.00,0.6571
3031.00,0.6630
3030.00,0.6689
3029.00,0.6748
3028.00,0.6807
3027.00,0.6866
3026.00,0.6927
3025.00,0.6989
3024.00,0.7052
3023.00,0.7117
3022.00,0.7184
3021.00,0.7253
3020.00,0.7325
3019.00,0.7400
3018.00,0.7479
3017.00,0.7562
3016.00,0.7650
3015.00,0.7743
3014.00,0.7840
3013.00,0.7941
3012.00,0.8046
3011.00,0.8158
3010.00,0.8277
3009.00,0.8403
3008.00,0.8536
3007.00,0.8676
3006.00,0.8822
3005.00,0.8978
3004.00,0.9142
3003.00,0.9318
3002.00,0.9503
3001.00,0.9699
3000.00,0.9907
2999.00,1.0127
2998.00,1.0360
2997.00,1.0605
2996.00,1.0866
2995.00,1.1147
2994.00,1.1451
2993.00,1.1780
2992.00,1.2134
2991.00,1.2516
2990.00,1.2929
2989.00,1.3377
2988.00,1.3863
2987.00,1.4394
2986.00,1.4977
2985.00,1.5615
2984.00,1.6314
2983.00,1.7084
2982.00,1.7939
2981.00,1.8893
2980.00,1.9959
2979.00,2.1153
2978.00,2.2490
2977.00,2.3965
2976.00,2.5557
2975.00,2.7261
2974.00,2.9130
2973.00,3.1275
2972.00,3.3874
2971.00,3.7254
2970.00,4.0162
2969.00,4.0228
2968.00,3.9347
2967.00,3.8816
2966.00,3.8756
2965.00,3.8692
2964.00,3.9520
2963.00,4.0551
2962.00,4.0554
2961.00,4.0197
2960.00,4.0349
2959.00,4.1332
2958.00,4.2122
2957.00,4.1235
2956.00,4.0072
2955.00,3.9735
2954.00,3.9385
2953.00,3.8103
2952.00,3.6840
2951.00,3.6588
2950.00,3.7616
2949.00,3.9808
2948.00,4.3244
2947.00,4.5438
2946.00,4.3240
2945.00,4.1631
2944.00,4.1409
2943.00,4.2301
2942.00,4.1662
2941.00,3.9749
2940.00,3.8017
2939.00,3.7199
2938.00,3.7514
2937.00,3.9002
2936.00,4.1342
2935.00,4.2396
2934.00,4.1391
2933.00,3.9623
2932.00,3.8342
2931.00,3.7581
2930.00,3.7405
2929.00,3.7623
2928.00,3.8002
2927.00,3.8555
2926.00,3.9078
2925.00,3.9321
2924.00,3.9568
2923.00,4.0624
2922.00,4.3018
2921.00,4.6691
2920.00,4.7105
2919.00,4.4113
2918.00,4.2080
2917.00,4.0810
2916.00,4.0252
2915.00,3.9526
2914.00,3.8568
2913.00,3.7820
2912.00,3.7918
2911.00,3.9442
2910.00,4.1859
2909.00,4.1576
2908.00,4.0068
2907.00,3.8953
2906.00,3.9016
2905.00,3.8876
2904.00,3.8528
2903.00,3.8787
2902.00,4.0208
2901.00,4.2422
2900.00,4.2502
2899.00,4.1809
2898.00,4.3606
2897.00,4.6163
2896.00,4.5068
2895.00,4.2915
2894.00,4.1608
2893.00,4.1108
2892.00,4.0858
2891.00,4.1259
2890.00,4.0586
2889.00,3.9708
2888.00,3.9459
2887.00,3.9938
2886.00,4.0761
2885.00,4.1244
2884.00,3.9978
2883.00,3.8811
2882.00,3.8490
2881.00,3.9586
2880.00,4.3171
2879.00,4.1775
2878.00,3.8650
2877.00,3.6589
2876.00,3.6841
2875.00,3.8470
2874.00,4.0213
2873.00,3.9933
2872.00,3.8461
2871.00,3.7549
2870.00,3.7653
2869.00,3.8658
2868.00,4.1170
2867.00,4.1037
2866.00,3.9301
2865.00,3.8221
2864.00,3.9290
2863.00,4.0208
2862.00,3.9727
2861.00,3.8862
2860.00,3.8192
2859.00,3.8035
2858.00,3.8389
2857.00,3.9469
2856.00,4.2145
2855.00,4.4731
2854.00,4.3178
2853.00,4.1564
2852.00,4.1190
2851.00,4.1448
2850.00,4.2301
2849.00,4.3167
2848.00,4.1070
2847.00,3.9448
2846.00,3.9850
2845.00,4.0704
2844.00,3.8880
2843.00,3.7168
2842.00,3.6213
2841.00,3.5485
2840.00,3.4248
2839.00,3.2587
2838.00,3.0614
2837.00,2.8539
2836.00,2.6599
2835.00,2.4881
2834.00,2.3372
2833.00,2.2034
2832.00,2.0840
2831.00,1.9774
2830.00,1.8819
2829.00,1.7955
2828.00,1.7171
2827.00,1.6460
2826.00,1.5817
2825.00,1.5234
2824.00,1.4703
2823.00,1.4221
2822.00,1.3780
2821.00,1.3375
2820.00,1.3000
2819.00,1.2651
2818.00,1.2326
2817.00,1.2021
2816.00,1.1733
2815.00,1.1462
2814.00,1.1206
2813.00,1.0964
2812.00,1.0734
2811.00,1.0516
2810.00,1.0310
2809.00,1.0112
2808.00,0.9920
2807.00,0.9732
2806.00,0.9548
2805.00,0.9368
2804.00,0.9193
2803.00,0.9025
2802.00,0.8863
2801.00,0.8708
2800.00,0.8557
2799.00,0.8412
2798.00,0.8272
2797.00,0.8138
2796.00,0.8010
2795.00,0.7890
2794.00,0.7775
2793.00,0.7667
2792.00,0.7564
2791.00,0.7467
2790.00,0.7374
2789.00,0.7285
2788.00,0.7198
2787.00,0.7114
2786.00,0.7030
2785.00,0.6947
2784.00,0.6864
2783.00,0.6782
2782.00,0.6701
2781.00,0.6619
2780.00,0.6540
2779.00,0.6462
2778.00,0.6388
2777.00,0.6318
2776.00,0.6250
2775.00,0.6187
2774.00,0.6127
2773.00,0.6071
2772.00,0.6020
2771.00,0.5973
2770.00,0.5930
2769.00,0.5892
2768.00,0.5858
2767.00,0.5829
2766.00,0.5804
2765.00,0.5780
2764.00,0.5759
2763.00,0.5740
2762.00,0.5723
2761.00,0.5709
2760.00,0.5696
2759.00,0.5687
2758.00,0.5679
2757.00,0.5674
2756.00,0.5670
2755.00,0.5668
2754.00,0.5668
2753.00,0.5669
2752.00,0.5673
2751.00,0.5679
2750.00,0.5687
2749.00,0.5697
2748.00,0.5709
2747.00,0.5721
2746.00,0.5735
2745.00,0.5751
2744.00,0.5767
2743.00,0.5786
2742.00,0.5808
2741.00,0.5833
2740.00,0.5861
2739.00,0.5893
2738.00,0.5930
2737.00,0.5972
2736.00,0.6019
2735.00,0.6069
2734.00,0.6120
2733.00,0.6167
2732.00,0.6203
2731.00,0.6223
2730.00,0.6223
2729.00,0.6201
2728.00,0.6160
2727.00,0.6106
2726.00,0.6046
2725.00,0.5985
2724.00,0.5929
2723.00,0.5879
2722.00,0.5838
2721.00,0.5803
2720.00,0.5776
2719.00,0.5754
2718.00,0.5736
2717.00,0.5718
2716.00,0.5699
2715.00,0.5678
2714.00,0.5655
2713.00,0.5630
2712.00,0.5604
2711.00,0.5579
2710.00,0.5554
2709.00,0.5531
2708.00,0.5510
2707.00,0.5492
2706.00,0.5476
2705.00,0.5462
2704.00,0.5451
2703.00,0.5441
2702.00,0.5434
2701.00,0.5430
2700.00,0.5428
2699.00,0.5429
2698.00,0.5433
2697.00,0.5441
2696.00,0.5450
2695.00,0.5462
2694.00,0.5476
2693.00,0.5490
2692.00,0.5506
2691.00,0.5523
2690.00,0.5540
2689.00,0.5556
2688.00,0.5570
2687.00,0.5581
2686.00,0.5591
2685.00,0.5599
2684.00,0.5605
2683.00,0.5610
2682.00,0.5615
2681.00,0.5618
2680.00,0.5621
2679.00,0.5624
2678.00,0.5628
2677.00,0.5632
2676.00,0.5636
2675.00,0.5640
2674.00,0.5643
2673.00,0.5644
2672.00,0.5644
2671.00,0.5641
2670.00,0.5633
2669.00,0.5622
2668.00,0.5606
2667.00,0.5586
2666.00,0.5562
2665.00,0.5535
2664.00,0.5507
2663.00,0.5478
2662.00,0.5448
2661.00,0.5419
2660.00,0.5391
2659.00,0.5364
2658.00,0.5338
2657.00,0.5313
2656.00,0.5287
2655.00,0.5261
2654.00,0.5236
2653.00,0.5213
2652.00,0.5192
2651.00,0.5172
2650.00,0.5154
2649.00,0.5136
2648.00,0.5119
2647.00,0.5103
2646.00,0.5088
2645.00,0.5074
2644.00,0.5061
2643.00,0.5048
2642.00,0.5036
2641.00,0.5024
2640.00,0.5014
2639.00,0.5004
2638.00,0.4993
2637.00,0.4983
2636.00,0.4972
2635.00,0.4960
2634.00,0.4948
2633.00,0.4935
2632.00,0.4921
2631.00,0.4907
2630.00,0.4892
2629.00,0.4878
2628.00,0.4864
2627.00,0.4851
2626.00,0.4837
2625.00,0.4823
2624.00,0.4810
2623.00,0.4797
2622.00,0.4785
2621.00,0.4773
2620.00,0.4762
2619.00,0.4751
2618.00,0.4740
2617.00,0.4729
2616.00,0.4719
2615.00,0.4708
2614.00,0.4697
2613.00,0.4687
2612.00,0.4677
2611.00,0.4667
2610.00,0.4658
2609.00,0.4650
2608.00,0.4642
2607.00,0.4633
2606.00,0.4625
2605.00,0.4616
2604.00,0.4608
2603.00,0.4600
2602.00,0.4592
2601.00,0.4583
2600.00,0.4574
2599.00,0.4563
2598.00,0.4553
2597.00,0.4542
2596.00,0.4531
2595.00,0.4519
2594.00,0.4506
2593.00,0.4493
2592.00,0.4479
2591.00,0.4466
2590.00,0.4453
2589.00,0.4440
2588.00,0.4428
2587.00,0.4415
2586.00,0.4402
2585.00,0.4389
2584.00,0.4375
2583.00,0.4361
2582.00,0.4346
2581.00,0.4330
2580.00,0.4315
2579.00,0.4300
2578.00,0.4285
2577.00,0.4270
2576.00,0.4256
2575.00,0.4242
2574.00,0.4228
2573.00,0.4214
2572.00,0.4201
2571.00,0.4189
2570.00,0.4177
2569.00,0.4165
2568.00,0.4153
2567.00,0.4142
2566.00,0.4131
2565.00,0.4119
2564.00,0.4107
2563.00,0.4094
2562.00,0.4081
2561.00,0.4069
2560.00,0.4056
2559.00,0.4044
2558.00,0.4032
2557.00,0.4021
2556.00,0.4010
2555.00,0.3999
2554.00,0.3987
2553.00,0.3977
2552.00,0.3966
2551.00,0.3956
2550.00,0.3947
2549.00,0.3939
2548.00,0.3931
2547.00,0.3924
2546.00,0.3918
2545.00,0.3912
2544.00,0.3906
2543.00,0.3901
2542.00,0.3896
2541.00,0.3891
2540.00,0.3887
2539.00,0.3884
2538.00,0.3881
2537.00,0.3877
2536.00,0.3873
2535.00,0.3868
2534.00,0.3862
2533.00,0.3855
2532.00,0.3847
2531.00,0.3838
2530.00,0.3827
2529.00,0.3815
2528.00,0.3803
2527.00,0.3790
2526.00,0.3777
2525.00,0.3764
2524.00,0.3751
2523.00,0.3737
2522.00,0.3723
2521.00,0.3710
2520.00,0.3697
2519.00,0.3684
2518.00,0.3672
2517.00,0.3661
2516.00,0.3651
2515.00,0.3640
2514.00,0.3628
2513.00,0.3616
2512.00,0.3604
2511.00,0.3593
2510.00,0.3583
2509.00,0.3575
2508.00,0.3567
2507.00,0.3560
2506.00,0.3553
2505.00,0.3548
2504.00,0.3542
2503.00,0.3538
2502.00,0.3534
2501.00,0.3530
2500.00,0.3527
2499.00,0.3524
2498.00,0.3521
2497.00,0.3517
2496.00,0.3514
2495.00,0.3510
2494.00,0.3506
2493.00,0.3502
2492.00,0.3497
2491.00,0.3493
2490.00,0.3488
2489.00,0.3483
2488.00,0.3478
2487.00,0.3472
2486.00,0.3467
2485.00,0.3461
2484.00,0.3456
2483.00,0.3450
2482.00,0.3445
2481.00,0.3439
2480.00,0.3433
2479.00,0.3427
2478.00,0.3421
2477.00,0.3415
2476.00,0.3409
2475.00,0.3403
2474.00,0.3397
2473.00,0.3390
2472.00,0.3384
2471.00,0.3378
2470.00,0.3373
2469.00,0.3369
2468.00,0.3366
2467.00,0.3363
2466.00,0.3360
2465.00,0.3357
2464.00,0.3354
2463.00,0.3352
2462.00,0.3349
2461.00,0.3347
2460.00,0.3347
2459.00,0.3346
2458.00,0.3346
2457.00,0.3346
2456.00,0.3346
2455.00,0.3347
2454.00,0.3348
2453.00,0.3348
2452.00,0.3349
2451.00,0.3350
2450.00,0.3350
2449.00,0.3350
2448.00,0.3350
2447.00,0.3349
2446.00,0.3349
2445.00,0.3349
2444.00,0.3350
2443.00,0.3350
2442.00,0.3351
2441.00,0.3352
2440.00,0.3353
2439.00,0.3353
2438.00,0.3353
2437.00,0.3353
2436.00,0.3353
2435.00,0.3352
2434.00,0.3352
2433.00,0.3352
2432.00,0.3353
2431.00,0.3354
2430.00,0.3356
2429.00,0.3357
2428.00,0.3359
2427.00,0.3361
2426.00,0.3362
2425.00,0.3364
2424.00,0.3366
2423.00,0.3367
2422.00,0.3368
2421.00,0.3370
2420.00,0.3371
2419.00,0.3372
2418.00,0.3373
2417.00,0.3373
2416.00,0.3374
2415.00,0.3374
2414.00,0.3375
2413.00,0.3375
2412.00,0.3375
2411.00,0.3374
2410.00,0.3374
2409.00,0.3374
2408.00,0.3373
2407.00,0.3372
2406.00,0.3372
2405.00,0.3371
2404.00,0.3371
2403.00,0.3371
2402.00,0.3372
2401.00,0.3373
2400.00,0.3373
2399.00,0.3374
2398.00,0.3375
2397.00,0.3376
2396.00,0.3377
2395.00,0.3378
2394.00,0.3380
2393.00,0.3382
2392.00,0.3385
2391.00,0.3388
2390.00,0.3391
2389.00,0.3395
2388.00,0.3398
2387.00,0.3401
2386.00,0.3404
2385.00,0.3407
2384.00,0.3411
2383.00,0.3414
2382.00,0.3418
2381.00,0.3422
2380.00,0.3427
2379.00,0.3431
2378.00,0.3434
2377.00,0.3436
2376.00,0.3437
2375.00,0.3438
2374.00,0.3437
2373.00,0.3436
2372.00,0.3436
2371.00,0.3435
2370.00,0.3435
2369.00,0.3435
2368.00,0.3436
2367.00,0.3438
2366.00,0.3440
2365.00,0.3441
2364.00,0.3443
2363.00,0.3445
2362.00,0.3447
2361.00,0.3448
2360.00,0.3448
2359.00,0.3447
2358.00,0.3447
2357.00,0.3447
2356.00,0.3447
2355.00,0.3447
2354.00,0.3448
2353.00,0.3449
2352.00,0.3450
2351.00,0.3450
2350.00,0.3448
2349.00,0.3444
2348.00,0.3442
2347.00,0.3442
2346.00,0.3445
2345.00,0.3448
2344.00,0.3448
2343.00,0.3446
2342.00,0.3443
2341.00,0.3442
2340.00,0.3440
2339.00,0.3439
2338.00,0.3438
2337.00,0.3437
2336.00,0.3435
2335.00,0.3434
2334.00,0.3432
2333.00,0.3432
2332.00,0.3432
2331.00,0.3432
2330.00,0.3431
2329.00,0.3427
2328.00,0.3424
2327.00,0.3420
2326.00,0.3417
2325.00,0.3415
2324.00,0.3413
2323.00,0.3411
2322.00,0.3408
2321.00,0.3405
2320.00,0.3400
2319.00,0.3394
2318.00,0.3388
2317.00,0.3382
2316.00,0.3377
2315.00,0.3373
2314.00,0.3370
2313.00,0.3367
2312.00,0.3364
2311.00,0.3359
2310.00,0.3353
2309.00,0.3348
2308.00,0.3342
2307.00,0.3336
2306.00,0.3331
2305.00,0.3326
2304.00,0.3321
2303.00,0.3317
2302.00,0.3312
2301.00,0.3308
2300.00,0.3303
2299.00,0.3299
2298.00,0.3295
2297.00,0.3291
2296.00,0.3287
2295.00,0.3284
2294.00,0.3280
2293.00,0.3277
2292.00,0.3272
2291.00,0.3267
2290.00,0.3262
2289.00,0.3257
2288.00,0.3252
2287.00,0.3247
2286.00,0.3242
2285.00,0.3238
2284.00,0.3233
2283.00,0.3229
2282.00,0.3225
2281.00,0.3221
2280.00,0.3218
2279.00,0.3215
2278.00,0.3212
2277.00,0.3209
2276.00,0.3207
2275.00,0.3205
2274.00,0.3203
2273.00,0.3201
2272.00,0.3200
2271.00,0.3199
2270.00,0.3198
2269.00,0.3198
2268.00,0.3197
2267.00,0.3197
2266.00,0.3197
2265.00,0.3197
2264.00,0.3197
2263.00,0.3196
2262.00,0.3195
2261.00,0.3194
2260.00,0.3192
2259.00,0.3191
2258.00,0.3189
2257.00,0.3187
2256.00,0.3184
2255.00,0.3182
2254.00,0.3179
2253.00,0.3177
2252.00,0.3173
2251.00,0.3170
2250.00,0.3167
2249.00,0.3164
2248.00,0.3160
2247.00,0.3156
2246.00,0.3152
2245.00,0.3148
2244.00,0.3145
2243.00,0.3141
2242.00,0.3138
2241.00,0.3135
2240.00,0.3131
2239.00,0.3128
2238.00,0.3124
2237.00,0.3121
2236.00,0.3119
2235.00,0.3116
2234.00,0.3114
2233.00,0.3113
2232.00,0.3112
2231.00,0.3111
2230.00,0.3110
2229.00,0.3110
2228.00,0.3110
2227.00,0.3111
2226.00,0.3111
2225.00,0.3112
2224.00,0.3112
2223.00,0.3113
2222.00,0.3113
2221.00,0.3114
2220.00,0.3114
2219.00,0.3114
2218.00,0.3114
2217.00,0.3113
2216.00,0.3113
2215.00,0.3112
2214.00,0.3111
2213.00,0.3111
2212.00,0.3110
2211.00,0.3109
2210.00,0.3108
2209.00,0.3107
2208.00,0.3106
2207.00,0.3105
2206.00,0.3105
2205.00,0.3104
2204.00,0.3103
2203.00,0.3102
2202.00,0.3101
2201.00,0.3101
2200.00,0.3101
2199.00,0.3101
2198.00,0.3102
2197.00,0.3102
2196.00,0.3103
2195.00,0.3104
2194.00,0.3104
2193.00,0.3106
2192.00,0.3108
2191.00,0.3110
2190.00,0.3111
2189.00,0.3113
2188.00,0.3115
2187.00,0.3117
2186.00,0.3118
2185.00,0.3120
2184.00,0.3122
2183.00,0.3124
2182.00,0.3126
2181.00,0.3127
2180.00,0.3128
2179.00,0.3129
2178.00,0.3129
2177.00,0.3130
2176.00,0.3131
2175.00,0.3131
2174.00,0.3132
2173.00,0.3131
2172.00,0.3130
2171.00,0.3129
2170.00,0.3129
2169.00,0.3128
2168.00,0.3128
2167.00,0.3127
2166.00,0.3125
2165.00,0.3125
2164.00,0.3125
2163.00,0.3125
2162.00,0.3125
2161.00,0.3125
2160.00,0.3124
2159.00,0.3122
2158.00,0.3121
2157.00,0.3121
2156.00,0.3121
2155.00,0.3120
2154.00,0.3120
2153.00,0.3119
2152.00,0.3119
2151.00,0.3119
2150.00,0.3118
2149.00,0.3117
2148.00,0.3116
2147.00,0.3112
2146.00,0.3108
2145.00,0.3103
2144.00,0.3097
2143.00,0.3090
2142.00,0.3084
2141.00,0.3077
2140.00,0.3071
2139.00,0.3066
2138.00,0.3060
2137.00,0.3056
2136.00,0.3051
2135.00,0.3047
2134.00,0.3043
2133.00,0.3039
2132.00,0.3035
2131.00,0.3032
2130.00,0.3029
2129.00,0.3026
2128.00,0.3023
2127.00,0.3020
2126.00,0.3017
2125.00,0.3015
2124.00,0.3013
2123.00,0.3011
2122.00,0.3009
2121.00,0.3008
2120.00,0.3007
2119.00,0.3006
2118.00,0.3005
2117.00,0.3004
2116.00,0.3003
2115.00,0.3002
2114.00,0.3002
2113.00,0.3002
2112.00,0.3002
2111.00,0.3001
2110.00,0.3001
2109.00,0.3001
2108.00,0.3002
2107.00,0.3002
2106.00,0.3002
2105.00,0.3003
2104.00,0.3004
2103.00,0.3004
2102.00,0.3004
2101.00,0.3004
2100.00,0.3004
2099.00,0.3003
2098.00,0.3002
2097.00,0.3002
2096.00,0.3001
2095.00,0.3001
2094.00,0.3000
2093.00,0.3000
2092.00,0.2998
2091.00,0.2997
2090.00,0.2996
2089.00,0.2994
2088.00,0.2993
2087.00,0.2992
2086.00,0.2991
2085.00,0.2991
2084.00,0.2990
2083.00,0.2990
2082.00,0.2989
2081.00,0.2989
2080.00,0.2989
2079.00,0.2989
2078.00,0.2990
2077.00,0.2991
2076.00,0.2992
2075.00,0.2993
2074.00,0.2994
2073.00,0.2995
2072.00,0.2997
2071.00,0.2998
2070.00,0.3000
2069.00,0.3002
2068.00,0.3004
2067.00,0.3006
2066.00,0.3008
2065.00,0.3011
2064.00,0.3013
2063.00,0.3016
2062.00,0.3018
2061.00,0.3020
2060.00,0.3023
2059.00,0.3025
2058.00,0.3028
2057.00,0.3031
2056.00,0.3034
2055.00,0.3038
2054.00,0.3041
2053.00,0.3045
2052.00,0.3049
2051.00,0.3053
2050.00,0.3057
2049.00,0.3061
2048.00,0.3065
2047.00,0.3069
2046.00,0.3073
2045.00,0.3076
2044.00,0.3079
2043.00,0.3081
2042.00,0.3083
2041.00,0.3085
2040.00,0.3087
2039.00,0.3088
2038.00,0.3088
2037.00,0.3090
2036.00,0.3091
2035.00,0.3093
2034.00,0.3095
2033.00,0.3098
2032.00,0.3101
2031.00,0.3105
2030.00,0.3109
2029.00,0.3113
2028.00,0.3117
2027.00,0.3120
2026.00,0.3123
2025.00,0.3124
2024.00,0.3124
2023.00,0.3122
2022.00,0.3119
2021.00,0.3114
2020.00,0.3106
2019.00,0.3097
2018.00,0.3087
2017.00,0.3075
2016.00,0.3062
2015.00,0.3050
2014.00,0.3037
2013.00,0.3025
2012.00,0.3015
2011.00,0.3005
2010.00,0.2996
2009.00,0.2987
2008.00,0.2980
2007.00,0.2973
2006.00,0.2968
2005.00,0.2963
2004.00,0.2958
2003.00,0.2954
2002.00,0.2951
2001.00,0.2948
2000.00,0.2945
1999.00,0.2943
1998.00,0.2941
1997.00,0.2939
1996.00,0.2938
1995.00,0.2937
1994.00,0.2937
1993.00,0.2936
1992.00,0.2936
1991.00,0.2936
1990.00,0.2935
1989.00,0.2934
1988.00,0.2934
1987.00,0.2933
1986.00,0.2932
1985.00,0.2932
1984.00,0.2932
1983.00,0.2932
1982.00,0.2931
1981.00,0.2930
1980.00,0.2930
1979.00,0.2929
1978.00,0.2928
1977.00,0.2928
1976.00,0.2928
1975.00,0.2927
1974.00,0.2927
1973.00,0.2926
1972.00,0.2925
1971.00,0.2924
1970.00,0.2923
1969.00,0.2922
1968.00,0.2922
1967.00,0.2921
1966.00,0.2920
1965.00,0.2919
1964.00,0.2918
1963.00,0.2918
1962.00,0.2918
1961.00,0.2918
1960.00,0.2919
1959.00,0.2919
1958.00,0.2919
1957.00,0.2919
1956.00,0.2920
1955.00,0.2921
1954.00,0.2922
1953.00,0.2924
1952.00,0.2926
1951.00,0.2927
1950.00,0.2928
1949.00,0.2930
1948.00,0.2931
1947.00,0.2932
1946.00,0.2934
1945.00,0.2937
1944.00,0.2940
1943.00,0.2942
1942.00,0.2945
1941.00,0.2947
1940.00,0.2949
1939.00,0.2951
1938.00,0.2952
1937.00,0.2953
1936.00,0.2953
1935.00,0.2953
1934.00,0.2953
1933.00,0.2953
1932.00,0.2953
1931.00,0.2953
1930.00,0.2954
1929.00,0.2954
1928.00,0.2955
1927.00,0.2954
1926.00,0.2954
1925.00,0.2955
1924.00,0.2957
1923.00,0.2959
1922.00,0.2962
1921.00,0.2964
1920.00,0.2966
1919.00,0.2968
1918.00,0.2969
1917.00,0.2970
1916.00,0.2971
1915.00,0.2972
1914.00,0.2972
1913.00,0.2972
1912.00,0.2972
1911.00,0.2972
1910.00,0.2972
1909.00,0.2973
1908.00,0.2974
1907.00,0.2974
1906.00,0.2974
1905.00,0.2974
1904.00,0.2974
1903.00,0.2975
1902.00,0.2976
1901.00,0.2977
1900.00,0.2978
1899.00,0.2978
1898.00,0.2979
1897.00,0.2981
1896.00,0.2982
1895.00,0.2982
1894.00,0.2981
1893.00,0.2981
1892.00,0.2980
1891.00,0.2980
1890.00,0.2980
1889.00,0.2980
1888.00,0.2980
1887.00,0.2981
1886.00,0.2981
1885.00,0.2980
1884.00,0.2980
1883.00,0.2979
1882.00,0.2979
1881.00,0.2979
1880.00,0.2979
1879.00,0.2979
1878.00,0.2979
1877.00,0.2979
1876.00,0.2978
1875.00,0.2977
1874.00,0.2976
1873.00,0.2975
1872.00,0.2975
1871.00,0.2974
1870.00,0.2973
1869.00,0.2972
1868.00,0.2973
1867.00,0.2974
1866.00,0.2974
1865.00,0.2975
1864.00,0.2975
1863.00,0.2974
1862.00,0.2972
1861.00,0.2971
1860.00,0.2969
1859.00,0.2967
1858.00,0.2964
1857.00,0.2962
1856.00,0.2961
1855.00,0.2960
1854.00,0.2958
1853.00,0.2956
1852.00,0.2955
1851.00,0.2953
1850.00,0.2950
1849.00,0.2947
1848.00,0.2945
1847.00,0.2944
1846.00,0.2943
1845.00,0.2942
1844.00,0.2942
1843.00,0.2940
1842.00,0.2940
1841.00,0.2940
1840.00,0.2941
1839.00,0.2940
1838.00,0.2939
1837.00,0.2939
1836.00,0.2938
1835.00,0.2937
1834.00,0.2934
1833.00,0.2931
1832.00,0.2929
1831.00,0.2928
1830.00,0.2929
1829.00,0.2931
1828.00,0.2933
1827.00,0.2935
1826.00,0.2937
1825.00,0.2940
1824.00,0.2942
1823.00,0.2944
1822.00,0.2945
1821.00,0.2946
1820.00,0.2947
1819.00,0.2948
1818.00,0.2948
1817.00,0.2949
1816.00,0.2949
1815.00,0.2949
1814.00,0.2948
1813.00,0.2948
1812.00,0.2947
1811.00,0.2947
1810.00,0.2947
1809.00,0.2949
1808.00,0.2950
1807.00,0.2951
1806.00,0.2951
1805.00,0.2952
1804.00,0.2953
1803.00,0.2954
1802.00,0.2953
1801.00,0.2954
1800.00,0.2957
1799.00,0.2959
1798.00,0.2961
1797.00,0.2963
1796.00,0.2965
1795.00,0.2968
1794.00,0.2971
1793.00,0.2976
1792.00,0.2982
1791.00,0.2987
1790.00,0.2992
1789.00,0.2998
1788.00,0.3004
1787.00,0.3010
1786.00,0.3014
1785.00,0.3019
1784.00,0.3023
1783.00,0.3027
1782.00,0.3032
1781.00,0.3037
1780.00,0.3042
1779.00,0.3046
1778.00,0.3048
1777.00,0.3050
1776.00,0.3051
1775.00,0.3052
1774.00,0.3051
1773.00,0.3052
1772.00,0.3055
1771.00,0.3060
1770.00,0.3066
1769.00,0.3071
1768.00,0.3073
1767.00,0.3074
1766.00,0.3074
1765.00,0.3076
1764.00,0.3080
1763.00,0.3083
1762.00,0.3087
1761.00,0.3092
1760.00,0.3098
1759.00,0.3106
1758.00,0.3115
1757.00,0.3125
1756.00,0.3136
1755.00,0.3149
1754.00,0.3163
1753.00,0.3176
1752.00,0.3188
1751.00,0.3198
1750.00,0.3209
1749.00,0.3223
1748.00,0.3237
1747.00,0.3249
1746.00,0.3259
1745.00,0.3265
1744.00,0.3269
1743.00,0.3271
1742.00,0.3271
1741.00,0.3270
1740.00,0.3268
1739.00,0.3264
1738.00,0.3261
1737.00,0.3261
1736.00,0.3260
1735.00,0.3254
1734.00,0.3245
1733.00,0.3236
1732.00,0.3230
1731.00,0.3227
1730.00,0.3225
1729.00,0.3225
1728.00,0.3225
1727.00,0.3225
1726.00,0.3227
1725.00,0.3229
1724.00,0.3233
1723.00,0.3237
1722.00,0.3241
1721.00,0.3247
1720.00,0.3255
1719.00,0.3263
1718.00,0.3272
1717.00,0.3283
1716.00,0.3293
1715.00,0.3305
1714.00,0.3317
1713.00,0.3330
1712.00,0.3343
1711.00,0.3355
1710.00,0.3368
1709.00,0.3382
1708.00,0.3396
1707.00,0.3410
1706.00,0.3424
1705.00,0.3437
1704.00,0.3447
1703.00,0.3453
1702.00,0.3451
1701.00,0.3441
1700.00,0.3427
1699.00,0.3417
1698.00,0.3415
1697.00,0.3417
1696.00,0.3415
1695.00,0.3407
1694.00,0.3401
1693.00,0.3399
1692.00,0.3399
1691.00,0.3400
1690.00,0.3399
1689.00,0.3401
1688.00,0.3406
1687.00,0.3409
1686.00,0.3410
1685.00,0.3413
1684.00,0.3419
1683.00,0.3425
1682.00,0.3431
1681.00,0.3439
1680.00,0.3446
1679.00,0.3451
1678.00,0.3457
1677.00,0.3464
1676.00,0.3472
1675.00,0.3479
1674.00,0.3485
1673.00,0.3492
1672.00,0.3500
1671.00,0.3508
1670.00,0.3520
1669.00,0.3533
1668.00,0.3545
1667.00,0.3554
1666.00,0.3562
1665.00,0.3569
1664.00,0.3577
1663.00,0.3586
1662.00,0.3594
1661.00,0.3603
1660.00,0.3611
1659.00,0.3616
1658.00,0.3620
1657.00,0.3627
1656.00,0.3636
1655.00,0.3645
1654.00,0.3658
1653.00,0.3676
1652.00,0.3686
1651.00,0.3690
1650.00,0.3698
1649.00,0.3713
1648.00,0.3734
1647.00,0.3758
1646.00,0.3782
1645.00,0.3804
1644.00,0.3823
1643.00,0.3842
1642.00,0.3859
1641.00,0.3877
1640.00,0.3895
1639.00,0.3914
1638.00,0.3935
1637.00,0.3963
1636.00,0.4002
1635.00,0.4042
1634.00,0.4079
1633.00,0.4115
1632.00,0.4152
1631.00,0.4187
1630.00,0.4225
1629.00,0.4268
1628.00,0.4318
1627.00,0.4370
1626.00,0.4424
1625.00,0.4486
1624.00,0.4560
1623.00,0.4646
1622.00,0.4738
1621.00,0.4834
1620.00,0.4934
1619.00,0.5040
1618.00,0.5163
1617.00,0.5312
1616.00,0.5480
1615.00,0.5649
1614.00,0.5820
1613.00,0.6007
1612.00,0.6217
1611.00,0.6443
1610.00,0.6674
1609.00,0.6906
1608.00,0.7133
1607.00,0.7350
1606.00,0.7567
1605.00,0.7810
1604.00,0.8102
1603.00,0.8447
1602.00,0.8843
1601.00,0.9284
1600.00,0.9745
1599.00,1.0192
1598.00,1.0621
1597.00,1.1075
1596.00,1.1605
1595.00,1.2234
1594.00,1.2988
1593.00,1.3919
1592.00,1.5083
1591.00,1.6493
1590.00,1.8161
1589.00,2.0207
1588.00,2.2815
1587.00,2.5953
1586.00,2.9094
1585.00,3.2529
1584.00,3.9990
1583.00,3.7915
1582.00,4.0058
1581.00,4.3399
1580.00,3.8009
1579.00,3.7831
1578.00,4.1319
1577.00,3.7671
1576.00,4.1003
1575.00,4.2327
1574.00,3.5595
1573.00,3.1808
1572.00,3.0083
1571.00,2.8032
1570.00,2.6155
1569.00,2.5276
1568.00,2.5334
1567.00,2.5834
1566.00,2.6563
1565.00,2.8067
1564.00,3.1238
1563.00,3.6192
1562.00,3.7200
1561.00,3.5623
1560.00,3.4910
1559.00,3.0680
1558.00,2.6419
1557.00,2.3540
1556.00,2.1114
1555.00,1.8756
1554.00,1.6686
1553.00,1.5058
1552.00,1.3781
1551.00,1.2701
1550.00,1.1764
1549.00,1.0997
1548.00,1.0394
1547.00,0.9900
1546.00,0.9466
1545.00,0.9083
1544.00,0.8748
1543.00,0.8441
1542.00,0.8142
1541.00,0.7853
1540.00,0.7582
1539.00,0.7343
1538.00,0.7159
1537.00,0.7035
1536.00,0.6953
1535.00,0.6895
1534.00,0.6863
1533.00,0.6876
1532.00,0.6938
1531.00,0.7035
1530.00,0.7162
1529.00,0.7317
1528.00,0.7484
1527.00,0.7641
1526.00,0.7777
1525.00,0.7903
1524.00,0.8038
1523.00,0.8206
1522.00,0.8434
1521.00,0.8723
1520.00,0.9019
1519.00,0.9262
1518.00,0.9426
1517.00,0.9487
1516.00,0.9416
1515.00,0.9210
1514.00,0.8903
1513.00,0.8544
1512.00,0.8176
1511.00,0.7840
1510.00,0.7559
1509.00,0.7334
1508.00,0.7157
1507.00,0.7028
1506.00,0.6953
1505.00,0.6939
1504.00,0.6974
1503.00,0.7037
1502.00,0.7112
1501.00,0.7187
1500.00,0.7248
1499.00,0.7282
1498.00,0.7286
1497.00,0.7275
1496.00,0.7263
1495.00,0.7260
1494.00,0.7278
1493.00,0.7327
1492.00,0.7415
1491.00,0.7540
1490.00,0.7706
1489.00,0.7915
1488.00,0.8163
1487.00,0.8438
1486.00,0.8734
1485.00,0.9048
1484.00,0.9375
1483.00,0.9711
1482.00,1.0065
1481.00,1.0452
1480.00,1.0880
1479.00,1.1358
1478.00,1.1927
1477.00,1.2647
1476.00,1.3560
1475.00,1.4699
1474.00,1.6163
1473.00,1.8152
1472.00,2.0852
1471.00,2.4272
1470.00,2.8244
1469.00,3.2654
1468.00,3.7134
1467.00,3.8278
1466.00,3.7065
1465.00,3.7238
1464.00,3.8491
1463.00,4.0034
1462.00,3.9101
1461.00,3.8715
1460.00,4.0922
1459.00,4.1052
1458.00,3.8811
1457.00,3.8582
1456.00,3.7160
1455.00,3.5908
1454.00,3.5606
1453.00,3.5596
1452.00,3.6101
1451.00,3.7543
1450.00,3.7325
1449.00,3.6474
1448.00,3.6482
1447.00,3.5894
1446.00,3.5200
1445.00,3.5406
1444.00,3.6145
1443.00,3.5768
1442.00,3.4404
1441.00,3.3693
1440.00,3.3462
1439.00,3.2958
1438.00,3.2007
1437.00,3.0822
1436.00,2.9087
1435.00,2.6919
1434.00,2.4800
1433.00,2.2793
1432.00,2.0840
1431.00,1.9017
1430.00,1.7439
1429.00,1.6146
1428.00,1.5117
1427.00,1.4316
1426.00,1.3711
1425.00,1.3288
1424.00,1.3044
1423.00,1.2975
1422.00,1.3061
1421.00,1.3284
1420.00,1.3623
1419.00,1.4033
1418.00,1.4469
1417.00,1.4957
1416.00,1.5573
1415.00,1.6330
1414.00,1.7076
1413.00,1.7439
1412.00,1.7065
1411.00,1.6077
1410.00,1.4919
1409.00,1.3882
1408.00,1.3029
1407.00,1.2320
1406.00,1.1696
1405.00,1.1114
1404.00,1.0568
1403.00,1.0070
1402.00,0.9631
1401.00,0.9242
1400.00,0.8900
1399.00,0.8615
1398.00,0.8398
1397.00,0.8244
1396.00,0.8130
1395.00,0.8033
1394.00,0.7937
1393.00,0.7840
1392.00,0.7756
1391.00,0.7703
1390.00,0.7702
1389.00,0.7776
1388.00,0.7950
1387.00,0.8246
1386.00,0.8667
1385.00,0.9224
1384.00,0.9955
1383.00,1.0918
1382.00,1.2161
1381.00,1.3692
1380.00,1.5430
1379.00,1.7049
1378.00,1.7867
1377.00,1.7460
1376.00,1.6290
1375.00,1.4990
1374.00,1.3885
1373.00,1.3084
1372.00,1.2568
1371.00,1.2254
1370.00,1.2053
1369.00,1.1894
1368.00,1.1740
1367.00,1.1567
1366.00,1.1358
1365.00,1.1102
1364.00,1.0795
1363.00,1.0454
1362.00,1.0111
1361.00,0.9802
1360.00,0.9546
1359.00,0.9347
1358.00,0.9203
1357.00,0.9106
1356.00,0.9048
1355.00,0.9021
1354.00,0.9015
1353.00,0.9016
1352.00,0.9012
1351.00,0.8990
1350.00,0.8952
1349.00,0.8910
1348.00,0.8885
1347.00,0.8893
1346.00,0.8946
1345.00,0.9041
1344.00,0.9166
1343.00,0.9295
1342.00,0.9394
1341.00,0.9428
1340.00,0.9369
1339.00,0.9211
1338.00,0.8965
1337.00,0.8658
1336.00,0.8322
1335.00,0.7991
1334.00,0.7693
1333.00,0.7447
1332.00,0.7261
1331.00,0.7141
1330.00,0.7095
1329.00,0.7134
1328.00,0.7282
1327.00,0.7568
1326.00,0.7999
1325.00,0.8508
1324.00,0.8921
1323.00,0.9038
1322.00,0.8820
1321.00,0.8433
1320.00,0.8067
1319.00,0.7813
1318.00,0.7677
1317.00,0.7627
1316.00,0.7634
1315.00,0.7680
1314.00,0.7754
1313.00,0.7848
1312.00,0.7956
1311.00,0.8069
1310.00,0.8179
1309.00,0.8285
1308.00,0.8395
1307.00,0.8525
1306.00,0.8698
1305.00,0.8916
1304.00,0.9133
1303.00,0.9256
1302.00,0.9216
1301.00,0.9049
1300.00,0.8869
1299.00,0.8780
1298.00,0.8802
1297.00,0.8866
1296.00,0.8857
1295.00,0.8698
1294.00,0.8410
1293.00,0.8084
1292.00,0.7797
1291.00,0.7576
1290.00,0.7408
1289.00,0.7273
1288.00,0.7155
1287.00,0.7041
1286.00,0.6923
1285.00,0.6794
1284.00,0.6658
1283.00,0.6519
1282.00,0.6386
1281.00,0.6266
1280.00,0.6168
1279.00,0.6093
1278.00,0.6037
1277.00,0.5996
1276.00,0.5968
1275.00,0.5956
1274.00,0.5962
1273.00,0.5985
1272.00,0.6025
1271.00,0.6075
1270.00,0.6122
1269.00,0.6148
1268.00,0.6141
1267.00,0.6095
1266.00,0.6019
1265.00,0.5929
1264.00,0.5846
1263.00,0.5781
1262.00,0.5739
1261.00,0.5717
1260.00,0.5714
1259.00,0.5726
1258.00,0.5744
1257.00,0.5758
1256.00,0.5762
1255.00,0.5753
1254.00,0.5733
1253.00,0.5704
1252.00,0.5669
1251.00,0.5629
1250.00,0.5585
1249.00,0.5539
1248.00,0.5494
1247.00,0.5453
1246.00,0.5414
1245.00,0.5374
1244.00,0.5329
1243.00,0.5278
1242.00,0.5219
1241.00,0.5153
1240.00,0.5085
1239.00,0.5024
1238.00,0.4972
1237.00,0.4932
1236.00,0.4905
1235.00,0.4893
1234.00,0.4896
1233.00,0.4917
1232.00,0.4957
1231.00,0.5018
1230.00,0.5094
1229.00,0.5178
1228.00,0.5262
1227.00,0.5343
1226.00,0.5420
1225.00,0.5493
1224.00,0.5565
1223.00,0.5638
1222.00,0.5708
1221.00,0.5759
1220.00,0.5763
1219.00,0.5700
1218.00,0.5581
1217.00,0.5440
1216.00,0.5316
1215.00,0.5227
1214.00,0.5165
1213.00,0.5111
1212.00,0.5050
1211.00,0.4981
1210.00,0.4908
1209.00,0.4842
1208.00,0.4793
1207.00,0.4768
1206.00,0.4758
1205.00,0.4754
1204.00,0.4744
1203.00,0.4725
1202.00,0.4702
1201.00,0.4686
1200.00,0.4682
1199.00,0.4696
1198.00,0.4723
1197.00,0.4760
1196.00,0.4810
1195.00,0.4874
1194.00,0.4955
1193.00,0.5049
1192.00,0.5147
1191.00,0.5233
1190.00,0.5287
1189.00,0.5295
1188.00,0.5259
1187.00,0.5195
1186.00,0.5124
1185.00,0.5060
1184.00,0.5009
1183.00,0.4970
1182.00,0.4940
1181.00,0.4913
1180.00,0.4885
1179.00,0.4854
1178.00,0.4817
1177.00,0.4771
1176.00,0.4716
1175.00,0.4656
1174.00,0.4592
1173.00,0.4529
1172.00,0.4469
1171.00,0.4415
1170.00,0.4368
1169.00,0.4326
1168.00,0.4288
1167.00,0.4255
1166.00,0.4228
1165.00,0.4205
1164.00,0.4187
1163.00,0.4179
1162.00,0.4183
1161.00,0.4203
1160.00,0.4242
1159.00,0.4306
1158.00,0.4408
1157.00,0.4564
1156.00,0.4812
1155.00,0.5191
1154.00,0.5704
1153.00,0.6247
1152.00,0.6596
1151.00,0.6564
1150.00,0.6214
1149.00,0.5782
1148.00,0.5442
1147.00,0.5245
1146.00,0.5161
1145.00,0.5154
1144.00,0.5202
1143.00,0.5300
1142.00,0.5451
1141.00,0.5664
1140.00,0.5935
1139.00,0.6230
1138.00,0.6489
1137.00,0.6649
1136.00,0.6694
1135.00,0.6645
1134.00,0.6539
1133.00,0.6393
1132.00,0.6211
1131.00,0.5998
1130.00,0.5770
1129.00,0.5556
1128.00,0.5378
1127.00,0.5248
1126.00,0.5166
1125.00,0.5126
1124.00,0.5118
1123.00,0.5131
1122.00,0.5152
1121.00,0.5177
1120.00,0.5209
1119.00,0.5251
1118.00,0.5311
1117.00,0.5393
1116.00,0.5490
1115.00,0.5581
1114.00,0.5630
1113.00,0.5609
1112.00,0.5513
1111.00,0.5367
1110.00,0.5203
1109.00,0.5050
1108.00,0.4924
1107.00,0.4830
1106.00,0.4767
1105.00,0.4729
1104.00,0.4712
1103.00,0.4708
1102.00,0.4715
1101.00,0.4729
1100.00,0.4746
1099.00,0.4762
1098.00,0.4770
1097.00,0.4768
1096.00,0.4756
1095.00,0.4739
1094.00,0.4718
1093.00,0.4698
1092.00,0.4683
1091.00,0.4679
1090.00,0.4686
1089.00,0.4707
1088.00,0.4744
1087.00,0.4801
1086.00,0.4879
1085.00,0.4980
1084.00,0.5102
1083.00,0.5243
1082.00,0.5397
1081.00,0.5555
1080.00,0.5707
1079.00,0.5837
1078.00,0.5930
1077.00,0.5976
1076.00,0.5974
1075.00,0.5929
1074.00,0.5855
1073.00,0.5767
1072.00,0.5676
1071.00,0.5586
1070.00,0.5500
1069.00,0.5421
1068.00,0.5355
1067.00,0.5308
1066.00,0.5278
1065.00,0.5264
1064.00,0.5263
1063.00,0.5268
1062.00,0.5275
1061.00,0.5280
1060.00,0.5280
1059.00,0.5275
1058.00,0.5266
1057.00,0.5257
1056.00,0.5250
1055.00,0.5250
1054.00,0.5256
1053.00,0.5268
1052.00,0.5288
1051.00,0.5319
1050.00,0.5359
1049.00,0.5402
1048.00,0.5448
1047.00,0.5493
1046.00,0.5535
1045.00,0.5570
1044.00,0.5599
1043.00,0.5622
1042.00,0.5643
1041.00,0.5665
1040.00,0.5691
1039.00,0.5719
1038.00,0.5745
1037.00,0.5771
1036.00,0.5800
1035.00,0.5837
1034.00,0.5886
1033.00,0.5952
1032.00,0.6036
1031.00,0.6137
1030.00,0.6243
1029.00,0.6341
1028.00,0.6416
1027.00,0.6456
1026.00,0.6458
1025.00,0.6426
1024.00,0.6378
1023.00,0.6329
1022.00,0.6290
1021.00,0.6268
1020.00,0.6266
1019.00,0.6283
1018.00,0.6320
1017.00,0.6372
1016.00,0.6436
1015.00,0.6505
1014.00,0.6574
1013.00,0.6640
1012.00,0.6704
1011.00,0.6766
1010.00,0.6828
1009.00,0.6894
1008.00,0.6963
1007.00,0.7033
1006.00,0.7098
1005.00,0.7155
1004.00,0.7204
1003.00,0.7245
1002.00,0.7272
1001.00,0.7282
1000.00,0.7268
999.00,0.7226
998.00,0.7151
997.00,0.7049
996.00,0.6928
995.00,0.6799
994.00,0.6668
993.00,0.6537
992.00,0.6403
991.00,0.6267
990.00,0.6132
989.00,0.5999
988.00,0.5876
987.00,0.5762
986.00,0.5657
985.00,0.5558
984.00,0.5462
983.00,0.5369
982.00,0.5277
981.00,0.5187
980.00,0.5097
979.00,0.5006
978.00,0.4915
977.00,0.4825
976.00,0.4741
975.00,0.4665
974.00,0.4599
973.00,0.4546
972.00,0.4505
971.00,0.4477
970.00,0.4462
969.00,0.4457
968.00,0.4460
967.00,0.4468
966.00,0.4474
965.00,0.4474
964.00,0.4462
963.00,0.4438
962.00,0.4401
961.00,0.4356
960.00,0.4310
959.00,0.4270
958.00,0.4240
957.00,0.4221
956.00,0.4211
955.00,0.4206
954.00,0.4205
953.00,0.4206
952.00,0.4209
951.00,0.4219
950.00,0.4240
949.00,0.4277
948.00,0.4332
947.00,0.4405
946.00,0.4489
945.00,0.4571
944.00,0.4636
943.00,0.4673
942.00,0.4677
941.00,0.4652
940.00,0.4610
939.00,0.4561
938.00,0.4513
937.00,0.4470
936.00,0.4434
935.00,0.4408
934.00,0.4391
933.00,0.4384
932.00,0.4390
931.00,0.4412
930.00,0.4457
929.00,0.4531
928.00,0.4643
927.00,0.4800
926.00,0.4996
925.00,0.5205
924.00,0.5389
923.00,0.5515
922.00,0.5572
921.00,0.5575
920.00,0.5536
919.00,0.5451
918.00,0.5312
917.00,0.5120
916.00,0.4898
915.00,0.4680
914.00,0.4490
913.00,0.4341
912.00,0.4233
911.00,0.4155
910.00,0.4098
909.00,0.4052
908.00,0.4014
907.00,0.3982
906.00,0.3956
905.00,0.3934
904.00,0.3920
903.00,0.3914
902.00,0.3915
901.00,0.3922
900.00,0.3936
899.00,0.3956
898.00,0.3982
897.00,0.4017
896.00,0.4061
895.00,0.4117
894.00,0.4182
893.00,0.4253
892.00,0.4327
891.00,0.4394
890.00,0.4443
889.00,0.4461
888.00,0.4443
887.00,0.4394
886.00,0.4326
885.00,0.4255
884.00,0.4194
883.00,0.4149
882.00,0.4121
881.00,0.4106
880.00,0.4100
879.00,0.4097
878.00,0.4096
877.00,0.4095
876.00,0.4095
875.00,0.4098
874.00,0.4106
873.00,0.4118
872.00,0.4133
871.00,0.4153
870.00,0.4180
869.00,0.4220
868.00,0.4274
867.00,0.4347
866.00,0.4438
865.00,0.4544
864.00,0.4659
863.00,0.4770
862.00,0.4856
861.00,0.4895
860.00,0.4877
859.00,0.4810
858.00,0.4717
857.00,0.4624
856.00,0.4550
855.00,0.4501
854.00,0.4471
853.00,0.4456
852.00,0.4450
851.00,0.4454
850.00,0.4467
849.00,0.4488
848.00,0.4516
847.00,0.4547
846.00,0.4580
845.00,0.4616
844.00,0.4658
843.00,0.4710
842.00,0.4783
841.00,0.4888
840.00,0.5031
839.00,0.5205
838.00,0.5378
837.00,0.5502
836.00,0.5539
835.00,0.5478
834.00,0.5345
833.00,0.5183
832.00,0.5031
831.00,0.4912
830.00,0.4833
829.00,0.4792
828.00,0.4788
827.00,0.4815
826.00,0.4868
825.00,0.4938
824.00,0.5017
823.00,0.5088
822.00,0.5136
821.00,0.5148
820.00,0.5119
819.00,0.5053
818.00,0.4963
817.00,0.4866
816.00,0.4777
815.00,0.4704
814.00,0.4646
813.00,0.4600
812.00,0.4562
811.00,0.4531
810.00,0.4505
809.00,0.4481
808.00,0.4456
807.00,0.4429
806.00,0.4401
805.00,0.4377
804.00,0.4361
803.00,0.4356
802.00,0.4361
801.00,0.4375
800.00,0.4396
799.00,0.4424
798.00,0.4455
797.00,0.4487
796.00,0.4520
795.00,0.4556
794.00,0.4598
793.00,0.4646
792.00,0.4698
791.00,0.4749
790.00,0.4796
789.00,0.4836
788.00,0.4872
787.00,0.4917
786.00,0.4985
785.00,0.5093
784.00,0.5250
783.00,0.5452
782.00,0.5672
781.00,0.5855
780.00,0.5937
779.00,0.5883
778.00,0.5711
777.00,0.5483
776.00,0.5258
775.00,0.5075
774.00,0.4947
773.00,0.4872
772.00,0.4844
771.00,0.4854
770.00,0.4894
769.00,0.4960
768.00,0.5049
767.00,0.5155
766.00,0.5268
765.00,0.5378
764.00,0.5475
763.00,0.5556
762.00,0.5619
761.00,0.5659
760.00,0.5670
759.00,0.5646
758.00,0.5595
757.00,0.5533
756.00,0.5482
755.00,0.5460
754.00,0.5467
753.00,0.5500
752.00,0.5553
751.00,0.5624
750.00,0.5715
749.00,0.5829
748.00,0.5959
747.00,0.6095
746.00,0.6219
745.00,0.6318
744.00,0.6387
743.00,0.6433
742.00,0.6466
741.00,0.6498
740.00,0.6536
739.00,0.6588
738.00,0.6659
737.00,0.6754
736.00,0.6880
735.00,0.7042
734.00,0.7246
733.00,0.7498
732.00,0.7805
731.00,0.8170
730.00,0.8594
729.00,0.9081
728.00,0.9640
727.00,1.0287
726.00,1.1032
725.00,1.1867
724.00,1.2729
723.00,1.3468
722.00,1.3842
721.00,1.3646
720.00,1.2911
719.00,1.1893
718.00,1.0843
717.00,0.9898
716.00,0.9106
715.00,0.8463
714.00,0.7946
713.00,0.7520
712.00,0.7159
711.00,0.6843
710.00,0.6562
709.00,0.6314
708.00,0.6099
707.00,0.5914
706.00,0.5755
705.00,0.5617
704.00,0.5498
703.00,0.5398
702.00,0.5316
701.00,0.5248
700.00,0.5189
699.00,0.5133
698.00,0.5078
697.00,0.5023
696.00,0.4974
695.00,0.4936
694.00,0.4910
693.00,0.4895
692.00,0.4888
691.00,0.4888
690.00,0.4893
689.00,0.4901
688.00,0.4916
687.00,0.4938
686.00,0.4971
685.00,0.5015
684.00,0.5073
683.00,0.5140
682.00,0.5216
681.00,0.5303
680.00,0.5406
679.00,0.5524
678.00,0.5650
677.00,0.5776
676.00,0.5892
675.00,0.5989
674.00,0.6060
673.00,0.6109
672.00,0.6138
671.00,0.6149
670.00,0.6148
669.00,0.6148
668.00,0.6155
667.00,0.6169
666.00,0.6196
665.00,0.6231
664.00,0.6257
663.00,0.6263
662.00,0.6242
661.00,0.6194
660.00,0.6123
659.00,0.6037
658.00,0.5945
657.00,0.5856
656.00,0.5776
655.00,0.5710
654.00,0.5657
653.00,0.5616
652.00,0.5593
651.00,0.5592
650.00,0.5615
649.00,0.5661
648.00,0.5727
647.00,0.5810
646.00,0.5905
645.00,0.6003
644.00,0.6095
643.00,0.6175
642.00,0.6234
641.00,0.6266
640.00,0.6260
639.00,0.6213
638.00,0.6124
637.00,0.6000
636.00,0.5856
635.00,0.5708
634.00,0.5569
633.00,0.5448
632.00,0.5352
631.00,0.5285
630.00,0.5245
629.00,0.5227
628.00,0.5231
627.00,0.5257
626.00,0.5311
625.00,0.5391
624.00,0.5500
623.00,0.5636
622.00,0.5796
621.00,0.5975
620.00,0.6162
619.00,0.6346
618.00,0.6504
617.00,0.6607
616.00,0.6629
615.00,0.6560
614.00,0.6412
613.00,0.6214
612.00,0.5996
611.00,0.5782
610.00,0.5587
609.00,0.5418
608.00,0.5275
607.00,0.5159
606.00,0.5066
605.00,0.4992
604.00,0.4934
603.00,0.4889
602.00,0.4854
601.00,0.4827
600.00,0.4808
599.00,0.4801
598.00,0.4802
597.00,0.4807
596.00,0.4816
595.00,0.4831
594.00,0.4854
593.00,0.4883
592.00,0.4915
591.00,0.4948
590.00,0.4983
589.00,0.5020
588.00,0.5057
587.00,0.5096
586.00,0.5133
585.00,0.5166
584.00,0.5196
583.00,0.5225
582.00,0.5254
581.00,0.5281
580.00,0.5302
579.00,0.5318
578.00,0.5332
577.00,0.5349
576.00,0.5375
575.00,0.5413
574.00,0.5465
573.00,0.5524
572.00,0.5589
571.00,0.5659
570.00,0.5736
569.00,0.5818
568.00,0.5900
567.00,0.5976
566.00,0.6043
565.00,0.6107
564.00,0.6172
563.00,0.6238
562.00,0.6298
561.00,0.6348
560.00,0.6389
559.00,0.6425
558.00,0.6461
557.00,0.6496
556.00,0.6531
555.00,0.6563
554.00,0.6592
553.00,0.6622
552.00,0.6662
551.00,0.6723
550.00,0.6811
