Created as New Dataset,
cm-1,A
4000.00,0.3669
3999.00,0.3668
3998.00,0.3667
3997.00,0.3666
3996.00,0.3665
3995.00,0.3663
3994.00,0.3662
3993.00,0.3659
3992.00,0.3656
3991.00,0.3652
3990.00,0.3648
3989.00,0.3644
3988.00,0.3640
3987.00,0.3637
3986.00,0.3634
3985.00,0.3630
3984.00,0.3626
3983.00,0.3621
3982.00,0.3616
3981.00,0.3612
3980.00,0.3609
3979.00,0.3605
3978.00,0.3602
3977.00,0.3598
3976.00,0.3595
3975.00,0.3592
3974.00,0.3590
3973.00,0.3587
3972.00,0.3584
3971.00,0.3581
3970.00,0.3578
3969.00,0.3574
3968.00,0.3570
3967.00,0.3566
3966.00,0.3562
3965.00,0.3558
3964.00,0.3554
3963.00,0.3549
3962.00,0.3544
3961.00,0.3539
3960.00,0.3534
3959.00,0.3529
3958.00,0.3524
3957.00,0.3520
3956.00,0.3517
3955.00,0.3514
3954.00,0.3511
3953.00,0.3507
3952.00,0.3503
3951.00,0.3499
3950.00,0.3496
3949.00,0.3493
3948.00,0.3491
3947.00,0.3489
3946.00,0.3488
3945.00,0.3486
3944.00,0.3484
3943.00,0.3483
3942.00,0.3481
3941.00,0.3479
3940.00,0.3478
3939.00,0.3476
3938.00,0.3476
3937.00,0.3476
3936.00,0.3476
3935.00,0.3477
3934.00,0.3477
3933.00,0.3477
3932.00,0.3476
3931.00,0.3476
3930.00,0.3476
3929.00,0.3475
3928.00,0.3474
3927.00,0.3473
3926.00,0.3472
3925.00,0.3472
3924.00,0.3471
3923.00,0.3471
3922.00,0.3470
3921.00,0.3470
3920.00,0.3469
3919.00,0.3469
3918.00,0.3467
3917.00,0.3466
3916.00,0.3465
3915.00,0.3464
3914.00,0.3463
3913.00,0.3462
3912.00,0.3462
3911.00,0.3461
3910.00,0.3461
3909.00,0.3460
3908.00,0.3459
3907.00,0.3458
3906.00,0.3458
3905.00,0.3457
3904.00,0.3457
3903.00,0.3457
3902.00,0.3456
3901.00,0.3455
3900.00,0.3455
3899.00,0.3455
3898.00,0.3455
3897.00,0.3455
3896.00,0.3455
3895.00,0.3454
3894.00,0.3452
3893.00,0.3451
3892.00,0.3449
3891.00,0.3448
3890.00,0.3447
3889.00,0.3445
3888.00,0.3443
3887.00,0.3441
3886.00,0.3439
3885.00,0.3437
3884.00,0.3435
3883.00,0.3433
3882.00,0.3432
3881.00,0.3431
3880.00,0.3430
3879.00,0.3429
3878.00,0.3428
3877.00,0.3427
3876.00,0.3426
3875.00,0.3426
3874.00,0.3426
3873.00,0.3425
3872.00,0.3424
3871.00,0.3423
3870.00,0.3422
3869.00,0.3422
3868.00,0.3422
3867.00,0.3421
3866.00,0.3421
3865.00,0.3421
3864.00,0.3421
3863.00,0.3420
3862.00,0.3419
3861.00,0.3419
3860.00,0.3418
3859.00,0.3417
3858.00,0.3416
3857.00,0.3414
3856.00,0.3413
3855.00,0.3412
3854.00,0.3412
3853.00,0.3412
3852.00,0.3412
3851.00,0.3411
3850.00,0.3410
3849.00,0.3409
3848.00,0.3408
3847.00,0.3407
3846.00,0.3406
3845.00,0.3405
3844.00,0.3403
3843.00,0.3402
3842.00,0.3401
3841.00,0.3400
3840.00,0.3400
3839.00,0.3399
3838.00,0.3398
3837.00,0.3396
3836.00,0.3394
3835.00,0.3392
3834.00,0.3391
3833.00,0.3389
3832.00,0.3387
3831.00,0.3385
3830.00,0.3384
3829.00,0.3383
3828.00,0.3382
3827.00,0.3382
3826.00,0.3383
3825.00,0.3383
3824.00,0.3382
3823.00,0.3381
3822.00,0.3380
3821.00,0.3380
3820.00,0.3379
3819.00,0.3377
3818.00,0.3375
3817.00,0.3373
3816.00,0.3371
3815.00,0.3369
3814.00,0.3367
3813.00,0.3364
3812.00,0.3362
3811.00,0.3361
3810.00,0.3360
3809.00,0.3358
3808.00,0.3356
3807.00,0.3354
3806.00,0.3352
3805.00,0.3350
3804.00,0.3347
3803.00,0.3345
3802.00,0.3343
3801.00,0.3342
3800.00,0.3340
3799.00,0.3338
3798.00,0.3335
3797.00,0.3332
3796.00,0.3330
3795.00,0.3328
3794.00,0.3326
3793.00,0.3325
3792.00,0.3324
3791.00,0.3323
3790.00,0.3323
3789.00,0.3322
3788.00,0.3321
3787.00,0.3320
3786.00,0.3319
3785.00,0.3319
3784.00,0.3319
3783.00,0.3319
3782.00,0.3319
3781.00,0.3319
3780.00,0.3318
3779.00,0.3318
3778.00,0.3317
3777.00,0.3317
3776.00,0.3317
3775.00,0.3317
3774.00,0.3317
3773.00,0.3317
3772.00,0.3317
3771.00,0.3317
3770.00,0.3316
3769.00,0.3315
3768.00,0.3313
3767.00,0.3312
3766.00,0.3310
3765.00,0.3310
3764.00,0.3309
3763.00,0.3308
3762.00,0.3308
3761.00,0.3307
3760.00,0.3306
3759.00,0.3305
3758.00,0.3303
3757.00,0.3301
3756.00,0.3299
3755.00,0.3298
3754.00,0.3297
3753.00,0.3298
3752.00,0.3298
3751.00,0.3298
3750.00,0.3298
3749.00,0.3298
3748.00,0.3298
3747.00,0.3297
3746.00,0.3296
3745.00,0.3296
3744.00,0.3296
3743.00,0.3295
3742.00,0.3294
3741.00,0.3293
3740.00,0.3293
3739.00,0.3293
3738.00,0.3293
3737.00,0.3291
3736.00,0.3288
3735.00,0.3286
3734.00,0.3284
3733.00,0.3283
3732.00,0.3283
3731.00,0.3281
3730.00,0.3279
3729.00,0.3277
3728.00,0.3275
3727.00,0.3274
3726.00,0.3273
3725.00,0.3271
3724.00,0.3269
3723.00,0.3268
3722.00,0.3267
3721.00,0.3266
3720.00,0.3266
3719.00,0.3265
3718.00,0.3264
3717.00,0.3264
3716.00,0.3264
3715.00,0.3264
3714.00,0.3266
3713.00,0.3268
3712.00,0.3270
3711.00,0.3271
3710.00,0.3273
3709.00,0.3274
3708.00,0.3275
3707.00,0.3276
3706.00,0.3278
3705.00,0.3279
3704.00,0.3279
3703.00,0.3280
3702.00,0.3280
3701.00,0.3280
3700.00,0.3281
3699.00,0.3282
3698.00,0.3283
3697.00,0.3284
3696.00,0.3285
3695.00,0.3286
3694.00,0.3286
3693.00,0.3287
3692.00,0.3288
3691.00,0.3288
3690.00,0.3289
3689.00,0.3290
3688.00,0.3291
3687.00,0.3292
3686.00,0.3293
3685.00,0.3294
3684.00,0.3295
3683.00,0.3296
3682.00,0.3298
3681.00,0.3299
3680.00,0.3300
3679.00,0.3300
3678.00,0.3300
3677.00,0.3301
3676.00,0.3302
3675.00,0.3303
3674.00,0.3305
3673.00,0.3305
3672.00,0.3306
3671.00,0.3308
3670.00,0.3310
3669.00,0.3312
3668.00,0.3312
3667.00,0.3313
3666.00,0.3313
3665.00,0.3315
3664.00,0.3317
3663.00,0.3319
3662.00,0.3321
3661.00,0.3324
3660.00,0.3326
3659.00,0.3329
3658.00,0.3332
3657.00,0.3335
3656.00,0.3339
3655.00,0.3343
3654.00,0.3347
3653.00,0.3351
3652.00,0.3356
3651.00,0.3361
3650.00,0.3367
3649.00,0.3374
3648.00,0.3382
3647.00,0.3390
3646.00,0.3398
3645.00,0.3405
3644.00,0.3412
3643.00,0.3418
3642.00,0.3422
3641.00,0.3426
3640.00,0.3429
3639.00,0.3434
3638.00,0.3440
3637.00,0.3446
3636.00,0.3454
3635.00,0.3463
3634.00,0.3471
3633.00,0.3479
3632.00,0.3487
3631.00,0.3496
3630.00,0.3510
3629.00,0.3527
3628.00,0.3546
3627.00,0.3563
3626.00,0.3578
3625.00,0.3590
3624.00,0.3597
3623.00,0.3599
3622.00,0.3595
3621.00,0.3585
3620.00,0.3570
3619.00,0.3553
3618.00,0.3537
3617.00,0.3524
3616.00,0.3514
3615.00,0.3507
3614.00,0.3502
3613.00,0.3501
3612.00,0.3502
3611.00,0.3504
3610.00,0.3508
3609.00,0.3512
3608.00,0.3516
3607.00,0.3519
3606.00,0.3522
3605.00,0.3523
3604.00,0.3524
3603.00,0.3523
3602.00,0.3520
3601.00,0.3515
3600.00,0.3509
3599.00,0.3501
3598.00,0.3493
3597.00,0.3484
3596.00,0.3475
3595.00,0.3467
3594.00,0.3459
3593.00,0.3451
3592.00,0.3445
3591.00,0.3439
3590.00,0.3435
3589.00,0.3431
3588.00,0.3427
3587.00,0.3423
3586.00,0.3419
3585.00,0.3415
3584.00,0.3412
3583.00,0.3409
3582.00,0.3407
3581.00,0.3405
3580.00,0.3403
3579.00,0.3402
3578.00,0.3401
3577.00,0.3401
3576.00,0.3402
3575.00,0.3402
3574.00,0.3404
3573.00,0.3406
3572.00,0.3407
3571.00,0.3410
3570.00,0.3412
3569.00,0.3415
3568.00,0.3419
3567.00,0.3423
3566.00,0.3426
3565.00,0.3429
3564.00,0.3432
3563.00,0.3435
3562.00,0.3438
3561.00,0.3440
3560.00,0.3443
3559.00,0.3446
3558.00,0.3448
3557.00,0.3451
3556.00,0.3454
3555.00,0.3457
3554.00,0.3461
3553.00,0.3465
3552.00,0.3469
3551.00,0.3473
3550.00,0.3477
3549.00,0.3482
3548.00,0.3488
3547.00,0.3494
3546.00,0.3499
3545.00,0.3505
3544.00,0.3510
3543.00,0.3516
3542.00,0.3522
3541.00,0.3529
3540.00,0.3536
3539.00,0.3543
3538.00,0.3549
3537.00,0.3556
3536.00,0.3563
3535.00,0.3569
3534.00,0.3576
3533.00,0.3583
3532.00,0.3590
3531.00,0.3597
3530.00,0.3604
3529.00,0.3611
3528.00,0.3618
3527.00,0.3626
3526.00,0.3633
3525.00,0.3640
3524.00,0.3647
3523.00,0.3654
3522.00,0.3661
3521.00,0.3668
3520.00,0.3675
3519.00,0.3682
3518.00,0.3689
3517.00,0.3697
3516.00,0.3705
3515.00,0.3713
3514.00,0.3721
3513.00,0.3730
3512.00,0.3739
3511.00,0.3749
3510.00,0.3758
3509.00,0.3768
3508.00,0.3777
3507.00,0.3786
3506.00,0.3795
3505.00,0.3805
3504.00,0.3815
3503.00,0.3825
3502.00,0.3835
3501.00,0.3846
3500.00,0.3856
3499.00,0.3867
3498.00,0.3877
3497.00,0.3886
3496.00,0.3896
3495.00,0.3905
3494.00,0.3915
3493.00,0.3925
3492.00,0.3935
3491.00,0.3946
3490.00,0.3956
3489.00,0.3967
3488.00,0.3977
3487.00,0.3988
3486.00,0.3998
3485.00,0.4008
3484.00,0.4018
3483.00,0.4029
3482.00,0.4040
3481.00,0.4051
3480.00,0.4063
3479.00,0.4074
3478.00,0.4086
3477.00,0.4097
3476.00,0.4109
3475.00,0.4121
3474.00,0.4134
3473.00,0.4147
3472.00,0.4160
3471.00,0.4172
3470.00,0.4186
3469.00,0.4200
3468.00,0.4215
3467.00,0.4230
3466.00,0.4244
3465.00,0.4259
3464.00,0.4273
3463.00,0.4288
3462.00,0.4303
3461.00,0.4319
3460.00,0.4335
3459.00,0.4350
3458.00,0.4366
3457.00,0.4381
3456.00,0.4397
3455.00,0.4414
3454.00,0.4431
3453.00,0.4448
3452.00,0.4467
3451.00,0.4486
3450.00,0.4505
3449.00,0.4526
3448.00,0.4547
3447.00,0.4570
3446.00,0.4593
3445.00,0.4617
3444.00,0.4642
3443.00,0.4667
3442.00,0.4693
3441.00,0.4718
3440.00,0.4743
3439.00,0.4767
3438.00,0.4791
3437.00,0.4814
3436.00,0.4837
3435.00,0.4857
3434.00,0.4876
3433.00,0.4894
3432.00,0.4912
3431.00,0.4929
3430.00,0.4945
3429.00,0.4961
3428.00,0.4976
3427.00,0.4991
3426.00,0.5006
3425.00,0.5021
3424.00,0.5037
3423.00,0.5052
3422.00,0.5068
3421.00,0.5084
3420.00,0.5099
3419.00,0.5115
3418.00,0.5131
3417.00,0.5148
3416.00,0.5164
3415.00,0.5181
3414.00,0.5198
3413.00,0.5215
3412.00,0.5232
3411.00,0.5249
3410.00,0.5266
3409.00,0.5284
3408.00,0.5302
3407.00,0.5320
3406.00,0.5339
3405.00,0.5358
3404.00,0.5377
3403.00,0.5396
3402.00,0.5413
3401.00,0.5431
3400.00,0.5448
3399.00,0.5466
3398.00,0.5482
3397.00,0.5499
3396.00,0.5516
3395.00,0.5532
3394.00,0.5549
3393.00,0.5566
3392.00,0.5584
3391.00,0.5601
3390.00,0.5619
3389.00,0.5636
3388.00,0.5654
3387.00,0.5671
3386.00,0.5688
3385.00,0.5704
3384.00,0.5720
3383.00,0.5736
3382.00,0.5752
3381.00,0.5770
3380.00,0.5788
3379.00,0.5806
3378.00,0.5824
3377.00,0.5842
3376.00,0.5860
3375.00,0.5878
3374.00,0.5897
3373.00,0.5915
3372.00,0.5935
3371.00,0.5955
3370.00,0.5976
3369.00,0.5997
3368.00,0.6017
3367.00,0.6036
3366.00,0.6056
3365.00,0.6075
3364.00,0.6096
3363.00,0.6117
3362.00,0.6138
3361.00,0.6160
3360.00,0.6180
3359.00,0.6201
3358.00,0.6221
3357.00,0.6242
3356.00,0.6262
3355.00,0.6282
3354.00,0.6303
3353.00,0.6324
3352.00,0.6345
3351.00,0.6364
3350.00,0.6382
3349.00,0.6399
3348.00,0.6415
3347.00,0.6430
3346.00,0.6445
3345.00,0.6459
3344.00,0.6473
3343.00,0.6486
3342.00,0.6499
3341.00,0.6511
3340.00,0.6522
3339.00,0.6531
3338.00,0.6540
3337.00,0.6547
3336.00,0.6552
3335.00,0.6556
3334.00,0.6560
3333.00,0.6563
3332.00,0.6566
3331.00,0.6567
3330.00,0.6566
3329.00,0.6564
3328.00,0.6561
3327.00,0.6557
3326.00,0.6553
3325.00,0.6548
3324.00,0.6541
3323.00,0.6534
3322.00,0.6526
3321.00,0.6516
3320.00,0.6507
3319.00,0.6497
3318.00,0.6486
3317.00,0.6475
3316.00,0.6463
3315.00,0.6451
3314.00,0.6438
3313.00,0.6426
3312.00,0.6413
3311.00,0.6400
3310.00,0.6386
3309.00,0.6373
3308.00,0.6360
3307.00,0.6346
3306.00,0.6333
3305.00,0.6321
3304.00,0.6309
3303.00,0.6296
3302.00,0.6285
3301.00,0.6273
3300.00,0.6262
3299.00,0.6252
3298.00,0.6242
3297.00,0.6233
3296.00,0.6224
3295.00,0.6215
3294.00,0.6207
3293.00,0.6200
3292.00,0.6194
3291.00,0.6189
3290.00,0.6183
3289.00,0.6179
3288.00,0.6175
3287.00,0.6171
3286.00,0.6167
3285.00,0.6164
3284.00,0.6160
3283.00,0.6158
3282.00,0.6156
3281.00,0.6156
3280.00,0.6156
3279.00,0.6156
3278.00,0.6156
3277.00,0.6156
3276.00,0.6156
3275.00,0.6156
3274.00,0.6156
3273.00,0.6156
3272.00,0.6155
3271.00,0.6154
3270.00,0.6153
3269.00,0.6153
3268.00,0.6154
3267.00,0.6155
3266.00,0.6156
3265.00,0.6158
3264.00,0.6159
3263.00,0.6158
3262.00,0.6158
3261.00,0.6157
3260.00,0.6157
3259.00,0.6155
3258.00,0.6154
3257.00,0.6153
3256.00,0.6151
3255.00,0.6150
3254.00,0.6148
3253.00,0.6146
3252.00,0.6143
3251.00,0.6139
3250.00,0.6134
3249.00,0.6129
3248.00,0.6123
3247.00,0.6118
3246.00,0.6111
3245.00,0.6105
3244.00,0.6098
3243.00,0.6091
3242.00,0.6084
3241.00,0.6076
3240.00,0.6067
3239.00,0.6057
3238.00,0.6046
3237.00,0.6036
3236.00,0.6026
3235.00,0.6015
3234.00,0.6004
3233.00,0.5992
3232.00,0.5979
3231.00,0.5966
3230.00,0.5952
3229.00,0.5939
3228.00,0.5926
3227.00,0.5913
3226.00,0.5899
3225.00,0.5885
3224.00,0.5870
3223.00,0.5854
3222.00,0.5839
3221.00,0.5825
3220.00,0.5812
3219.00,0.5799
3218.00,0.5785
3217.00,0.5771
3216.00,0.5757
3215.00,0.5742
3214.00,0.5728
3213.00,0.5714
3212.00,0.5699
3211.00,0.5684
3210.00,0.5669
3209.00,0.5655
3208.00,0.5641
3207.00,0.5626
3206.00,0.5612
3205.00,0.5597
3204.00,0.5582
3203.00,0.5567
3202.00,0.5552
3201.00,0.5538
3200.00,0.5523
3199.00,0.5509
3198.00,0.5494
3197.00,0.5478
3196.00,0.5463
3195.00,0.5447
3194.00,0.5432
3193.00,0.5417
3192.00,0.5401
3191.00,0.5385
3190.00,0.5368
3189.00,0.5352
3188.00,0.5336
3187.00,0.5319
3186.00,0.5303
3185.00,0.5287
3184.00,0.5272
3183.00,0.5256
3182.00,0.5240
3181.00,0.5224
3180.00,0.5208
3179.00,0.5192
3178.00,0.5177
3177.00,0.5161
3176.00,0.5146
3175.00,0.5130
3174.00,0.5115
3173.00,0.5099
3172.00,0.5084
3171.00,0.5069
3170.00,0.5054
3169.00,0.5040
3168.00,0.5026
3167.00,0.5012
3166.00,0.4997
3165.00,0.4982
3164.00,0.4967
3163.00,0.4951
3162.00,0.4937
3161.00,0.4923
3160.00,0.4910
3159.00,0.4898
3158.00,0.4886
3157.00,0.4875
3156.00,0.4864
3155.00,0.4852
3154.00,0.4841
3153.00,0.4830
3152.00,0.4819
3151.00,0.4809
3150.00,0.4800
3149.00,0.4791
3148.00,0.4781
3147.00,0.4772
3146.00,0.4763
3145.00,0.4755
3144.00,0.4746
3143.00,0.4738
3142.00,0.4730
3141.00,0.4721
3140.00,0.4713
3139.00,0.4705
3138.00,0.4698
3137.00,0.4690
3136.00,0.4683
3135.00,0.4676
3134.00,0.4669
3133.00,0.4662
3132.00,0.4655
3131.00,0.4648
3130.00,0.4641
3129.00,0.4636
3128.00,0.4630
3127.00,0.4625
3126.00,0.4620
3125.00,0.4615
3124.00,0.4611
3123.00,0.4608
3122.00,0.4606
3121.00,0.4604
3120.00,0.4602
3119.00,0.4600
3118.00,0.4600
3117.00,0.4600
3116.00,0.4601
3115.00,0.4602
3114.00,0.4604
3113.00,0.4606
3112.00,0.4609
3111.00,0.4613
3110.00,0.4617
3109.00,0.4622
3108.00,0.4627
3107.00,0.4633
3106.00,0.4639
3105.00,0.4645
3104.00,0.4651
3103.00,0.4657
3102.00,0.4663
3101.00,0.4669
3100.00,0.4674
3099.00,0.4680
3098.00,0.4686
3097.00,0.4694
3096.00,0.4702
3095.00,0.4712
3094.00,0.4722
3093.00,0.4731
3092.00,0.4740
3091.00,0.4750
3090.00,0.4760
3089.00,0.4771
3088.00,0.4783
3087.00,0.4797
3086.00,0.4811
3085.00,0.4825
3084.00,0.4840
3083.00,0.4855
3082.00,0.4871
3081.00,0.4887
3080.00,0.4905
3079.00,0.4923
3078.00,0.4942
3077.00,0.4961
3076.00,0.4981
3075.00,0.5000
3074.00,0.5021
3073.00,0.5043
3072.00,0.5066
3071.00,0.5091
3070.00,0.5117
3069.00,0.5145
3068.00,0.5174
3067.00,0.5204
3066.00,0.5235
3065.00,0.5266
3064.00,0.5297
3063.00,0.5329
3062.00,0.5362
3061.00,0.5395
3060.00,0.5429
3059.00,0.5463
3058.00,0.5497
3057.00,0.5531
3056.00,0.5565
3055.00,0.5597
3054.00,0.5629
3053.00,0.5661
3052.00,0.5694
3051.00,0.5726
3050.00,0.5759
3049.00,0.5792
3048.00,0.5825
3047.00,0.5858
3046.00,0.5891
3045.00,0.5925
3044.00,0.5960
3043.00,0.5997
3042.00,0.6035
3041.00,0.6076
3040.00,0.6118
3039.00,0.6163
3038.00,0.6211
3037.00,0.6261
3036.00,0.6314
3035.00,0.6369
3034.00,0.6427
3033.00,0.6487
3032.00,0.6549
3031.00,0.6614
3030.00,0.6679
3029.00,0.6746
3028.00,0.6814
3027.00,0.6883
3026.00,0.6955
3025.00,0.7029
3024.00,0.7105
3023.00,0.7184
3022.00,0.7267
3021.00,0.7354
3020.00,0.7445
3019.00,0.7541
3018.00,0.7641
3017.00,0.7748
3016.00,0.7860
3015.00,0.7980
3014.00,0.8109
3013.00,0.8247
3012.00,0.8395
3011.00,0.8553
3010.00,0.8724
3009.00,0.8907
3008.00,0.9104
3007.00,0.9314
3006.00,0.9538
3005.00,0.9779
3004.00,1.0037
3003.00,1.0315
3002.00,1.0613
3001.00,1.0930
3000.00,1.1265
2999.00,1.1618
2998.00,1.1988
2997.00,1.2373
2996.00,1.2774
2995.00,1.3194
2994.00,1.3634
2993.00,1.4094
2992.00,1.4570
2991.00,1.5057
2990.00,1.5554
2989.00,1.6067
2988.00,1.6608
2987.00,1.7188
2986.00,1.7812
2985.00,1.8480
2984.00,1.9196
2983.00,1.9981
2982.00,2.0856
2981.00,2.1830
2980.00,2.2905
2979.00,2.4102
2978.00,2.5457
2977.00,2.6981
2976.00,2.8666
2975.00,3.0557
2974.00,3.2781
2973.00,3.5410
2972.00,3.8030
2971.00,3.9868
2970.00,4.0186
2969.00,4.0482
2968.00,4.1605
2967.00,4.0999
2966.00,3.9534
2965.00,3.8778
2964.00,3.9574
2963.00,4.0390
2962.00,3.9284
2961.00,3.8159
2960.00,3.7747
2959.00,3.8283
2958.00,4.0072
2957.00,4.3010
2956.00,4.4613
2955.00,4.3747
2954.00,4.2585
2953.00,4.2112
2952.00,4.1535
2951.00,4.1284
2950.00,4.1879
2949.00,4.2337
2948.00,4.1946
2947.00,4.0954
2946.00,4.0139
2945.00,3.9674
2944.00,3.9466
2943.00,3.9546
2942.00,3.9648
2941.00,3.9205
2940.00,3.8764
2939.00,3.8721
2938.00,3.8577
2937.00,3.8119
2936.00,3.7583
2935.00,3.7411
2934.00,3.7667
2933.00,3.8512
2932.00,4.0347
2931.00,4.2648
2930.00,4.3565
2929.00,4.2971
2928.00,4.2061
2927.00,4.0847
2926.00,3.9636
2925.00,3.9093
2924.00,3.9580
2923.00,4.0837
2922.00,4.1644
2921.00,4.1064
2920.00,4.0152
2919.00,4.0179
2918.00,4.1469
2917.00,4.2350
2916.00,4.2852
2915.00,4.4743
2914.00,4.3819
2913.00,4.0995
2912.00,3.9300
2911.00,4.0789
2910.00,4.5653
2909.00,4.5100
2908.00,4.3947
2907.00,4.4099
2906.00,4.6664
2905.00,4.5997
2904.00,4.4611
2903.00,4.3908
2902.00,4.2475
2901.00,4.1596
2900.00,4.0158
2899.00,3.9888
2898.00,4.1027
2897.00,4.2095
2896.00,4.1516
2895.00,4.1754
2894.00,4.5515
2893.00,4.4659
2892.00,4.2820
2891.00,4.3359
2890.00,4.3199
2889.00,4.1203
2888.00,4.0047
2887.00,4.0577
2886.00,4.1624
2885.00,4.1944
2884.00,4.0270
2883.00,3.8463
2882.00,3.7663
2881.00,3.8097
2880.00,3.9389
2879.00,4.0922
2878.00,4.0970
2877.00,4.1405
2876.00,4.3701
2875.00,4.2313
2874.00,3.9345
2873.00,3.7820
2872.00,3.8254
2871.00,3.9354
2870.00,4.1113
2869.00,4.1910
2868.00,4.1230
2867.00,4.2408
2866.00,4.1886
2865.00,3.9819
2864.00,3.8607
2863.00,4.0093
2862.00,4.3651
2861.00,4.2556
2860.00,4.0400
2859.00,3.9604
2858.00,4.0988
2857.00,4.3115
2856.00,4.1375
2855.00,3.9383
2854.00,3.8778
2853.00,3.9647
2852.00,4.1572
2851.00,4.3421
2850.00,4.3221
2849.00,4.1237
2848.00,4.0014
2847.00,3.9692
2846.00,4.0365
2845.00,4.1402
2844.00,4.0703
2843.00,3.9186
2842.00,3.7896
2841.00,3.6734
2840.00,3.5213
2839.00,3.3373
2838.00,3.1345
2837.00,2.9193
2836.00,2.7122
2835.00,2.5261
2834.00,2.3629
2833.00,2.2199
2832.00,2.0941
2831.00,1.9830
2830.00,1.8842
2829.00,1.7956
2828.00,1.7161
2827.00,1.6446
2826.00,1.5801
2825.00,1.5213
2824.00,1.4675
2823.00,1.4183
2822.00,1.3734
2821.00,1.3320
2820.00,1.2937
2819.00,1.2583
2818.00,1.2255
2817.00,1.1949
2816.00,1.1661
2815.00,1.1391
2814.00,1.1136
2813.00,1.0894
2812.00,1.0663
2811.00,1.0441
2810.00,1.0228
2809.00,1.0025
2808.00,0.9829
2807.00,0.9640
2806.00,0.9457
2805.00,0.9278
2804.00,0.9104
2803.00,0.8935
2802.00,0.8772
2801.00,0.8614
2800.00,0.8460
2799.00,0.8312
2798.00,0.8170
2797.00,0.8035
2796.00,0.7906
2795.00,0.7783
2794.00,0.7665
2793.00,0.7555
2792.00,0.7451
2791.00,0.7353
2790.00,0.7259
2789.00,0.7170
2788.00,0.7083
2787.00,0.6998
2786.00,0.6914
2785.00,0.6830
2784.00,0.6748
2783.00,0.6667
2782.00,0.6587
2781.00,0.6509
2780.00,0.6432
2779.00,0.6357
2778.00,0.6284
2777.00,0.6214
2776.00,0.6147
2775.00,0.6084
2774.00,0.6024
2773.00,0.5968
2772.00,0.5916
2771.00,0.5868
2770.00,0.5823
2769.00,0.5783
2768.00,0.5747
2767.00,0.5714
2766.00,0.5685
2765.00,0.5657
2764.00,0.5633
2763.00,0.5612
2762.00,0.5593
2761.00,0.5578
2760.00,0.5565
2759.00,0.5554
2758.00,0.5545
2757.00,0.5539
2756.00,0.5535
2755.00,0.5533
2754.00,0.5533
2753.00,0.5535
2752.00,0.5539
2751.00,0.5544
2750.00,0.5550
2749.00,0.5558
2748.00,0.5568
2747.00,0.5580
2746.00,0.5595
2745.00,0.5612
2744.00,0.5631
2743.00,0.5653
2742.00,0.5676
2741.00,0.5702
2740.00,0.5731
2739.00,0.5764
2738.00,0.5801
2737.00,0.5842
2736.00,0.5887
2735.00,0.5936
2734.00,0.5985
2733.00,0.6031
2732.00,0.6067
2731.00,0.6088
2730.00,0.6090
2729.00,0.6073
2728.00,0.6039
2727.00,0.5992
2726.00,0.5940
2725.00,0.5885
2724.00,0.5834
2723.00,0.5788
2722.00,0.5749
2721.00,0.5717
2720.00,0.5690
2719.00,0.5667
2718.00,0.5646
2717.00,0.5627
2716.00,0.5606
2715.00,0.5584
2714.00,0.5559
2713.00,0.5531
2712.00,0.5501
2711.00,0.5470
2710.00,0.5441
2709.00,0.5415
2708.00,0.5391
2707.00,0.5371
2706.00,0.5354
2705.00,0.5339
2704.00,0.5325
2703.00,0.5314
2702.00,0.5304
2701.00,0.5297
2700.00,0.5292
2699.00,0.5291
2698.00,0.5293
2697.00,0.5299
2696.00,0.5307
2695.00,0.5317
2694.00,0.5328
2693.00,0.5341
2692.00,0.5354
2691.00,0.5368
2690.00,0.5382
2689.00,0.5394
2688.00,0.5405
2687.00,0.5415
2686.00,0.5423
2685.00,0.5430
2684.00,0.5435
2683.00,0.5439
2682.00,0.5443
2681.00,0.5446
2680.00,0.5449
2679.00,0.5453
2678.00,0.5457
2677.00,0.5461
2676.00,0.5465
2675.00,0.5468
2674.00,0.5470
2673.00,0.5471
2672.00,0.5471
2671.00,0.5468
2670.00,0.5463
2669.00,0.5454
2668.00,0.5441
2667.00,0.5424
2666.00,0.5402
2665.00,0.5376
2664.00,0.5349
2663.00,0.5321
2662.00,0.5293
2661.00,0.5266
2660.00,0.5240
2659.00,0.5215
2658.00,0.5190
2657.00,0.5166
2656.00,0.5142
2655.00,0.5120
2654.00,0.5099
2653.00,0.5079
2652.00,0.5060
2651.00,0.5040
2650.00,0.5020
2649.00,0.5001
2648.00,0.4983
2647.00,0.4967
2646.00,0.4950
2645.00,0.4935
2644.00,0.4921
2643.00,0.4908
2642.00,0.4895
2641.00,0.4882
2640.00,0.4870
2639.00,0.4858
2638.00,0.4848
2637.00,0.4838
2636.00,0.4828
2635.00,0.4817
2634.00,0.4805
2633.00,0.4794
2632.00,0.4781
2631.00,0.4768
2630.00,0.4754
2629.00,0.4741
2628.00,0.4727
2627.00,0.4712
2626.00,0.4698
2625.00,0.4684
2624.00,0.4671
2623.00,0.4658
2622.00,0.4646
2621.00,0.4634
2620.00,0.4622
2619.00,0.4610
2618.00,0.4599
2617.00,0.4587
2616.00,0.4576
2615.00,0.4565
2614.00,0.4553
2613.00,0.4542
2612.00,0.4531
2611.00,0.4519
2610.00,0.4509
2609.00,0.4499
2608.00,0.4490
2607.00,0.4481
2606.00,0.4472
2605.00,0.4464
2604.00,0.4456
2603.00,0.4447
2602.00,0.4439
2601.00,0.4430
2600.00,0.4420
2599.00,0.4411
2598.00,0.4400
2597.00,0.4390
2596.00,0.4378
2595.00,0.4366
2594.00,0.4353
2593.00,0.4341
2592.00,0.4328
2591.00,0.4316
2590.00,0.4304
2589.00,0.4291
2588.00,0.4279
2587.00,0.4266
2586.00,0.4253
2585.00,0.4239
2584.00,0.4225
2583.00,0.4210
2582.00,0.4196
2581.00,0.4181
2580.00,0.4165
2579.00,0.4148
2578.00,0.4132
2577.00,0.4116
2576.00,0.4100
2575.00,0.4086
2574.00,0.4071
2573.00,0.4058
2572.00,0.4045
2571.00,0.4032
2570.00,0.4020
2569.00,0.4009
2568.00,0.3998
2567.00,0.3988
2566.00,0.3977
2565.00,0.3967
2564.00,0.3957
2563.00,0.3947
2562.00,0.3936
2561.00,0.3925
2560.00,0.3915
2559.00,0.3904
2558.00,0.3894
2557.00,0.3883
2556.00,0.3873
2555.00,0.3863
2554.00,0.3853
2553.00,0.3843
2552.00,0.3832
2551.00,0.3822
2550.00,0.3812
2549.00,0.3803
2548.00,0.3794
2547.00,0.3785
2546.00,0.3777
2545.00,0.3769
2544.00,0.3762
2543.00,0.3755
2542.00,0.3749
2541.00,0.3743
2540.00,0.3737
2539.00,0.3731
2538.00,0.3726
2537.00,0.3720
2536.00,0.3715
2535.00,0.3710
2534.00,0.3705
2533.00,0.3699
2532.00,0.3691
2531.00,0.3683
2530.00,0.3673
2529.00,0.3663
2528.00,0.3653
2527.00,0.3641
2526.00,0.3630
2525.00,0.3618
2524.00,0.3607
2523.00,0.3595
2522.00,0.3583
2521.00,0.3571
2520.00,0.3559
2519.00,0.3548
2518.00,0.3536
2517.00,0.3526
2516.00,0.3515
2515.00,0.3504
2514.00,0.3494
2513.00,0.3483
2512.00,0.3473
2511.00,0.3463
2510.00,0.3453
2509.00,0.3444
2508.00,0.3435
2507.00,0.3426
2506.00,0.3418
2505.00,0.3411
2504.00,0.3405
2503.00,0.3400
2502.00,0.3396
2501.00,0.3392
2500.00,0.3389
2499.00,0.3387
2498.00,0.3384
2497.00,0.3382
2496.00,0.3379
2495.00,0.3377
2494.00,0.3374
2493.00,0.3372
2492.00,0.3370
2491.00,0.3367
2490.00,0.3365
2489.00,0.3362
2488.00,0.3359
2487.00,0.3355
2486.00,0.3351
2485.00,0.3347
2484.00,0.3342
2483.00,0.3338
2482.00,0.3333
2481.00,0.3328
2480.00,0.3322
2479.00,0.3315
2478.00,0.3308
2477.00,0.3301
2476.00,0.3294
2475.00,0.3287
2474.00,0.3280
2473.00,0.3273
2472.00,0.3266
2471.00,0.3260
2470.00,0.3255
2469.00,0.3250
2468.00,0.3245
2467.00,0.3241
2466.00,0.3236
2465.00,0.3232
2464.00,0.3229
2463.00,0.3226
2462.00,0.3224
2461.00,0.3221
2460.00,0.3220
2459.00,0.3219
2458.00,0.3218
2457.00,0.3217
2456.00,0.3217
2455.00,0.3217
2454.00,0.3217
2453.00,0.3218
2452.00,0.3219
2451.00,0.3220
2450.00,0.3221
2449.00,0.3221
2448.00,0.3221
2447.00,0.3221
2446.00,0.3222
2445.00,0.3222
2444.00,0.3223
2443.00,0.3223
2442.00,0.3223
2441.00,0.3223
2440.00,0.3224
2439.00,0.3224
2438.00,0.3225
2437.00,0.3225
2436.00,0.3224
2435.00,0.3224
2434.00,0.3224
2433.00,0.3224
2432.00,0.3224
2431.00,0.3224
2430.00,0.3225
2429.00,0.3226
2428.00,0.3227
2427.00,0.3227
2426.00,0.3228
2425.00,0.3229
2424.00,0.3230
2423.00,0.3231
2422.00,0.3233
2421.00,0.3234
2420.00,0.3235
2419.00,0.3236
2418.00,0.3238
2417.00,0.3239
2416.00,0.3240
2415.00,0.3241
2414.00,0.3242
2413.00,0.3243
2412.00,0.3244
2411.00,0.3244
2410.00,0.3244
2409.00,0.3245
2408.00,0.3246
2407.00,0.3246
2406.00,0.3246
2405.00,0.3246
2404.00,0.3246
2403.00,0.3246
2402.00,0.3246
2401.00,0.3246
2400.00,0.3246
2399.00,0.3246
2398.00,0.3246
2397.00,0.3246
2396.00,0.3246
2395.00,0.3246
2394.00,0.3247
2393.00,0.3248
2392.00,0.3249
2391.00,0.3251
2390.00,0.3253
2389.00,0.3256
2388.00,0.3258
2387.00,0.3261
2386.00,0.3264
2385.00,0.3267
2384.00,0.3270
2383.00,0.3274
2382.00,0.3277
2381.00,0.3281
2380.00,0.3286
2379.00,0.3290
2378.00,0.3293
2377.00,0.3296
2376.00,0.3297
2375.00,0.3297
2374.00,0.3297
2373.00,0.3297
2372.00,0.3298
2371.00,0.3299
2370.00,0.3300
2369.00,0.3302
2368.00,0.3304
2367.00,0.3306
2366.00,0.3306
2365.00,0.3307
2364.00,0.3308
2363.00,0.3310
2362.00,0.3310
2361.00,0.3311
2360.00,0.3311
2359.00,0.3311
2358.00,0.3310
2357.00,0.3310
2356.00,0.3310
2355.00,0.3311
2354.00,0.3312
2353.00,0.3314
2352.00,0.3317
2351.00,0.3317
2350.00,0.3315
2349.00,0.3311
2348.00,0.3308
2347.00,0.3307
2346.00,0.3309
2345.00,0.3310
2344.00,0.3310
2343.00,0.3308
2342.00,0.3306
2341.00,0.3304
2340.00,0.3303
2339.00,0.3302
2338.00,0.3301
2337.00,0.3299
2336.00,0.3297
2335.00,0.3294
2334.00,0.3292
2333.00,0.3291
2332.00,0.3291
2331.00,0.3290
2330.00,0.3288
2329.00,0.3285
2328.00,0.3281
2327.00,0.3277
2326.00,0.3273
2325.00,0.3271
2324.00,0.3270
2323.00,0.3268
2322.00,0.3265
2321.00,0.3261
2320.00,0.3256
2319.00,0.3251
2318.00,0.3246
2317.00,0.3242
2316.00,0.3238
2315.00,0.3235
2314.00,0.3233
2313.00,0.3231
2312.00,0.3229
2311.00,0.3225
2310.00,0.3221
2309.00,0.3217
2308.00,0.3211
2307.00,0.3206
2306.00,0.3200
2305.00,0.3194
2304.00,0.3189
2303.00,0.3184
2302.00,0.3180
2301.00,0.3176
2300.00,0.3172
2299.00,0.3167
2298.00,0.3163
2297.00,0.3159
2296.00,0.3155
2295.00,0.3152
2294.00,0.3148
2293.00,0.3145
2292.00,0.3141
2291.00,0.3137
2290.00,0.3133
2289.00,0.3129
2288.00,0.3125
2287.00,0.3121
2286.00,0.3117
2285.00,0.3113
2284.00,0.3109
2283.00,0.3105
2282.00,0.3102
2281.00,0.3099
2280.00,0.3096
2279.00,0.3094
2278.00,0.3091
2277.00,0.3089
2276.00,0.3086
2275.00,0.3083
2274.00,0.3080
2273.00,0.3078
2272.00,0.3076
2271.00,0.3075
2270.00,0.3074
2269.00,0.3073
2268.00,0.3072
2267.00,0.3071
2266.00,0.3070
2265.00,0.3069
2264.00,0.3067
2263.00,0.3065
2262.00,0.3063
2261.00,0.3061
2260.00,0.3060
2259.00,0.3058
2258.00,0.3056
2257.00,0.3054
2256.00,0.3052
2255.00,0.3050
2254.00,0.3048
2253.00,0.3046
2252.00,0.3044
2251.00,0.3042
2250.00,0.3040
2249.00,0.3038
2248.00,0.3036
2247.00,0.3033
2246.00,0.3030
2245.00,0.3028
2244.00,0.3025
2243.00,0.3022
2242.00,0.3019
2241.00,0.3017
2240.00,0.3014
2239.00,0.3012
2238.00,0.3009
2237.00,0.3006
2236.00,0.3003
2235.00,0.3000
2234.00,0.2997
2233.00,0.2994
2232.00,0.2992
2231.00,0.2990
2230.00,0.2988
2229.00,0.2987
2228.00,0.2986
2227.00,0.2986
2226.00,0.2985
2225.00,0.2984
2224.00,0.2983
2223.00,0.2982
2222.00,0.2981
2221.00,0.2981
2220.00,0.2981
2219.00,0.2981
2218.00,0.2981
2217.00,0.2981
2216.00,0.2982
2215.00,0.2982
2214.00,0.2983
2213.00,0.2984
2212.00,0.2984
2211.00,0.2984
2210.00,0.2985
2209.00,0.2985
2208.00,0.2985
2207.00,0.2985
2206.00,0.2985
2205.00,0.2985
2204.00,0.2985
2203.00,0.2985
2202.00,0.2985
2201.00,0.2984
2200.00,0.2985
2199.00,0.2985
2198.00,0.2985
2197.00,0.2985
2196.00,0.2986
2195.00,0.2986
2194.00,0.2987
2193.00,0.2987
2192.00,0.2987
2191.00,0.2988
2190.00,0.2988
2189.00,0.2989
2188.00,0.2990
2187.00,0.2991
2186.00,0.2992
2185.00,0.2993
2184.00,0.2995
2183.00,0.2995
2182.00,0.2996
2181.00,0.2997
2180.00,0.2997
2179.00,0.2998
2178.00,0.2999
2177.00,0.3000
2176.00,0.3001
2175.00,0.3002
2174.00,0.3003
2173.00,0.3004
2172.00,0.3005
2171.00,0.3006
2170.00,0.3006
2169.00,0.3007
2168.00,0.3007
2167.00,0.3006
2166.00,0.3006
2165.00,0.3006
2164.00,0.3006
2163.00,0.3006
2162.00,0.3005
2161.00,0.3004
2160.00,0.3003
2159.00,0.3002
2158.00,0.3000
2157.00,0.2999
2156.00,0.2998
2155.00,0.2997
2154.00,0.2996
2153.00,0.2995
2152.00,0.2995
2151.00,0.2994
2150.00,0.2992
2149.00,0.2990
2148.00,0.2987
2147.00,0.2983
2146.00,0.2978
2145.00,0.2972
2144.00,0.2967
2143.00,0.2961
2142.00,0.2955
2141.00,0.2949
2140.00,0.2944
2139.00,0.2939
2138.00,0.2934
2137.00,0.2930
2136.00,0.2927
2135.00,0.2924
2134.00,0.2921
2133.00,0.2918
2132.00,0.2916
2131.00,0.2913
2130.00,0.2911
2129.00,0.2909
2128.00,0.2907
2127.00,0.2905
2126.00,0.2903
2125.00,0.2901
2124.00,0.2899
2123.00,0.2897
2122.00,0.2896
2121.00,0.2894
2120.00,0.2894
2119.00,0.2892
2118.00,0.2891
2117.00,0.2889
2116.00,0.2886
2115.00,0.2884
2114.00,0.2882
2113.00,0.2880
2112.00,0.2878
2111.00,0.2877
2110.00,0.2876
2109.00,0.2875
2108.00,0.2875
2107.00,0.2874
2106.00,0.2874
2105.00,0.2875
2104.00,0.2875
2103.00,0.2876
2102.00,0.2876
2101.00,0.2877
2100.00,0.2877
2099.00,0.2876
2098.00,0.2876
2097.00,0.2876
2096.00,0.2876
2095.00,0.2876
2094.00,0.2876
2093.00,0.2876
2092.00,0.2876
2091.00,0.2876
2090.00,0.2875
2089.00,0.2875
2088.00,0.2874
2087.00,0.2874
2086.00,0.2873
2085.00,0.2873
2084.00,0.2872
2083.00,0.2871
2082.00,0.2870
2081.00,0.2870
2080.00,0.2870
2079.00,0.2870
2078.00,0.2869
2077.00,0.2869
2076.00,0.2869
2075.00,0.2869
2074.00,0.2869
2073.00,0.2870
2072.00,0.2871
2071.00,0.2872
2070.00,0.2872
2069.00,0.2873
2068.00,0.2874
2067.00,0.2876
2066.00,0.2878
2065.00,0.2881
2064.00,0.2883
2063.00,0.2885
2062.00,0.2888
2061.00,0.2890
2060.00,0.2893
2059.00,0.2896
2058.00,0.2899
2057.00,0.2903
2056.00,0.2906
2055.00,0.2910
2054.00,0.2914
2053.00,0.2918
2052.00,0.2922
2051.00,0.2926
2050.00,0.2930
2049.00,0.2934
2048.00,0.2939
2047.00,0.2943
2046.00,0.2946
2045.00,0.2950
2044.00,0.2953
2043.00,0.2955
2042.00,0.2957
2041.00,0.2958
2040.00,0.2959
2039.00,0.2960
2038.00,0.2960
2037.00,0.2961
2036.00,0.2962
2035.00,0.2964
2034.00,0.2965
2033.00,0.2967
2032.00,0.2969
2031.00,0.2972
2030.00,0.2975
2029.00,0.2978
2028.00,0.2981
2027.00,0.2983
2026.00,0.2986
2025.00,0.2987
2024.00,0.2987
2023.00,0.2986
2022.00,0.2982
2021.00,0.2978
2020.00,0.2971
2019.00,0.2963
2018.00,0.2953
2017.00,0.2943
2016.00,0.2932
2015.00,0.2920
2014.00,0.2910
2013.00,0.2899
2012.00,0.2890
2011.00,0.2881
2010.00,0.2873
2009.00,0.2866
2008.00,0.2860
2007.00,0.2854
2006.00,0.2849
2005.00,0.2845
2004.00,0.2841
2003.00,0.2836
2002.00,0.2833
2001.00,0.2830
2000.00,0.2827
1999.00,0.2825
1998.00,0.2823
1997.00,0.2820
1996.00,0.2818
1995.00,0.2816
1994.00,0.2815
1993.00,0.2814
1992.00,0.2812
1991.00,0.2811
1990.00,0.2810
1989.00,0.2808
1988.00,0.2807
1987.00,0.2806
1986.00,0.2804
1985.00,0.2804
1984.00,0.2803
1983.00,0.2803
1982.00,0.2803
1981.00,0.2803
1980.00,0.2803
1979.00,0.2803
1978.00,0.2803
1977.00,0.2803
1976.00,0.2803
1975.00,0.2802
1974.00,0.2802
1973.00,0.2803
1972.00,0.2803
1971.00,0.2803
1970.00,0.2802
1969.00,0.2802
1968.00,0.2802
1967.00,0.2803
1966.00,0.2803
1965.00,0.2802
1964.00,0.2802
1963.00,0.2801
1962.00,0.2801
1961.00,0.2801
1960.00,0.2801
1959.00,0.2800
1958.00,0.2800
1957.00,0.2800
1956.00,0.2800
1955.00,0.2800
1954.00,0.2800
1953.00,0.2801
1952.00,0.2802
1951.00,0.2803
1950.00,0.2803
1949.00,0.2803
1948.00,0.2804
1947.00,0.2804
1946.00,0.2805
1945.00,0.2807
1944.00,0.2810
1943.00,0.2813
1942.00,0.2816
1941.00,0.2819
1940.00,0.2821
1939.00,0.2823
1938.00,0.2825
1937.00,0.2826
1936.00,0.2828
1935.00,0.2829
1934.00,0.2829
1933.00,0.2830
1932.00,0.2832
1931.00,0.2833
1930.00,0.2834
1929.00,0.2836
1928.00,0.2837
1927.00,0.2838
1926.00,0.2839
1925.00,0.2839
1924.00,0.2841
1923.00,0.2843
1922.00,0.2845
1921.00,0.2847
1920.00,0.2849
1919.00,0.2850
1918.00,0.2851
1917.00,0.2851
1916.00,0.2851
1915.00,0.2850
1914.00,0.2849
1913.00,0.2849
1912.00,0.2848
1911.00,0.2847
1910.00,0.2847
1909.00,0.2847
1908.00,0.2847
1907.00,0.2846
1906.00,0.2846
1905.00,0.2845
1904.00,0.2845
1903.00,0.2845
1902.00,0.2846
1901.00,0.2846
1900.00,0.2847
1899.00,0.2847
1898.00,0.2848
1897.00,0.2849
1896.00,0.2850
1895.00,0.2851
1894.00,0.2852
1893.00,0.2852
1892.00,0.2852
1891.00,0.2852
1890.00,0.2853
1889.00,0.2854
1888.00,0.2855
1887.00,0.2855
1886.00,0.2855
1885.00,0.2855
1884.00,0.2856
1883.00,0.2856
1882.00,0.2856
1881.00,0.2857
1880.00,0.2857
1879.00,0.2857
1878.00,0.2857
1877.00,0.2856
1876.00,0.2856
1875.00,0.2855
1874.00,0.2854
1873.00,0.2853
1872.00,0.2852
1871.00,0.2851
1870.00,0.2851
1869.00,0.2852
1868.00,0.2853
1867.00,0.2854
1866.00,0.2855
1865.00,0.2856
1864.00,0.2857
1863.00,0.2856
1862.00,0.2855
1861.00,0.2855
1860.00,0.2854
1859.00,0.2853
1858.00,0.2852
1857.00,0.2851
1856.00,0.2850
1855.00,0.2849
1854.00,0.2847
1853.00,0.2846
1852.00,0.2845
1851.00,0.2843
1850.00,0.2842
1849.00,0.2840
1848.00,0.2839
1847.00,0.2838
1846.00,0.2838
1845.00,0.2840
1844.00,0.2841
1843.00,0.2840
1842.00,0.2838
1841.00,0.2836
1840.00,0.2835
1839.00,0.2833
1838.00,0.2832
1837.00,0.2831
1836.00,0.2831
1835.00,0.2829
1834.00,0.2827
1833.00,0.2825
1832.00,0.2823
1831.00,0.2822
1830.00,0.2822
1829.00,0.2822
1828.00,0.2823
1827.00,0.2825
1826.00,0.2827
1825.00,0.2830
1824.00,0.2832
1823.00,0.2833
1822.00,0.2834
1821.00,0.2835
1820.00,0.2836
1819.00,0.2837
1818.00,0.2839
1817.00,0.2840
1816.00,0.2842
1815.00,0.2843
1814.00,0.2843
1813.00,0.2843
1812.00,0.2844
1811.00,0.2845
1810.00,0.2846
1809.00,0.2848
1808.00,0.2851
1807.00,0.2852
1806.00,0.2852
1805.00,0.2854
1804.00,0.2856
1803.00,0.2858
1802.00,0.2858
1801.00,0.2859
1800.00,0.2861
1799.00,0.2864
1798.00,0.2866
1797.00,0.2869
1796.00,0.2872
1795.00,0.2875
1794.00,0.2879
1793.00,0.2884
1792.00,0.2890
1791.00,0.2895
1790.00,0.2898
1789.00,0.2903
1788.00,0.2908
1787.00,0.2915
1786.00,0.2921
1785.00,0.2926
1784.00,0.2930
1783.00,0.2933
1782.00,0.2937
1781.00,0.2943
1780.00,0.2949
1779.00,0.2954
1778.00,0.2958
1777.00,0.2961
1776.00,0.2965
1775.00,0.2969
1774.00,0.2973
1773.00,0.2978
1772.00,0.2983
1771.00,0.2988
1770.00,0.2994
1769.00,0.3000
1768.00,0.3006
1767.00,0.3009
1766.00,0.3011
1765.00,0.3014
1764.00,0.3021
1763.00,0.3030
1762.00,0.3040
1761.00,0.3052
1760.00,0.3065
1759.00,0.3079
1758.00,0.3098
1757.00,0.3121
1756.00,0.3147
1755.00,0.3173
1754.00,0.3202
1753.00,0.3235
1752.00,0.3269
1751.00,0.3302
1750.00,0.3331
1749.00,0.3359
1748.00,0.3384
1747.00,0.3405
1746.00,0.3420
1745.00,0.3429
1744.00,0.3432
1743.00,0.3430
1742.00,0.3424
1741.00,0.3416
1740.00,0.3406
1739.00,0.3391
1738.00,0.3375
1737.00,0.3363
1736.00,0.3354
1735.00,0.3342
1734.00,0.3325
1733.00,0.3305
1732.00,0.3284
1731.00,0.3267
1730.00,0.3254
1729.00,0.3245
1728.00,0.3238
1727.00,0.3232
1726.00,0.3228
1725.00,0.3226
1724.00,0.3225
1723.00,0.3225
1722.00,0.3224
1721.00,0.3226
1720.00,0.3231
1719.00,0.3238
1718.00,0.3247
1717.00,0.3256
1716.00,0.3263
1715.00,0.3271
1714.00,0.3280
1713.00,0.3292
1712.00,0.3304
1711.00,0.3317
1710.00,0.3331
1709.00,0.3346
1708.00,0.3362
1707.00,0.3379
1706.00,0.3395
1705.00,0.3407
1704.00,0.3414
1703.00,0.3418
1702.00,0.3419
1701.00,0.3415
1700.00,0.3405
1699.00,0.3392
1698.00,0.3385
1697.00,0.3386
1696.00,0.3387
1695.00,0.3381
1694.00,0.3370
1693.00,0.3362
1692.00,0.3359
1691.00,0.3358
1690.00,0.3358
1689.00,0.3359
1688.00,0.3363
1687.00,0.3370
1686.00,0.3376
1685.00,0.3382
1684.00,0.3388
1683.00,0.3391
1682.00,0.3394
1681.00,0.3399
1680.00,0.3406
1679.00,0.3412
1678.00,0.3419
1677.00,0.3428
1676.00,0.3440
1675.00,0.3450
1674.00,0.3457
1673.00,0.3465
1672.00,0.3474
1671.00,0.3487
1670.00,0.3502
1669.00,0.3519
1668.00,0.3535
1667.00,0.3546
1666.00,0.3555
1665.00,0.3566
1664.00,0.3579
1663.00,0.3593
1662.00,0.3607
1661.00,0.3620
1660.00,0.3632
1659.00,0.3642
1658.00,0.3650
1657.00,0.3661
1656.00,0.3677
1655.00,0.3697
1654.00,0.3724
1653.00,0.3757
1652.00,0.3778
1651.00,0.3782
1650.00,0.3786
1649.00,0.3800
1648.00,0.3826
1647.00,0.3859
1646.00,0.3895
1645.00,0.3927
1644.00,0.3955
1643.00,0.3980
1642.00,0.4006
1641.00,0.4036
1640.00,0.4066
1639.00,0.4095
1638.00,0.4127
1637.00,0.4166
1636.00,0.4215
1635.00,0.4264
1634.00,0.4306
1633.00,0.4345
1632.00,0.4384
1631.00,0.4424
1630.00,0.4467
1629.00,0.4516
1628.00,0.4571
1627.00,0.4628
1626.00,0.4686
1625.00,0.4751
1624.00,0.4828
1623.00,0.4914
1622.00,0.5005
1621.00,0.5099
1620.00,0.5196
1619.00,0.5300
1618.00,0.5422
1617.00,0.5570
1616.00,0.5735
1615.00,0.5899
1614.00,0.6066
1613.00,0.6252
1612.00,0.6466
1611.00,0.6701
1610.00,0.6950
1609.00,0.7215
1608.00,0.7492
1607.00,0.7776
1606.00,0.8074
1605.00,0.8408
1604.00,0.8800
1603.00,0.9254
1602.00,0.9770
1601.00,1.0354
1600.00,1.0999
1599.00,1.1684
1598.00,1.2404
1597.00,1.3211
1596.00,1.4162
1595.00,1.5277
1594.00,1.6568
1593.00,1.8116
1592.00,2.0040
1591.00,2.2316
1590.00,2.4766
1589.00,2.7553
1588.00,3.1474
1587.00,3.6516
1586.00,3.7423
1585.00,3.8568
1584.00,4.0017
1583.00,3.8929
1582.00,4.1253
1581.00,3.9194
1580.00,4.0491
1579.00,4.0756
1578.00,3.9215
1577.00,3.8615
1576.00,4.6064
1575.00,3.8531
1574.00,3.1578
1573.00,2.8401
1572.00,2.6474
1571.00,2.4747
1570.00,2.3320
1569.00,2.2629
1568.00,2.2708
1567.00,2.3288
1566.00,2.4219
1565.00,2.5751
1564.00,2.8409
1563.00,3.2201
1562.00,3.5514
1561.00,3.6544
1560.00,3.5809
1559.00,3.7030
1558.00,3.2261
1557.00,2.8302
1556.00,2.5531
1555.00,2.2474
1554.00,1.9674
1553.00,1.7452
1552.00,1.5667
1551.00,1.4132
1550.00,1.2808
1549.00,1.1738
1548.00,1.0904
1547.00,1.0228
1546.00,0.9647
1545.00,0.9147
1544.00,0.8726
1543.00,0.8366
1542.00,0.8042
1541.00,0.7741
1540.00,0.7467
1539.00,0.7229
1538.00,0.7039
1537.00,0.6904
1536.00,0.6808
1535.00,0.6735
1534.00,0.6683
1533.00,0.6668
1532.00,0.6694
1531.00,0.6752
1530.00,0.6836
1529.00,0.6945
1528.00,0.7070
1527.00,0.7189
1526.00,0.7289
1525.00,0.7372
1524.00,0.7450
1523.00,0.7537
1522.00,0.7651
1521.00,0.7794
1520.00,0.7942
1519.00,0.8065
1518.00,0.8152
1517.00,0.8191
1516.00,0.8162
1515.00,0.8057
1514.00,0.7896
1513.00,0.7706
1512.00,0.7512
1511.00,0.7334
1510.00,0.7187
1509.00,0.7077
1508.00,0.7002
1507.00,0.6961
1506.00,0.6951
1505.00,0.6972
1504.00,0.7015
1503.00,0.7076
1502.00,0.7149
1501.00,0.7234
1500.00,0.7323
1499.00,0.7406
1498.00,0.7479
1497.00,0.7551
1496.00,0.7625
1495.00,0.7698
1494.00,0.7777
1493.00,0.7882
1492.00,0.8023
1491.00,0.8203
1490.00,0.8420
1489.00,0.8673
1488.00,0.8951
1487.00,0.9244
1486.00,0.9551
1485.00,0.9878
1484.00,1.0224
1483.00,1.0592
1482.00,1.0992
1481.00,1.1441
1480.00,1.1940
1479.00,1.2498
1478.00,1.3150
1477.00,1.3955
1476.00,1.4953
1475.00,1.6172
1474.00,1.7716
1473.00,1.9801
1472.00,2.2643
1471.00,2.6311
1470.00,3.0757
1469.00,3.6271
1468.00,4.4639
1467.00,4.1920
1466.00,3.7461
1465.00,3.6041
1464.00,3.6370
1463.00,3.7044
1462.00,3.5631
1461.00,3.5064
1460.00,3.6122
1459.00,3.7167
1458.00,3.8256
1457.00,4.2301
1456.00,4.4806
1455.00,4.0117
1454.00,3.9000
1453.00,3.9533
1452.00,4.0523
1451.00,4.0201
1450.00,3.9709
1449.00,4.2990
1448.00,4.3341
1447.00,3.9022
1446.00,3.8384
1445.00,3.8583
1444.00,3.9438
1443.00,4.0212
1442.00,3.9576
1441.00,3.9683
1440.00,3.8013
1439.00,3.4484
1438.00,3.1817
1437.00,2.9897
1436.00,2.8000
1435.00,2.5978
1434.00,2.4080
1433.00,2.2344
1432.00,2.0695
1431.00,1.9159
1430.00,1.7824
1429.00,1.6733
1428.00,1.5872
1427.00,1.5207
1426.00,1.4709
1425.00,1.4364
1424.00,1.4165
1423.00,1.4090
1422.00,1.4100
1421.00,1.4153
1420.00,1.4215
1419.00,1.4276
1418.00,1.4365
1417.00,1.4533
1416.00,1.4810
1415.00,1.5158
1414.00,1.5463
1413.00,1.5574
1412.00,1.5406
1411.00,1.5030
1410.00,1.4608
1409.00,1.4251
1408.00,1.3967
1407.00,1.3697
1406.00,1.3376
1405.00,1.2977
1404.00,1.2526
1403.00,1.2080
1402.00,1.1690
1401.00,1.1380
1400.00,1.1161
1399.00,1.1038
1398.00,1.0995
1397.00,1.0994
1396.00,1.0981
1395.00,1.0915
1394.00,1.0787
1393.00,1.0624
1392.00,1.0464
1391.00,1.0333
1390.00,1.0248
1389.00,1.0222
1388.00,1.0272
1387.00,1.0412
1386.00,1.0657
1385.00,1.1030
1384.00,1.1579
1383.00,1.2365
1382.00,1.3442
1381.00,1.4829
1380.00,1.6460
1379.00,1.8028
1378.00,1.8890
1377.00,1.8596
1376.00,1.7511
1375.00,1.6241
1374.00,1.5141
1373.00,1.4349
1372.00,1.3872
1371.00,1.3657
1370.00,1.3640
1369.00,1.3752
1368.00,1.3886
1367.00,1.3912
1366.00,1.3726
1365.00,1.3314
1364.00,1.2737
1363.00,1.2094
1362.00,1.1487
1361.00,1.0981
1360.00,1.0592
1359.00,1.0310
1358.00,1.0113
1357.00,0.9987
1356.00,0.9919
1355.00,0.9892
1354.00,0.9894
1353.00,0.9909
1352.00,0.9925
1351.00,0.9935
1350.00,0.9941
1349.00,0.9954
1348.00,0.9993
1347.00,1.0079
1346.00,1.0233
1345.00,1.0463
1344.00,1.0752
1343.00,1.1056
1342.00,1.1301
1341.00,1.1402
1340.00,1.1299
1339.00,1.0991
1338.00,1.0541
1337.00,1.0036
1336.00,0.9542
1335.00,0.9099
1334.00,0.8724
1333.00,0.8416
1332.00,0.8170
1331.00,0.7983
1330.00,0.7855
1329.00,0.7791
1328.00,0.7802
1327.00,0.7900
1326.00,0.8082
1325.00,0.8304
1324.00,0.8477
1323.00,0.8516
1322.00,0.8401
1321.00,0.8198
1320.00,0.7993
1319.00,0.7839
1318.00,0.7750
1317.00,0.7716
1316.00,0.7723
1315.00,0.7759
1314.00,0.7819
1313.00,0.7896
1312.00,0.7986
1311.00,0.8082
1310.00,0.8178
1309.00,0.8272
1308.00,0.8367
1307.00,0.8468
1306.00,0.8581
1305.00,0.8701
1304.00,0.8803
1303.00,0.8844
1302.00,0.8796
1301.00,0.8681
1300.00,0.8553
1299.00,0.8461
1298.00,0.8414
1297.00,0.8378
1296.00,0.8301
1295.00,0.8152
1294.00,0.7945
1293.00,0.7726
1292.00,0.7534
1291.00,0.7383
1290.00,0.7266
1289.00,0.7170
1288.00,0.7083
1287.00,0.6997
1286.00,0.6905
1285.00,0.6803
1284.00,0.6695
1283.00,0.6587
1282.00,0.6487
1281.00,0.6400
1280.00,0.6330
1279.00,0.6274
1278.00,0.6231
1277.00,0.6198
1276.00,0.6175
1275.00,0.6164
1274.00,0.6165
1273.00,0.6181
1272.00,0.6212
1271.00,0.6257
1270.00,0.6307
1269.00,0.6346
1268.00,0.6364
1267.00,0.6352
1266.00,0.6314
1265.00,0.6253
1264.00,0.6179
1263.00,0.6101
1262.00,0.6028
1261.00,0.5970
1260.00,0.5932
1259.00,0.5913
1258.00,0.5904
1257.00,0.5896
1256.00,0.5883
1255.00,0.5865
1254.00,0.5843
1253.00,0.5820
1252.00,0.5799
1251.00,0.5779
1250.00,0.5759
1249.00,0.5739
1248.00,0.5721
1247.00,0.5706
1246.00,0.5693
1245.00,0.5681
1244.00,0.5666
1243.00,0.5647
1242.00,0.5627
1241.00,0.5609
1240.00,0.5601
1239.00,0.5610
1238.00,0.5638
1237.00,0.5685
1236.00,0.5748
1235.00,0.5823
1234.00,0.5905
1233.00,0.5990
1232.00,0.6073
1231.00,0.6152
1230.00,0.6221
1229.00,0.6272
1228.00,0.6302
1227.00,0.6309
1226.00,0.6300
1225.00,0.6282
1224.00,0.6263
1223.00,0.6248
1222.00,0.6234
1221.00,0.6212
1220.00,0.6173
1219.00,0.6110
1218.00,0.6033
1217.00,0.5964
1216.00,0.5923
1215.00,0.5918
1214.00,0.5936
1213.00,0.5947
1212.00,0.5919
1211.00,0.5835
1210.00,0.5706
1209.00,0.5565
1208.00,0.5443
1207.00,0.5356
1206.00,0.5303
1205.00,0.5273
1204.00,0.5255
1203.00,0.5243
1202.00,0.5236
1201.00,0.5238
1200.00,0.5254
1199.00,0.5285
1198.00,0.5331
1197.00,0.5387
1196.00,0.5446
1195.00,0.5502
1194.00,0.5552
1193.00,0.5594
1192.00,0.5630
1191.00,0.5657
1190.00,0.5671
1189.00,0.5662
1188.00,0.5631
1187.00,0.5586
1186.00,0.5536
1185.00,0.5491
1184.00,0.5455
1183.00,0.5429
1182.00,0.5410
1181.00,0.5394
1180.00,0.5379
1179.00,0.5362
1178.00,0.5342
1177.00,0.5317
1176.00,0.5286
1175.00,0.5248
1174.00,0.5207
1173.00,0.5163
1172.00,0.5121
1171.00,0.5081
1170.00,0.5044
1169.00,0.5009
1168.00,0.4976
1167.00,0.4947
1166.00,0.4923
1165.00,0.4904
1164.00,0.4891
1163.00,0.4885
1162.00,0.4887
1161.00,0.4897
1160.00,0.4918
1159.00,0.4954
1158.00,0.5013
1157.00,0.5100
1156.00,0.5233
1155.00,0.5432
1154.00,0.5701
1153.00,0.5998
1152.00,0.6225
1151.00,0.6289
1150.00,0.6188
1149.00,0.6010
1148.00,0.5849
1147.00,0.5746
1146.00,0.5700
1145.00,0.5694
1144.00,0.5719
1143.00,0.5774
1142.00,0.5862
1141.00,0.5988
1140.00,0.6155
1139.00,0.6353
1138.00,0.6556
1137.00,0.6731
1136.00,0.6856
1135.00,0.6922
1134.00,0.6932
1133.00,0.6886
1132.00,0.6784
1131.00,0.6633
1130.00,0.6453
1129.00,0.6275
1128.00,0.6124
1127.00,0.6010
1126.00,0.5931
1125.00,0.5884
1124.00,0.5863
1123.00,0.5861
1122.00,0.5869
1121.00,0.5885
1120.00,0.5911
1119.00,0.5956
1118.00,0.6023
1117.00,0.6113
1116.00,0.6217
1115.00,0.6310
1114.00,0.6359
1113.00,0.6335
1112.00,0.6234
1111.00,0.6080
1110.00,0.5908
1109.00,0.5750
1108.00,0.5622
1107.00,0.5527
1106.00,0.5461
1105.00,0.5420
1104.00,0.5398
1103.00,0.5390
1102.00,0.5389
1101.00,0.5391
1100.00,0.5393
1099.00,0.5391
1098.00,0.5384
1097.00,0.5370
1096.00,0.5353
1095.00,0.5337
1094.00,0.5325
1093.00,0.5320
1092.00,0.5323
1091.00,0.5336
1090.00,0.5363
1089.00,0.5404
1088.00,0.5463
1087.00,0.5541
1086.00,0.5636
1085.00,0.5750
1084.00,0.5883
1083.00,0.6034
1082.00,0.6196
1081.00,0.6362
1080.00,0.6522
1079.00,0.6660
1078.00,0.6762
1077.00,0.6818
1076.00,0.6825
1075.00,0.6785
1074.00,0.6707
1073.00,0.6608
1072.00,0.6502
1071.00,0.6399
1070.00,0.6304
1069.00,0.6223
1068.00,0.6158
1067.00,0.6109
1066.00,0.6076
1065.00,0.6055
1064.00,0.6046
1063.00,0.6047
1062.00,0.6054
1061.00,0.6064
1060.00,0.6077
1059.00,0.6086
1058.00,0.6090
1057.00,0.6086
1056.00,0.6080
1055.00,0.6075
1054.00,0.6074
1053.00,0.6076
1052.00,0.6083
1051.00,0.6101
1050.00,0.6128
1049.00,0.6166
1048.00,0.6209
1047.00,0.6253
1046.00,0.6293
1045.00,0.6327
1044.00,0.6355
1043.00,0.6379
1042.00,0.6404
1041.00,0.6432
1040.00,0.6464
1039.00,0.6497
1038.00,0.6529
1037.00,0.6562
1036.00,0.6599
1035.00,0.6644
1034.00,0.6700
1033.00,0.6774
1032.00,0.6867
1031.00,0.6978
1030.00,0.7095
1029.00,0.7203
1028.00,0.7287
1027.00,0.7331
1026.00,0.7330
1025.00,0.7293
1024.00,0.7236
1023.00,0.7174
1022.00,0.7119
1021.00,0.7076
1020.00,0.7049
1019.00,0.7039
1018.00,0.7046
1017.00,0.7064
1016.00,0.7091
1015.00,0.7125
1014.00,0.7164
1013.00,0.7207
1012.00,0.7251
1011.00,0.7296
1010.00,0.7341
1009.00,0.7388
1008.00,0.7438
1007.00,0.7490
1006.00,0.7541
1005.00,0.7593
1004.00,0.7647
1003.00,0.7702
1002.00,0.7751
1001.00,0.7782
1000.00,0.7785
999.00,0.7751
998.00,0.7680
997.00,0.7582
996.00,0.7465
995.00,0.7338
994.00,0.7203
993.00,0.7063
992.00,0.6921
991.00,0.6779
990.00,0.6638
989.00,0.6501
988.00,0.6371
987.00,0.6252
986.00,0.6144
985.00,0.6047
984.00,0.5959
983.00,0.5879
982.00,0.5804
981.00,0.5731
980.00,0.5660
979.00,0.5589
978.00,0.5519
977.00,0.5450
976.00,0.5387
975.00,0.5331
974.00,0.5281
973.00,0.5238
972.00,0.5203
971.00,0.5179
970.00,0.5166
969.00,0.5164
968.00,0.5170
967.00,0.5181
966.00,0.5191
965.00,0.5194
964.00,0.5188
963.00,0.5170
962.00,0.5143
961.00,0.5110
960.00,0.5079
959.00,0.5054
958.00,0.5039
957.00,0.5032
956.00,0.5030
955.00,0.5031
954.00,0.5030
953.00,0.5026
952.00,0.5018
951.00,0.5008
950.00,0.5001
949.00,0.4999
948.00,0.5006
947.00,0.5023
946.00,0.5049
945.00,0.5078
944.00,0.5103
943.00,0.5115
942.00,0.5112
941.00,0.5096
940.00,0.5071
939.00,0.5042
938.00,0.5011
937.00,0.4982
936.00,0.4956
935.00,0.4936
934.00,0.4923
933.00,0.4920
932.00,0.4932
931.00,0.4963
930.00,0.5020
929.00,0.5104
928.00,0.5218
927.00,0.5356
926.00,0.5505
925.00,0.5643
924.00,0.5753
923.00,0.5826
922.00,0.5863
921.00,0.5870
920.00,0.5857
919.00,0.5831
918.00,0.5792
917.00,0.5729
916.00,0.5620
915.00,0.5452
914.00,0.5239
913.00,0.5018
912.00,0.4826
911.00,0.4680
910.00,0.4574
909.00,0.4494
908.00,0.4433
907.00,0.4385
906.00,0.4349
905.00,0.4322
904.00,0.4304
903.00,0.4294
902.00,0.4294
901.00,0.4301
900.00,0.4316
899.00,0.4340
898.00,0.4371
897.00,0.4409
896.00,0.4457
895.00,0.4514
894.00,0.4578
893.00,0.4644
892.00,0.4709
891.00,0.4766
890.00,0.4804
889.00,0.4814
888.00,0.4792
887.00,0.4744
886.00,0.4678
885.00,0.4608
884.00,0.4545
883.00,0.4497
882.00,0.4466
881.00,0.4451
880.00,0.4447
879.00,0.4451
878.00,0.4459
877.00,0.4468
876.00,0.4480
875.00,0.4494
874.00,0.4508
873.00,0.4523
872.00,0.4538
871.00,0.4557
870.00,0.4585
869.00,0.4626
868.00,0.4687
867.00,0.4775
866.00,0.4892
865.00,0.5034
864.00,0.5185
863.00,0.5313
862.00,0.5389
861.00,0.5393
860.00,0.5329
859.00,0.5218
858.00,0.5089
857.00,0.4967
856.00,0.4868
855.00,0.4797
854.00,0.4750
853.00,0.4720
852.00,0.4704
851.00,0.4697
850.00,0.4698
849.00,0.4705
848.00,0.4716
847.00,0.4732
846.00,0.4750
845.00,0.4772
844.00,0.4798
843.00,0.4834
842.00,0.4889
841.00,0.4973
840.00,0.5093
839.00,0.5243
838.00,0.5399
837.00,0.5522
836.00,0.5574
835.00,0.5533
834.00,0.5410
833.00,0.5241
832.00,0.5066
831.00,0.4918
830.00,0.4810
829.00,0.4742
828.00,0.4710
827.00,0.4708
826.00,0.4729
825.00,0.4768
824.00,0.4819
823.00,0.4873
822.00,0.4916
821.00,0.4936
820.00,0.4926
819.00,0.4890
818.00,0.4838
817.00,0.4780
816.00,0.4726
815.00,0.4681
814.00,0.4642
813.00,0.4605
812.00,0.4571
811.00,0.4540
810.00,0.4511
809.00,0.4484
808.00,0.4459
807.00,0.4434
806.00,0.4410
805.00,0.4389
804.00,0.4372
803.00,0.4362
802.00,0.4362
801.00,0.4371
800.00,0.4387
799.00,0.4410
798.00,0.4433
797.00,0.4453
796.00,0.4473
795.00,0.4494
794.00,0.4518
793.00,0.4547
792.00,0.4577
791.00,0.4608
790.00,0.4638
789.00,0.4663
788.00,0.4684
787.00,0.4708
786.00,0.4743
785.00,0.4799
784.00,0.4879
783.00,0.4978
782.00,0.5083
781.00,0.5169
780.00,0.5209
779.00,0.5188
778.00,0.5110
777.00,0.5001
776.00,0.4894
775.00,0.4808
774.00,0.4751
773.00,0.4725
772.00,0.4729
771.00,0.4766
770.00,0.4838
769.00,0.4943
768.00,0.5075
767.00,0.5212
766.00,0.5326
765.00,0.5397
764.00,0.5432
763.00,0.5453
762.00,0.5480
761.00,0.5519
760.00,0.5562
759.00,0.5601
758.00,0.5629
757.00,0.5652
756.00,0.5679
755.00,0.5720
754.00,0.5770
753.00,0.5821
752.00,0.5873
751.00,0.5937
750.00,0.6032
749.00,0.6170
748.00,0.6349
747.00,0.6555
746.00,0.6759
745.00,0.6924
744.00,0.7017
743.00,0.7029
742.00,0.6980
741.00,0.6910
740.00,0.6852
739.00,0.6827
738.00,0.6845
737.00,0.6910
736.00,0.7019
735.00,0.7168
734.00,0.7351
733.00,0.7567
732.00,0.7823
731.00,0.8133
730.00,0.8515
729.00,0.8983
728.00,0.9551
727.00,1.0232
726.00,1.1026
725.00,1.1910
724.00,1.2810
723.00,1.3566
722.00,1.3926
721.00,1.3687
720.00,1.2913
719.00,1.1892
718.00,1.0875
717.00,0.9981
716.00,0.9240
715.00,0.8644
714.00,0.8164
713.00,0.7771
712.00,0.7444
711.00,0.7169
710.00,0.6936
709.00,0.6734
708.00,0.6558
707.00,0.6405
706.00,0.6272
705.00,0.6156
704.00,0.6056
703.00,0.5973
702.00,0.5906
701.00,0.5851
700.00,0.5804
699.00,0.5764
698.00,0.5724
697.00,0.5682
696.00,0.5640
695.00,0.5602
694.00,0.5575
693.00,0.5561
692.00,0.5559
691.00,0.5562
690.00,0.5562
689.00,0.5553
688.00,0.5534
687.00,0.5513
686.00,0.5501
685.00,0.5504
684.00,0.5521
683.00,0.5550
682.00,0.5588
681.00,0.5632
680.00,0.5675
679.00,0.5713
678.00,0.5742
677.00,0.5764
676.00,0.5777
675.00,0.5780
674.00,0.5772
673.00,0.5755
672.00,0.5738
671.00,0.5724
670.00,0.5713
669.00,0.5702
668.00,0.5684
667.00,0.5664
666.00,0.5662
665.00,0.5678
664.00,0.5695
663.00,0.5702
662.00,0.5693
661.00,0.5664
660.00,0.5616
659.00,0.5557
658.00,0.5497
657.00,0.5444
656.00,0.5402
655.00,0.5370
654.00,0.5349
653.00,0.5338
652.00,0.5335
651.00,0.5340
650.00,0.5352
649.00,0.5371
648.00,0.5398
647.00,0.5436
646.00,0.5483
645.00,0.5530
644.00,0.5570
643.00,0.5599
642.00,0.5615
641.00,0.5615
640.00,0.5600
639.00,0.5567
638.00,0.5518
637.00,0.5456
636.00,0.5388
635.00,0.5320
634.00,0.5260
633.00,0.5210
632.00,0.5174
631.00,0.5149
630.00,0.5138
629.00,0.5138
628.00,0.5153
627.00,0.5186
626.00,0.5235
625.00,0.5297
624.00,0.5368
623.00,0.5447
622.00,0.5536
621.00,0.5632
620.00,0.5732
619.00,0.5830
618.00,0.5915
617.00,0.5976
616.00,0.6006
615.00,0.6004
614.00,0.5967
613.00,0.5900
612.00,0.5811
611.00,0.5718
610.00,0.5636
609.00,0.5572
608.00,0.5525
607.00,0.5490
606.00,0.5468
605.00,0.5461
604.00,0.5469
603.00,0.5488
602.00,0.5514
601.00,0.5540
600.00,0.5562
599.00,0.5581
598.00,0.5596
597.00,0.5608
596.00,0.5614
595.00,0.5611
594.00,0.5599
593.00,0.5584
592.00,0.5571
591.00,0.5565
590.00,0.5564
589.00,0.5563
588.00,0.5565
587.00,0.5571
586.00,0.5583
585.00,0.5602
584.00,0.5626
583.00,0.5657
582.00,0.5691
581.00,0.5728
580.00,0.5767
579.00,0.5810
578.00,0.5858
577.00,0.5913
576.00,0.5976
575.00,0.6048
574.00,0.6128
573.00,0.6218
572.00,0.6325
571.00,0.6451
570.00,0.6592
569.00,0.6735
568.00,0.6874
567.00,0.7005
566.00,0.7128
565.00,0.7239
564.00,0.7337
563.00,0.7424
562.00,0.7495
561.00,0.7546
560.00,0.7571
559.00,0.7568
558.00,0.7542
557.00,0.7501
556.00,0.7448
555.00,0.7385
554.00,0.7314
553.00,0.7242
552.00,0.7180
551.00,0.7138
550.00,0.7120
