Created as New Dataset,
cm-1,A
4000.00,0.3844
3999.00,0.3843
3998.00,0.3842
3997.00,0.3842
3996.00,0.3841
3995.00,0.3840
3994.00,0.3839
3993.00,0.3837
3992.00,0.3833
3991.00,0.3829
3990.00,0.3824
3989.00,0.3819
3988.00,0.3814
3987.00,0.3810
3986.00,0.3805
3985.00,0.3801
3984.00,0.3796
3983.00,0.3791
3982.00,0.3787
3981.00,0.3783
3980.00,0.3778
3979.00,0.3774
3978.00,0.3769
3977.00,0.3765
3976.00,0.3761
3975.00,0.3758
3974.00,0.3754
3973.00,0.3752
3972.00,0.3749
3971.00,0.3747
3970.00,0.3745
3969.00,0.3742
3968.00,0.3739
3967.00,0.3735
3966.00,0.3731
3965.00,0.3727
3964.00,0.3722
3963.00,0.3717
3962.00,0.3712
3961.00,0.3707
3960.00,0.3702
3959.00,0.3698
3958.00,0.3694
3957.00,0.3690
3956.00,0.3686
3955.00,0.3682
3954.00,0.3679
3953.00,0.3675
3952.00,0.3671
3951.00,0.3668
3950.00,0.3663
3949.00,0.3659
3948.00,0.3655
3947.00,0.3652
3946.00,0.3649
3945.00,0.3646
3944.00,0.3643
3943.00,0.3641
3942.00,0.3639
3941.00,0.3637
3940.00,0.3635
3939.00,0.3633
3938.00,0.3631
3937.00,0.3629
3936.00,0.3628
3935.00,0.3627
3934.00,0.3627
3933.00,0.3627
3932.00,0.3627
3931.00,0.3628
3930.00,0.3628
3929.00,0.3629
3928.00,0.3629
3927.00,0.3628
3926.00,0.3627
3925.00,0.3627
3924.00,0.3626
3923.00,0.3627
3922.00,0.3628
3921.00,0.3629
3920.00,0.3629
3919.00,0.3629
3918.00,0.3629
3917.00,0.3628
3916.00,0.3626
3915.00,0.3625
3914.00,0.3623
3913.00,0.3621
3912.00,0.3620
3911.00,0.3619
3910.00,0.3617
3909.00,0.3616
3908.00,0.3615
3907.00,0.3614
3906.00,0.3612
3905.00,0.3609
3904.00,0.3607
3903.00,0.3605
3902.00,0.3604
3901.00,0.3603
3900.00,0.3603
3899.00,0.3603
3898.00,0.3603
3897.00,0.3602
3896.00,0.3601
3895.00,0.3599
3894.00,0.3598
3893.00,0.3597
3892.00,0.3596
3891.00,0.3595
3890.00,0.3594
3889.00,0.3592
3888.00,0.3591
3887.00,0.3590
3886.00,0.3590
3885.00,0.3589
3884.00,0.3589
3883.00,0.3588
3882.00,0.3587
3881.00,0.3587
3880.00,0.3587
3879.00,0.3587
3878.00,0.3587
3877.00,0.3586
3876.00,0.3585
3875.00,0.3584
3874.00,0.3584
3873.00,0.3583
3872.00,0.3581
3871.00,0.3579
3870.00,0.3578
3869.00,0.3577
3868.00,0.3576
3867.00,0.3574
3866.00,0.3572
3865.00,0.3571
3864.00,0.3570
3863.00,0.3569
3862.00,0.3567
3861.00,0.3565
3860.00,0.3564
3859.00,0.3564
3858.00,0.3564
3857.00,0.3563
3856.00,0.3562
3855.00,0.3561
3854.00,0.3561
3853.00,0.3562
3852.00,0.3563
3851.00,0.3564
3850.00,0.3564
3849.00,0.3564
3848.00,0.3565
3847.00,0.3566
3846.00,0.3566
3845.00,0.3565
3844.00,0.3565
3843.00,0.3565
3842.00,0.3564
3841.00,0.3564
3840.00,0.3563
3839.00,0.3562
3838.00,0.3561
3837.00,0.3560
3836.00,0.3557
3835.00,0.3555
3834.00,0.3552
3833.00,0.3550
3832.00,0.3548
3831.00,0.3546
3830.00,0.3544
3829.00,0.3542
3828.00,0.3541
3827.00,0.3539
3826.00,0.3538
3825.00,0.3537
3824.00,0.3535
3823.00,0.3533
3822.00,0.3531
3821.00,0.3530
3820.00,0.3529
3819.00,0.3528
3818.00,0.3526
3817.00,0.3525
3816.00,0.3524
3815.00,0.3522
3814.00,0.3521
3813.00,0.3518
3812.00,0.3517
3811.00,0.3516
3810.00,0.3516
3809.00,0.3515
3808.00,0.3514
3807.00,0.3512
3806.00,0.3511
3805.00,0.3509
3804.00,0.3507
3803.00,0.3505
3802.00,0.3503
3801.00,0.3503
3800.00,0.3502
3799.00,0.3500
3798.00,0.3498
3797.00,0.3496
3796.00,0.3494
3795.00,0.3492
3794.00,0.3489
3793.00,0.3487
3792.00,0.3485
3791.00,0.3483
3790.00,0.3482
3789.00,0.3480
3788.00,0.3478
3787.00,0.3476
3786.00,0.3475
3785.00,0.3474
3784.00,0.3474
3783.00,0.3474
3782.00,0.3475
3781.00,0.3476
3780.00,0.3476
3779.00,0.3477
3778.00,0.3478
3777.00,0.3479
3776.00,0.3480
3775.00,0.3482
3774.00,0.3484
3773.00,0.3485
3772.00,0.3485
3771.00,0.3485
3770.00,0.3484
3769.00,0.3484
3768.00,0.3484
3767.00,0.3484
3766.00,0.3483
3765.00,0.3483
3764.00,0.3483
3763.00,0.3482
3762.00,0.3481
3761.00,0.3480
3760.00,0.3478
3759.00,0.3477
3758.00,0.3474
3757.00,0.3472
3756.00,0.3469
3755.00,0.3466
3754.00,0.3464
3753.00,0.3463
3752.00,0.3461
3751.00,0.3459
3750.00,0.3458
3749.00,0.3457
3748.00,0.3457
3747.00,0.3457
3746.00,0.3456
3745.00,0.3456
3744.00,0.3457
3743.00,0.3456
3742.00,0.3454
3741.00,0.3453
3740.00,0.3453
3739.00,0.3454
3738.00,0.3455
3737.00,0.3455
3736.00,0.3454
3735.00,0.3454
3734.00,0.3454
3733.00,0.3453
3732.00,0.3453
3731.00,0.3453
3730.00,0.3452
3729.00,0.3451
3728.00,0.3449
3727.00,0.3448
3726.00,0.3446
3725.00,0.3445
3724.00,0.3443
3723.00,0.3441
3722.00,0.3440
3721.00,0.3438
3720.00,0.3437
3719.00,0.3436
3718.00,0.3436
3717.00,0.3435
3716.00,0.3435
3715.00,0.3434
3714.00,0.3434
3713.00,0.3434
3712.00,0.3434
3711.00,0.3436
3710.00,0.3437
3709.00,0.3439
3708.00,0.3441
3707.00,0.3442
3706.00,0.3444
3705.00,0.3446
3704.00,0.3448
3703.00,0.3449
3702.00,0.3451
3701.00,0.3452
3700.00,0.3453
3699.00,0.3454
3698.00,0.3455
3697.00,0.3457
3696.00,0.3459
3695.00,0.3461
3694.00,0.3463
3693.00,0.3464
3692.00,0.3465
3691.00,0.3466
3690.00,0.3466
3689.00,0.3467
3688.00,0.3468
3687.00,0.3468
3686.00,0.3468
3685.00,0.3468
3684.00,0.3467
3683.00,0.3468
3682.00,0.3468
3681.00,0.3467
3680.00,0.3466
3679.00,0.3464
3678.00,0.3463
3677.00,0.3461
3676.00,0.3461
3675.00,0.3460
3674.00,0.3460
3673.00,0.3460
3672.00,0.3460
3671.00,0.3461
3670.00,0.3463
3669.00,0.3464
3668.00,0.3464
3667.00,0.3464
3666.00,0.3466
3665.00,0.3468
3664.00,0.3470
3663.00,0.3473
3662.00,0.3476
3661.00,0.3479
3660.00,0.3482
3659.00,0.3485
3658.00,0.3488
3657.00,0.3491
3656.00,0.3494
3655.00,0.3497
3654.00,0.3499
3653.00,0.3502
3652.00,0.3505
3651.00,0.3508
3650.00,0.3512
3649.00,0.3515
3648.00,0.3518
3647.00,0.3520
3646.00,0.3522
3645.00,0.3525
3644.00,0.3528
3643.00,0.3531
3642.00,0.3534
3641.00,0.3538
3640.00,0.3541
3639.00,0.3544
3638.00,0.3547
3637.00,0.3551
3636.00,0.3555
3635.00,0.3558
3634.00,0.3561
3633.00,0.3564
3632.00,0.3566
3631.00,0.3569
3630.00,0.3574
3629.00,0.3580
3628.00,0.3588
3627.00,0.3593
3626.00,0.3597
3625.00,0.3601
3624.00,0.3603
3623.00,0.3604
3622.00,0.3603
3621.00,0.3599
3620.00,0.3593
3619.00,0.3588
3618.00,0.3584
3617.00,0.3581
3616.00,0.3579
3615.00,0.3580
3614.00,0.3581
3613.00,0.3583
3612.00,0.3585
3611.00,0.3588
3610.00,0.3591
3609.00,0.3595
3608.00,0.3598
3607.00,0.3600
3606.00,0.3601
3605.00,0.3600
3604.00,0.3598
3603.00,0.3594
3602.00,0.3588
3601.00,0.3579
3600.00,0.3569
3599.00,0.3558
3598.00,0.3546
3597.00,0.3535
3596.00,0.3525
3595.00,0.3516
3594.00,0.3506
3593.00,0.3498
3592.00,0.3491
3591.00,0.3485
3590.00,0.3480
3589.00,0.3475
3588.00,0.3472
3587.00,0.3468
3586.00,0.3466
3585.00,0.3463
3584.00,0.3461
3583.00,0.3460
3582.00,0.3458
3581.00,0.3457
3580.00,0.3456
3579.00,0.3454
3578.00,0.3453
3577.00,0.3453
3576.00,0.3452
3575.00,0.3452
3574.00,0.3453
3573.00,0.3454
3572.00,0.3454
3571.00,0.3455
3570.00,0.3455
3569.00,0.3456
3568.00,0.3458
3567.00,0.3460
3566.00,0.3462
3565.00,0.3464
3564.00,0.3465
3563.00,0.3467
3562.00,0.3469
3561.00,0.3471
3560.00,0.3474
3559.00,0.3477
3558.00,0.3479
3557.00,0.3482
3556.00,0.3484
3555.00,0.3487
3554.00,0.3490
3553.00,0.3493
3552.00,0.3497
3551.00,0.3501
3550.00,0.3505
3549.00,0.3510
3548.00,0.3515
3547.00,0.3520
3546.00,0.3525
3545.00,0.3530
3544.00,0.3534
3543.00,0.3540
3542.00,0.3545
3541.00,0.3550
3540.00,0.3555
3539.00,0.3560
3538.00,0.3565
3537.00,0.3570
3536.00,0.3575
3535.00,0.3580
3534.00,0.3585
3533.00,0.3591
3532.00,0.3597
3531.00,0.3603
3530.00,0.3609
3529.00,0.3616
3528.00,0.3622
3527.00,0.3629
3526.00,0.3636
3525.00,0.3642
3524.00,0.3650
3523.00,0.3657
3522.00,0.3665
3521.00,0.3672
3520.00,0.3678
3519.00,0.3685
3518.00,0.3692
3517.00,0.3699
3516.00,0.3705
3515.00,0.3712
3514.00,0.3718
3513.00,0.3725
3512.00,0.3732
3511.00,0.3740
3510.00,0.3747
3509.00,0.3755
3508.00,0.3762
3507.00,0.3770
3506.00,0.3777
3505.00,0.3784
3504.00,0.3791
3503.00,0.3798
3502.00,0.3806
3501.00,0.3814
3500.00,0.3822
3499.00,0.3830
3498.00,0.3838
3497.00,0.3847
3496.00,0.3855
3495.00,0.3864
3494.00,0.3873
3493.00,0.3882
3492.00,0.3892
3491.00,0.3901
3490.00,0.3911
3489.00,0.3921
3488.00,0.3931
3487.00,0.3942
3486.00,0.3952
3485.00,0.3963
3484.00,0.3973
3483.00,0.3983
3482.00,0.3994
3481.00,0.4005
3480.00,0.4016
3479.00,0.4028
3478.00,0.4039
3477.00,0.4050
3476.00,0.4062
3475.00,0.4073
3474.00,0.4085
3473.00,0.4097
3472.00,0.4109
3471.00,0.4122
3470.00,0.4135
3469.00,0.4148
3468.00,0.4161
3467.00,0.4173
3466.00,0.4186
3465.00,0.4199
3464.00,0.4213
3463.00,0.4227
3462.00,0.4241
3461.00,0.4256
3460.00,0.4272
3459.00,0.4288
3458.00,0.4304
3457.00,0.4320
3456.00,0.4337
3455.00,0.4354
3454.00,0.4372
3453.00,0.4390
3452.00,0.4409
3451.00,0.4428
3450.00,0.4449
3449.00,0.4470
3448.00,0.4492
3447.00,0.4515
3446.00,0.4540
3445.00,0.4567
3444.00,0.4594
3443.00,0.4623
3442.00,0.4651
3441.00,0.4679
3440.00,0.4706
3439.00,0.4731
3438.00,0.4755
3437.00,0.4778
3436.00,0.4800
3435.00,0.4821
3434.00,0.4839
3433.00,0.4857
3432.00,0.4874
3431.00,0.4890
3430.00,0.4906
3429.00,0.4921
3428.00,0.4937
3427.00,0.4952
3426.00,0.4969
3425.00,0.4986
3424.00,0.5004
3423.00,0.5022
3422.00,0.5041
3421.00,0.5060
3420.00,0.5078
3419.00,0.5098
3418.00,0.5118
3417.00,0.5139
3416.00,0.5160
3415.00,0.5182
3414.00,0.5204
3413.00,0.5227
3412.00,0.5250
3411.00,0.5273
3410.00,0.5297
3409.00,0.5321
3408.00,0.5347
3407.00,0.5373
3406.00,0.5401
3405.00,0.5428
3404.00,0.5456
3403.00,0.5484
3402.00,0.5512
3401.00,0.5540
3400.00,0.5568
3399.00,0.5597
3398.00,0.5626
3397.00,0.5655
3396.00,0.5686
3395.00,0.5717
3394.00,0.5750
3393.00,0.5783
3392.00,0.5816
3391.00,0.5849
3390.00,0.5883
3389.00,0.5917
3388.00,0.5952
3387.00,0.5987
3386.00,0.6022
3385.00,0.6059
3384.00,0.6096
3383.00,0.6135
3382.00,0.6174
3381.00,0.6212
3380.00,0.6251
3379.00,0.6290
3378.00,0.6330
3377.00,0.6371
3376.00,0.6412
3375.00,0.6452
3374.00,0.6492
3373.00,0.6532
3372.00,0.6572
3371.00,0.6613
3370.00,0.6654
3369.00,0.6696
3368.00,0.6737
3367.00,0.6777
3366.00,0.6818
3365.00,0.6858
3364.00,0.6897
3363.00,0.6936
3362.00,0.6973
3361.00,0.7010
3360.00,0.7046
3359.00,0.7083
3358.00,0.7119
3357.00,0.7154
3356.00,0.7188
3355.00,0.7219
3354.00,0.7249
3353.00,0.7279
3352.00,0.7307
3351.00,0.7334
3350.00,0.7358
3349.00,0.7380
3348.00,0.7400
3347.00,0.7417
3346.00,0.7434
3345.00,0.7449
3344.00,0.7461
3343.00,0.7471
3342.00,0.7478
3341.00,0.7483
3340.00,0.7487
3339.00,0.7489
3338.00,0.7489
3337.00,0.7487
3336.00,0.7484
3335.00,0.7478
3334.00,0.7471
3333.00,0.7462
3332.00,0.7451
3331.00,0.7439
3330.00,0.7425
3329.00,0.7411
3328.00,0.7396
3327.00,0.7380
3326.00,0.7363
3325.00,0.7346
3324.00,0.7329
3323.00,0.7310
3322.00,0.7291
3321.00,0.7271
3320.00,0.7251
3319.00,0.7231
3318.00,0.7212
3317.00,0.7194
3316.00,0.7176
3315.00,0.7159
3314.00,0.7144
3313.00,0.7129
3312.00,0.7114
3311.00,0.7100
3310.00,0.7086
3309.00,0.7072
3308.00,0.7060
3307.00,0.7050
3306.00,0.7041
3305.00,0.7033
3304.00,0.7026
3303.00,0.7019
3302.00,0.7012
3301.00,0.7007
3300.00,0.7003
3299.00,0.7000
3298.00,0.6998
3297.00,0.6997
3296.00,0.6997
3295.00,0.6998
3294.00,0.6999
3293.00,0.7000
3292.00,0.7003
3291.00,0.7006
3290.00,0.7010
3289.00,0.7014
3288.00,0.7018
3287.00,0.7023
3286.00,0.7029
3285.00,0.7037
3284.00,0.7045
3283.00,0.7052
3282.00,0.7060
3281.00,0.7068
3280.00,0.7078
3279.00,0.7087
3278.00,0.7095
3277.00,0.7103
3276.00,0.7110
3275.00,0.7118
3274.00,0.7126
3273.00,0.7134
3272.00,0.7141
3271.00,0.7148
3270.00,0.7154
3269.00,0.7160
3268.00,0.7165
3267.00,0.7169
3266.00,0.7173
3265.00,0.7177
3264.00,0.7180
3263.00,0.7182
3262.00,0.7183
3261.00,0.7184
3260.00,0.7182
3259.00,0.7179
3258.00,0.7174
3257.00,0.7168
3256.00,0.7162
3255.00,0.7155
3254.00,0.7148
3253.00,0.7140
3252.00,0.7131
3251.00,0.7120
3250.00,0.7108
3249.00,0.7095
3248.00,0.7082
3247.00,0.7067
3246.00,0.7050
3245.00,0.7033
3244.00,0.7015
3243.00,0.6998
3242.00,0.6980
3241.00,0.6961
3240.00,0.6941
3239.00,0.6919
3238.00,0.6897
3237.00,0.6875
3236.00,0.6852
3235.00,0.6828
3234.00,0.6803
3233.00,0.6778
3232.00,0.6754
3231.00,0.6730
3230.00,0.6704
3229.00,0.6678
3228.00,0.6651
3227.00,0.6624
3226.00,0.6597
3225.00,0.6570
3224.00,0.6543
3223.00,0.6516
3222.00,0.6488
3221.00,0.6461
3220.00,0.6434
3219.00,0.6407
3218.00,0.6380
3217.00,0.6354
3216.00,0.6327
3215.00,0.6301
3214.00,0.6275
3213.00,0.6250
3212.00,0.6225
3211.00,0.6199
3210.00,0.6174
3209.00,0.6150
3208.00,0.6127
3207.00,0.6104
3206.00,0.6081
3205.00,0.6058
3204.00,0.6035
3203.00,0.6013
3202.00,0.5992
3201.00,0.5971
3200.00,0.5949
3199.00,0.5928
3198.00,0.5906
3197.00,0.5885
3196.00,0.5864
3195.00,0.5843
3194.00,0.5822
3193.00,0.5801
3192.00,0.5779
3191.00,0.5757
3190.00,0.5735
3189.00,0.5713
3188.00,0.5691
3187.00,0.5669
3186.00,0.5648
3185.00,0.5625
3184.00,0.5603
3183.00,0.5579
3182.00,0.5556
3181.00,0.5534
3180.00,0.5513
3179.00,0.5493
3178.00,0.5473
3177.00,0.5454
3176.00,0.5434
3175.00,0.5414
3174.00,0.5395
3173.00,0.5375
3172.00,0.5356
3171.00,0.5337
3170.00,0.5319
3169.00,0.5302
3168.00,0.5285
3167.00,0.5267
3166.00,0.5250
3165.00,0.5233
3164.00,0.5216
3163.00,0.5200
3162.00,0.5184
3161.00,0.5168
3160.00,0.5153
3159.00,0.5137
3158.00,0.5122
3157.00,0.5107
3156.00,0.5093
3155.00,0.5079
3154.00,0.5065
3153.00,0.5051
3152.00,0.5037
3151.00,0.5022
3150.00,0.5008
3149.00,0.4994
3148.00,0.4981
3147.00,0.4969
3146.00,0.4957
3145.00,0.4945
3144.00,0.4934
3143.00,0.4924
3142.00,0.4913
3141.00,0.4903
3140.00,0.4892
3139.00,0.4882
3138.00,0.4872
3137.00,0.4864
3136.00,0.4856
3135.00,0.4849
3134.00,0.4840
3133.00,0.4832
3132.00,0.4823
3131.00,0.4815
3130.00,0.4808
3129.00,0.4800
3128.00,0.4793
3127.00,0.4786
3126.00,0.4779
3125.00,0.4773
3124.00,0.4767
3123.00,0.4762
3122.00,0.4757
3121.00,0.4753
3120.00,0.4749
3119.00,0.4745
3118.00,0.4742
3117.00,0.4740
3116.00,0.4738
3115.00,0.4737
3114.00,0.4737
3113.00,0.4738
3112.00,0.4739
3111.00,0.4742
3110.00,0.4744
3109.00,0.4747
3108.00,0.4751
3107.00,0.4756
3106.00,0.4762
3105.00,0.4768
3104.00,0.4776
3103.00,0.4783
3102.00,0.4790
3101.00,0.4797
3100.00,0.4804
3099.00,0.4810
3098.00,0.4816
3097.00,0.4822
3096.00,0.4829
3095.00,0.4836
3094.00,0.4844
3093.00,0.4851
3092.00,0.4859
3091.00,0.4866
3090.00,0.4874
3089.00,0.4882
3088.00,0.4891
3087.00,0.4901
3086.00,0.4912
3085.00,0.4924
3084.00,0.4937
3083.00,0.4950
3082.00,0.4964
3081.00,0.4979
3080.00,0.4995
3079.00,0.5012
3078.00,0.5030
3077.00,0.5050
3076.00,0.5070
3075.00,0.5092
3074.00,0.5114
3073.00,0.5139
3072.00,0.5164
3071.00,0.5192
3070.00,0.5221
3069.00,0.5252
3068.00,0.5283
3067.00,0.5315
3066.00,0.5348
3065.00,0.5380
3064.00,0.5412
3063.00,0.5445
3062.00,0.5479
3061.00,0.5513
3060.00,0.5547
3059.00,0.5580
3058.00,0.5614
3057.00,0.5648
3056.00,0.5681
3055.00,0.5714
3054.00,0.5746
3053.00,0.5776
3052.00,0.5805
3051.00,0.5833
3050.00,0.5859
3049.00,0.5887
3048.00,0.5916
3047.00,0.5945
3046.00,0.5977
3045.00,0.6009
3044.00,0.6043
3043.00,0.6079
3042.00,0.6117
3041.00,0.6158
3040.00,0.6200
3039.00,0.6244
3038.00,0.6291
3037.00,0.6341
3036.00,0.6393
3035.00,0.6446
3034.00,0.6501
3033.00,0.6558
3032.00,0.6616
3031.00,0.6674
3030.00,0.6732
3029.00,0.6790
3028.00,0.6848
3027.00,0.6907
3026.00,0.6967
3025.00,0.7029
3024.00,0.7092
3023.00,0.7156
3022.00,0.7222
3021.00,0.7290
3020.00,0.7359
3019.00,0.7432
3018.00,0.7509
3017.00,0.7589
3016.00,0.7674
3015.00,0.7763
3014.00,0.7857
3013.00,0.7956
3012.00,0.8061
3011.00,0.8173
3010.00,0.8291
3009.00,0.8416
3008.00,0.8547
3007.00,0.8685
3006.00,0.8830
3005.00,0.8982
3004.00,0.9143
3003.00,0.9313
3002.00,0.9493
3001.00,0.9684
3000.00,0.9887
2999.00,1.0102
2998.00,1.0331
2997.00,1.0573
2996.00,1.0831
2995.00,1.1107
2994.00,1.1403
2993.00,1.1720
2992.00,1.2060
2991.00,1.2424
2990.00,1.2817
2989.00,1.3245
2988.00,1.3711
2987.00,1.4222
2986.00,1.4784
2985.00,1.5404
2984.00,1.6086
2983.00,1.6839
2982.00,1.7676
2981.00,1.8609
2980.00,1.9650
2979.00,2.0809
2978.00,2.2098
2977.00,2.3525
2976.00,2.5096
2975.00,2.6831
2974.00,2.8762
2973.00,3.0916
2972.00,3.3334
2971.00,3.6154
2970.00,3.9414
2969.00,4.1201
2968.00,4.0052
2967.00,3.8776
2966.00,3.9406
2965.00,4.2207
2964.00,4.3323
2963.00,4.1417
2962.00,4.0328
2961.00,4.2127
2960.00,4.4766
2959.00,4.3163
2958.00,4.2308
2957.00,4.1806
2956.00,4.0308
2955.00,3.8320
2954.00,3.7211
2953.00,3.7000
2952.00,3.6805
2951.00,3.6681
2950.00,3.7248
2949.00,3.9203
2948.00,4.1752
2947.00,4.1289
2946.00,4.0126
2945.00,4.0097
2944.00,4.1726
2943.00,4.2181
2942.00,4.0311
2941.00,3.9486
2940.00,3.9742
2939.00,4.0480
2938.00,4.0011
2937.00,3.9073
2936.00,3.9293
2935.00,4.0646
2934.00,4.1768
2933.00,4.1808
2932.00,4.1075
2931.00,4.1303
2930.00,4.2888
2929.00,4.2118
2928.00,4.0219
2927.00,3.9065
2926.00,3.9078
2925.00,3.9502
2924.00,3.9322
2923.00,3.9021
2922.00,3.8873
2921.00,3.9199
2920.00,3.9327
2919.00,3.8843
2918.00,3.8500
2917.00,3.9697
2916.00,4.2739
2915.00,4.2920
2914.00,4.0928
2913.00,3.9904
2912.00,4.1112
2911.00,4.3918
2910.00,4.4972
2909.00,4.2348
2908.00,3.9494
2907.00,3.8342
2906.00,3.8656
2905.00,3.9806
2904.00,4.2012
2903.00,4.6058
2902.00,4.5181
2901.00,4.1703
2900.00,3.9342
2899.00,3.8787
2898.00,3.8771
2897.00,3.8741
2896.00,3.9258
2895.00,3.9391
2894.00,3.8973
2893.00,3.9121
2892.00,4.0476
2891.00,4.3607
2890.00,4.7308
2889.00,4.8383
2888.00,4.9638
2887.00,4.6610
2886.00,4.4157
2885.00,4.1899
2884.00,4.0468
2883.00,3.9619
2882.00,3.9234
2881.00,3.9674
2880.00,4.0783
2879.00,4.1950
2878.00,4.2002
2877.00,4.0709
2876.00,3.9168
2875.00,3.8154
2874.00,3.8284
2873.00,3.9117
2872.00,4.0651
2871.00,4.3608
2870.00,4.2969
2869.00,3.9850
2868.00,3.7682
2867.00,3.7344
2866.00,3.7707
2865.00,3.7987
2864.00,3.8606
2863.00,3.9145
2862.00,3.9917
2861.00,4.1077
2860.00,4.3136
2859.00,4.5716
2858.00,4.6314
2857.00,4.4701
2856.00,4.2115
2855.00,4.0622
2854.00,4.0333
2853.00,4.1316
2852.00,4.2589
2851.00,4.2859
2850.00,4.1671
2849.00,4.0297
2848.00,3.9208
2847.00,3.8543
2846.00,3.8099
2845.00,3.8150
2844.00,3.8910
2843.00,3.9198
2842.00,3.8548
2841.00,3.7251
2840.00,3.5473
2839.00,3.3493
2838.00,3.1515
2837.00,2.9544
2836.00,2.7574
2835.00,2.5745
2834.00,2.4125
2833.00,2.2686
2832.00,2.1390
2831.00,2.0223
2830.00,1.9183
2829.00,1.8261
2828.00,1.7441
2827.00,1.6703
2826.00,1.6033
2825.00,1.5423
2824.00,1.4871
2823.00,1.4369
2822.00,1.3910
2821.00,1.3489
2820.00,1.3101
2819.00,1.2746
2818.00,1.2419
2817.00,1.2114
2816.00,1.1825
2815.00,1.1550
2814.00,1.1290
2813.00,1.1046
2812.00,1.0818
2811.00,1.0603
2810.00,1.0396
2809.00,1.0196
2808.00,1.0001
2807.00,0.9810
2806.00,0.9623
2805.00,0.9440
2804.00,0.9263
2803.00,0.9092
2802.00,0.8927
2801.00,0.8768
2800.00,0.8615
2799.00,0.8468
2798.00,0.8328
2797.00,0.8196
2796.00,0.8069
2795.00,0.7949
2794.00,0.7833
2793.00,0.7724
2792.00,0.7619
2791.00,0.7520
2790.00,0.7426
2789.00,0.7336
2788.00,0.7250
2787.00,0.7166
2786.00,0.7082
2785.00,0.6999
2784.00,0.6916
2783.00,0.6835
2782.00,0.6754
2781.00,0.6674
2780.00,0.6596
2779.00,0.6520
2778.00,0.6447
2777.00,0.6376
2776.00,0.6308
2775.00,0.6244
2774.00,0.6183
2773.00,0.6128
2772.00,0.6076
2771.00,0.6030
2770.00,0.5987
2769.00,0.5949
2768.00,0.5914
2767.00,0.5883
2766.00,0.5855
2765.00,0.5829
2764.00,0.5806
2763.00,0.5786
2762.00,0.5769
2761.00,0.5754
2760.00,0.5741
2759.00,0.5731
2758.00,0.5723
2757.00,0.5717
2756.00,0.5714
2755.00,0.5713
2754.00,0.5714
2753.00,0.5718
2752.00,0.5724
2751.00,0.5731
2750.00,0.5741
2749.00,0.5751
2748.00,0.5764
2747.00,0.5778
2746.00,0.5793
2745.00,0.5810
2744.00,0.5827
2743.00,0.5847
2742.00,0.5868
2741.00,0.5892
2740.00,0.5920
2739.00,0.5952
2738.00,0.5989
2737.00,0.6032
2736.00,0.6079
2735.00,0.6130
2734.00,0.6182
2733.00,0.6230
2732.00,0.6267
2731.00,0.6287
2730.00,0.6285
2729.00,0.6262
2728.00,0.6219
2727.00,0.6164
2726.00,0.6103
2725.00,0.6043
2724.00,0.5987
2723.00,0.5939
2722.00,0.5899
2721.00,0.5867
2720.00,0.5841
2719.00,0.5820
2718.00,0.5802
2717.00,0.5786
2716.00,0.5768
2715.00,0.5749
2714.00,0.5728
2713.00,0.5704
2712.00,0.5678
2711.00,0.5650
2710.00,0.5624
2709.00,0.5599
2708.00,0.5576
2707.00,0.5556
2706.00,0.5538
2705.00,0.5522
2704.00,0.5508
2703.00,0.5497
2702.00,0.5488
2701.00,0.5481
2700.00,0.5476
2699.00,0.5473
2698.00,0.5472
2697.00,0.5475
2696.00,0.5480
2695.00,0.5489
2694.00,0.5500
2693.00,0.5512
2692.00,0.5525
2691.00,0.5539
2690.00,0.5551
2689.00,0.5563
2688.00,0.5573
2687.00,0.5582
2686.00,0.5590
2685.00,0.5597
2684.00,0.5603
2683.00,0.5608
2682.00,0.5612
2681.00,0.5616
2680.00,0.5621
2679.00,0.5626
2678.00,0.5631
2677.00,0.5636
2676.00,0.5641
2675.00,0.5645
2674.00,0.5648
2673.00,0.5651
2672.00,0.5651
2671.00,0.5650
2670.00,0.5645
2669.00,0.5635
2668.00,0.5621
2667.00,0.5603
2666.00,0.5580
2665.00,0.5555
2664.00,0.5528
2663.00,0.5499
2662.00,0.5471
2661.00,0.5443
2660.00,0.5417
2659.00,0.5391
2658.00,0.5365
2657.00,0.5340
2656.00,0.5316
2655.00,0.5292
2654.00,0.5269
2653.00,0.5248
2652.00,0.5228
2651.00,0.5209
2650.00,0.5190
2649.00,0.5171
2648.00,0.5153
2647.00,0.5136
2646.00,0.5121
2645.00,0.5106
2644.00,0.5094
2643.00,0.5081
2642.00,0.5069
2641.00,0.5057
2640.00,0.5046
2639.00,0.5034
2638.00,0.5023
2637.00,0.5012
2636.00,0.5001
2635.00,0.4989
2634.00,0.4976
2633.00,0.4962
2632.00,0.4947
2631.00,0.4932
2630.00,0.4917
2629.00,0.4902
2628.00,0.4887
2627.00,0.4871
2626.00,0.4856
2625.00,0.4841
2624.00,0.4827
2623.00,0.4814
2622.00,0.4802
2621.00,0.4791
2620.00,0.4780
2619.00,0.4769
2618.00,0.4759
2617.00,0.4749
2616.00,0.4740
2615.00,0.4731
2614.00,0.4722
2613.00,0.4713
2612.00,0.4703
2611.00,0.4694
2610.00,0.4685
2609.00,0.4677
2608.00,0.4669
2607.00,0.4660
2606.00,0.4652
2605.00,0.4643
2604.00,0.4635
2603.00,0.4627
2602.00,0.4619
2601.00,0.4610
2600.00,0.4601
2599.00,0.4590
2598.00,0.4579
2597.00,0.4567
2596.00,0.4555
2595.00,0.4543
2594.00,0.4532
2593.00,0.4520
2592.00,0.4508
2591.00,0.4497
2590.00,0.4485
2589.00,0.4474
2588.00,0.4462
2587.00,0.4451
2586.00,0.4440
2585.00,0.4429
2584.00,0.4417
2583.00,0.4404
2582.00,0.4391
2581.00,0.4377
2580.00,0.4362
2579.00,0.4348
2578.00,0.4334
2577.00,0.4320
2576.00,0.4306
2575.00,0.4292
2574.00,0.4279
2573.00,0.4266
2572.00,0.4254
2571.00,0.4242
2570.00,0.4230
2569.00,0.4218
2568.00,0.4206
2567.00,0.4195
2566.00,0.4183
2565.00,0.4170
2564.00,0.4158
2563.00,0.4145
2562.00,0.4132
2561.00,0.4119
2560.00,0.4106
2559.00,0.4094
2558.00,0.4082
2557.00,0.4070
2556.00,0.4059
2555.00,0.4048
2554.00,0.4037
2553.00,0.4027
2552.00,0.4017
2551.00,0.4008
2550.00,0.4000
2549.00,0.3992
2548.00,0.3986
2547.00,0.3979
2546.00,0.3974
2545.00,0.3969
2544.00,0.3964
2543.00,0.3960
2542.00,0.3955
2541.00,0.3951
2540.00,0.3946
2539.00,0.3942
2538.00,0.3937
2537.00,0.3933
2536.00,0.3928
2535.00,0.3922
2534.00,0.3914
2533.00,0.3905
2532.00,0.3895
2531.00,0.3884
2530.00,0.3872
2529.00,0.3860
2528.00,0.3847
2527.00,0.3833
2526.00,0.3818
2525.00,0.3804
2524.00,0.3789
2523.00,0.3774
2522.00,0.3760
2521.00,0.3747
2520.00,0.3734
2519.00,0.3722
2518.00,0.3710
2517.00,0.3698
2516.00,0.3688
2515.00,0.3677
2514.00,0.3667
2513.00,0.3657
2512.00,0.3647
2511.00,0.3637
2510.00,0.3627
2509.00,0.3619
2508.00,0.3611
2507.00,0.3604
2506.00,0.3598
2505.00,0.3593
2504.00,0.3589
2503.00,0.3584
2502.00,0.3581
2501.00,0.3577
2500.00,0.3574
2499.00,0.3570
2498.00,0.3566
2497.00,0.3562
2496.00,0.3558
2495.00,0.3554
2494.00,0.3549
2493.00,0.3544
2492.00,0.3539
2491.00,0.3533
2490.00,0.3527
2489.00,0.3521
2488.00,0.3515
2487.00,0.3510
2486.00,0.3504
2485.00,0.3498
2484.00,0.3492
2483.00,0.3487
2482.00,0.3481
2481.00,0.3476
2480.00,0.3471
2479.00,0.3465
2478.00,0.3460
2477.00,0.3454
2476.00,0.3448
2475.00,0.3442
2474.00,0.3436
2473.00,0.3430
2472.00,0.3424
2471.00,0.3419
2470.00,0.3414
2469.00,0.3410
2468.00,0.3406
2467.00,0.3402
2466.00,0.3399
2465.00,0.3396
2464.00,0.3394
2463.00,0.3391
2462.00,0.3388
2461.00,0.3386
2460.00,0.3384
2459.00,0.3382
2458.00,0.3380
2457.00,0.3379
2456.00,0.3378
2455.00,0.3378
2454.00,0.3378
2453.00,0.3378
2452.00,0.3378
2451.00,0.3378
2450.00,0.3378
2449.00,0.3378
2448.00,0.3377
2447.00,0.3377
2446.00,0.3376
2445.00,0.3377
2444.00,0.3378
2443.00,0.3379
2442.00,0.3380
2441.00,0.3381
2440.00,0.3382
2439.00,0.3384
2438.00,0.3385
2437.00,0.3386
2436.00,0.3386
2435.00,0.3386
2434.00,0.3386
2433.00,0.3386
2432.00,0.3387
2431.00,0.3389
2430.00,0.3390
2429.00,0.3391
2428.00,0.3393
2427.00,0.3394
2426.00,0.3394
2425.00,0.3395
2424.00,0.3396
2423.00,0.3397
2422.00,0.3398
2421.00,0.3399
2420.00,0.3400
2419.00,0.3400
2418.00,0.3399
2417.00,0.3399
2416.00,0.3399
2415.00,0.3399
2414.00,0.3399
2413.00,0.3399
2412.00,0.3398
2411.00,0.3397
2410.00,0.3397
2409.00,0.3396
2408.00,0.3396
2407.00,0.3395
2406.00,0.3394
2405.00,0.3394
2404.00,0.3395
2403.00,0.3395
2402.00,0.3396
2401.00,0.3396
2400.00,0.3397
2399.00,0.3398
2398.00,0.3400
2397.00,0.3401
2396.00,0.3403
2395.00,0.3404
2394.00,0.3406
2393.00,0.3409
2392.00,0.3413
2391.00,0.3417
2390.00,0.3421
2389.00,0.3425
2388.00,0.3428
2387.00,0.3431
2386.00,0.3434
2385.00,0.3437
2384.00,0.3441
2383.00,0.3446
2382.00,0.3451
2381.00,0.3457
2380.00,0.3462
2379.00,0.3467
2378.00,0.3471
2377.00,0.3475
2376.00,0.3477
2375.00,0.3478
2374.00,0.3479
2373.00,0.3479
2372.00,0.3479
2371.00,0.3479
2370.00,0.3480
2369.00,0.3481
2368.00,0.3482
2367.00,0.3483
2366.00,0.3484
2365.00,0.3486
2364.00,0.3487
2363.00,0.3489
2362.00,0.3491
2361.00,0.3492
2360.00,0.3493
2359.00,0.3493
2358.00,0.3493
2357.00,0.3492
2356.00,0.3491
2355.00,0.3489
2354.00,0.3488
2353.00,0.3489
2352.00,0.3493
2351.00,0.3500
2350.00,0.3507
2349.00,0.3507
2348.00,0.3501
2347.00,0.3493
2346.00,0.3489
2345.00,0.3488
2344.00,0.3488
2343.00,0.3487
2342.00,0.3486
2341.00,0.3484
2340.00,0.3482
2339.00,0.3480
2338.00,0.3477
2337.00,0.3475
2336.00,0.3472
2335.00,0.3470
2334.00,0.3468
2333.00,0.3466
2332.00,0.3464
2331.00,0.3463
2330.00,0.3459
2329.00,0.3456
2328.00,0.3453
2327.00,0.3450
2326.00,0.3446
2325.00,0.3443
2324.00,0.3440
2323.00,0.3437
2322.00,0.3433
2321.00,0.3428
2320.00,0.3423
2319.00,0.3417
2318.00,0.3411
2317.00,0.3406
2316.00,0.3400
2315.00,0.3396
2314.00,0.3392
2313.00,0.3388
2312.00,0.3383
2311.00,0.3378
2310.00,0.3372
2309.00,0.3367
2308.00,0.3361
2307.00,0.3356
2306.00,0.3350
2305.00,0.3345
2304.00,0.3340
2303.00,0.3335
2302.00,0.3331
2301.00,0.3326
2300.00,0.3322
2299.00,0.3317
2298.00,0.3313
2297.00,0.3309
2296.00,0.3305
2295.00,0.3301
2294.00,0.3297
2293.00,0.3293
2292.00,0.3288
2291.00,0.3283
2290.00,0.3278
2289.00,0.3273
2288.00,0.3267
2287.00,0.3261
2286.00,0.3256
2285.00,0.3251
2284.00,0.3246
2283.00,0.3242
2282.00,0.3238
2281.00,0.3235
2280.00,0.3232
2279.00,0.3229
2278.00,0.3227
2277.00,0.3225
2276.00,0.3223
2275.00,0.3221
2274.00,0.3220
2273.00,0.3219
2272.00,0.3219
2271.00,0.3219
2270.00,0.3219
2269.00,0.3220
2268.00,0.3221
2267.00,0.3222
2266.00,0.3222
2265.00,0.3222
2264.00,0.3221
2263.00,0.3220
2262.00,0.3219
2261.00,0.3218
2260.00,0.3216
2259.00,0.3213
2258.00,0.3211
2257.00,0.3208
2256.00,0.3205
2255.00,0.3202
2254.00,0.3199
2253.00,0.3195
2252.00,0.3191
2251.00,0.3187
2250.00,0.3183
2249.00,0.3179
2248.00,0.3175
2247.00,0.3171
2246.00,0.3168
2245.00,0.3164
2244.00,0.3161
2243.00,0.3157
2242.00,0.3154
2241.00,0.3151
2240.00,0.3148
2239.00,0.3145
2238.00,0.3143
2237.00,0.3141
2236.00,0.3139
2235.00,0.3137
2234.00,0.3136
2233.00,0.3134
2232.00,0.3134
2231.00,0.3134
2230.00,0.3134
2229.00,0.3134
2228.00,0.3134
2227.00,0.3134
2226.00,0.3134
2225.00,0.3134
2224.00,0.3134
2223.00,0.3134
2222.00,0.3133
2221.00,0.3133
2220.00,0.3131
2219.00,0.3130
2218.00,0.3128
2217.00,0.3127
2216.00,0.3126
2215.00,0.3125
2214.00,0.3124
2213.00,0.3122
2212.00,0.3121
2211.00,0.3119
2210.00,0.3117
2209.00,0.3116
2208.00,0.3115
2207.00,0.3114
2206.00,0.3113
2205.00,0.3113
2204.00,0.3113
2203.00,0.3113
2202.00,0.3113
2201.00,0.3113
2200.00,0.3114
2199.00,0.3114
2198.00,0.3115
2197.00,0.3117
2196.00,0.3118
2195.00,0.3120
2194.00,0.3121
2193.00,0.3123
2192.00,0.3125
2191.00,0.3127
2190.00,0.3130
2189.00,0.3133
2188.00,0.3135
2187.00,0.3137
2186.00,0.3139
2185.00,0.3141
2184.00,0.3143
2183.00,0.3144
2182.00,0.3145
2181.00,0.3145
2180.00,0.3145
2179.00,0.3145
2178.00,0.3145
2177.00,0.3145
2176.00,0.3144
2175.00,0.3144
2174.00,0.3144
2173.00,0.3144
2172.00,0.3143
2171.00,0.3142
2170.00,0.3142
2169.00,0.3142
2168.00,0.3141
2167.00,0.3141
2166.00,0.3140
2165.00,0.3140
2164.00,0.3141
2163.00,0.3141
2162.00,0.3141
2161.00,0.3142
2160.00,0.3142
2159.00,0.3142
2158.00,0.3142
2157.00,0.3142
2156.00,0.3143
2155.00,0.3143
2154.00,0.3143
2153.00,0.3143
2152.00,0.3143
2151.00,0.3143
2150.00,0.3141
2149.00,0.3140
2148.00,0.3137
2147.00,0.3133
2146.00,0.3127
2145.00,0.3121
2144.00,0.3114
2143.00,0.3107
2142.00,0.3101
2141.00,0.3094
2140.00,0.3087
2139.00,0.3080
2138.00,0.3074
2137.00,0.3067
2136.00,0.3062
2135.00,0.3058
2134.00,0.3053
2133.00,0.3050
2132.00,0.3047
2131.00,0.3044
2130.00,0.3041
2129.00,0.3039
2128.00,0.3037
2127.00,0.3034
2126.00,0.3033
2125.00,0.3031
2124.00,0.3030
2123.00,0.3028
2122.00,0.3028
2121.00,0.3027
2120.00,0.3027
2119.00,0.3026
2118.00,0.3025
2117.00,0.3024
2116.00,0.3023
2115.00,0.3021
2114.00,0.3021
2113.00,0.3020
2112.00,0.3020
2111.00,0.3019
2110.00,0.3018
2109.00,0.3017
2108.00,0.3017
2107.00,0.3017
2106.00,0.3017
2105.00,0.3017
2104.00,0.3017
2103.00,0.3017
2102.00,0.3016
2101.00,0.3016
2100.00,0.3015
2099.00,0.3014
2098.00,0.3013
2097.00,0.3012
2096.00,0.3011
2095.00,0.3011
2094.00,0.3009
2093.00,0.3008
2092.00,0.3006
2091.00,0.3004
2090.00,0.3003
2089.00,0.3002
2088.00,0.3001
2087.00,0.3001
2086.00,0.3000
2085.00,0.2999
2084.00,0.2998
2083.00,0.2998
2082.00,0.2998
2081.00,0.2998
2080.00,0.2999
2079.00,0.3000
2078.00,0.3001
2077.00,0.3002
2076.00,0.3003
2075.00,0.3004
2074.00,0.3005
2073.00,0.3006
2072.00,0.3007
2071.00,0.3008
2070.00,0.3009
2069.00,0.3011
2068.00,0.3012
2067.00,0.3014
2066.00,0.3015
2065.00,0.3018
2064.00,0.3020
2063.00,0.3022
2062.00,0.3024
2061.00,0.3026
2060.00,0.3028
2059.00,0.3030
2058.00,0.3032
2057.00,0.3036
2056.00,0.3039
2055.00,0.3043
2054.00,0.3047
2053.00,0.3051
2052.00,0.3055
2051.00,0.3059
2050.00,0.3063
2049.00,0.3067
2048.00,0.3072
2047.00,0.3077
2046.00,0.3081
2045.00,0.3084
2044.00,0.3087
2043.00,0.3089
2042.00,0.3091
2041.00,0.3092
2040.00,0.3093
2039.00,0.3094
2038.00,0.3094
2037.00,0.3095
2036.00,0.3097
2035.00,0.3099
2034.00,0.3101
2033.00,0.3103
2032.00,0.3106
2031.00,0.3109
2030.00,0.3113
2029.00,0.3117
2028.00,0.3121
2027.00,0.3124
2026.00,0.3127
2025.00,0.3128
2024.00,0.3128
2023.00,0.3127
2022.00,0.3123
2021.00,0.3117
2020.00,0.3108
2019.00,0.3098
2018.00,0.3087
2017.00,0.3076
2016.00,0.3064
2015.00,0.3053
2014.00,0.3041
2013.00,0.3030
2012.00,0.3020
2011.00,0.3010
2010.00,0.3000
2009.00,0.2992
2008.00,0.2985
2007.00,0.2979
2006.00,0.2974
2005.00,0.2970
2004.00,0.2966
2003.00,0.2963
2002.00,0.2959
2001.00,0.2957
2000.00,0.2956
1999.00,0.2955
1998.00,0.2954
1997.00,0.2952
1996.00,0.2951
1995.00,0.2949
1994.00,0.2947
1993.00,0.2946
1992.00,0.2946
1991.00,0.2945
1990.00,0.2944
1989.00,0.2944
1988.00,0.2944
1987.00,0.2943
1986.00,0.2942
1985.00,0.2941
1984.00,0.2941
1983.00,0.2940
1982.00,0.2939
1981.00,0.2939
1980.00,0.2939
1979.00,0.2938
1978.00,0.2937
1977.00,0.2935
1976.00,0.2934
1975.00,0.2933
1974.00,0.2932
1973.00,0.2932
1972.00,0.2931
1971.00,0.2929
1970.00,0.2928
1969.00,0.2926
1968.00,0.2926
1967.00,0.2925
1966.00,0.2925
1965.00,0.2925
1964.00,0.2925
1963.00,0.2925
1962.00,0.2924
1961.00,0.2925
1960.00,0.2926
1959.00,0.2927
1958.00,0.2928
1957.00,0.2929
1956.00,0.2931
1955.00,0.2933
1954.00,0.2934
1953.00,0.2936
1952.00,0.2937
1951.00,0.2938
1950.00,0.2939
1949.00,0.2940
1948.00,0.2941
1947.00,0.2942
1946.00,0.2943
1945.00,0.2944
1944.00,0.2946
1943.00,0.2949
1942.00,0.2953
1941.00,0.2956
1940.00,0.2959
1939.00,0.2961
1938.00,0.2961
1937.00,0.2961
1936.00,0.2961
1935.00,0.2961
1934.00,0.2960
1933.00,0.2961
1932.00,0.2961
1931.00,0.2961
1930.00,0.2961
1929.00,0.2962
1928.00,0.2962
1927.00,0.2962
1926.00,0.2962
1925.00,0.2963
1924.00,0.2964
1923.00,0.2967
1922.00,0.2970
1921.00,0.2973
1920.00,0.2977
1919.00,0.2980
1918.00,0.2983
1917.00,0.2985
1916.00,0.2986
1915.00,0.2987
1914.00,0.2988
1913.00,0.2987
1912.00,0.2986
1911.00,0.2985
1910.00,0.2985
1909.00,0.2986
1908.00,0.2987
1907.00,0.2987
1906.00,0.2987
1905.00,0.2986
1904.00,0.2986
1903.00,0.2985
1902.00,0.2984
1901.00,0.2984
1900.00,0.2984
1899.00,0.2984
1898.00,0.2983
1897.00,0.2983
1896.00,0.2984
1895.00,0.2984
1894.00,0.2983
1893.00,0.2982
1892.00,0.2981
1891.00,0.2980
1890.00,0.2980
1889.00,0.2981
1888.00,0.2981
1887.00,0.2982
1886.00,0.2983
1885.00,0.2983
1884.00,0.2984
1883.00,0.2984
1882.00,0.2984
1881.00,0.2985
1880.00,0.2985
1879.00,0.2986
1878.00,0.2987
1877.00,0.2987
1876.00,0.2987
1875.00,0.2986
1874.00,0.2984
1873.00,0.2982
1872.00,0.2980
1871.00,0.2978
1870.00,0.2977
1869.00,0.2977
1868.00,0.2978
1867.00,0.2979
1866.00,0.2980
1865.00,0.2980
1864.00,0.2980
1863.00,0.2979
1862.00,0.2977
1861.00,0.2976
1860.00,0.2975
1859.00,0.2972
1858.00,0.2970
1857.00,0.2968
1856.00,0.2966
1855.00,0.2964
1854.00,0.2961
1853.00,0.2959
1852.00,0.2957
1851.00,0.2953
1850.00,0.2950
1849.00,0.2946
1848.00,0.2943
1847.00,0.2941
1846.00,0.2942
1845.00,0.2944
1844.00,0.2946
1843.00,0.2946
1842.00,0.2946
1841.00,0.2946
1840.00,0.2947
1839.00,0.2946
1838.00,0.2946
1837.00,0.2946
1836.00,0.2946
1835.00,0.2945
1834.00,0.2942
1833.00,0.2939
1832.00,0.2938
1831.00,0.2937
1830.00,0.2938
1829.00,0.2939
1828.00,0.2939
1827.00,0.2940
1826.00,0.2941
1825.00,0.2943
1824.00,0.2945
1823.00,0.2947
1822.00,0.2949
1821.00,0.2950
1820.00,0.2952
1819.00,0.2952
1818.00,0.2952
1817.00,0.2953
1816.00,0.2953
1815.00,0.2952
1814.00,0.2951
1813.00,0.2950
1812.00,0.2950
1811.00,0.2950
1810.00,0.2950
1809.00,0.2952
1808.00,0.2953
1807.00,0.2954
1806.00,0.2954
1805.00,0.2954
1804.00,0.2953
1803.00,0.2953
1802.00,0.2954
1801.00,0.2957
1800.00,0.2962
1799.00,0.2966
1798.00,0.2969
1797.00,0.2971
1796.00,0.2973
1795.00,0.2976
1794.00,0.2979
1793.00,0.2983
1792.00,0.2989
1791.00,0.2996
1790.00,0.3002
1789.00,0.3009
1788.00,0.3014
1787.00,0.3019
1786.00,0.3023
1785.00,0.3028
1784.00,0.3033
1783.00,0.3038
1782.00,0.3043
1781.00,0.3048
1780.00,0.3053
1779.00,0.3057
1778.00,0.3059
1777.00,0.3061
1776.00,0.3062
1775.00,0.3065
1774.00,0.3068
1773.00,0.3071
1772.00,0.3072
1771.00,0.3072
1770.00,0.3074
1769.00,0.3079
1768.00,0.3085
1767.00,0.3088
1766.00,0.3090
1765.00,0.3092
1764.00,0.3095
1763.00,0.3100
1762.00,0.3106
1761.00,0.3113
1760.00,0.3120
1759.00,0.3128
1758.00,0.3139
1757.00,0.3153
1756.00,0.3167
1755.00,0.3181
1754.00,0.3195
1753.00,0.3211
1752.00,0.3226
1751.00,0.3240
1750.00,0.3254
1749.00,0.3268
1748.00,0.3283
1747.00,0.3296
1746.00,0.3305
1745.00,0.3311
1744.00,0.3315
1743.00,0.3317
1742.00,0.3318
1741.00,0.3318
1740.00,0.3314
1739.00,0.3306
1738.00,0.3297
1737.00,0.3292
1736.00,0.3290
1735.00,0.3286
1734.00,0.3278
1733.00,0.3267
1732.00,0.3258
1731.00,0.3253
1730.00,0.3252
1729.00,0.3254
1728.00,0.3256
1727.00,0.3257
1726.00,0.3258
1725.00,0.3261
1724.00,0.3266
1723.00,0.3270
1722.00,0.3273
1721.00,0.3278
1720.00,0.3284
1719.00,0.3292
1718.00,0.3300
1717.00,0.3310
1716.00,0.3320
1715.00,0.3330
1714.00,0.3342
1713.00,0.3355
1712.00,0.3369
1711.00,0.3382
1710.00,0.3397
1709.00,0.3411
1708.00,0.3426
1707.00,0.3441
1706.00,0.3455
1705.00,0.3465
1704.00,0.3472
1703.00,0.3477
1702.00,0.3480
1701.00,0.3476
1700.00,0.3463
1699.00,0.3449
1698.00,0.3444
1697.00,0.3447
1696.00,0.3451
1695.00,0.3448
1694.00,0.3441
1693.00,0.3439
1692.00,0.3440
1691.00,0.3441
1690.00,0.3442
1689.00,0.3444
1688.00,0.3448
1687.00,0.3455
1686.00,0.3461
1685.00,0.3467
1684.00,0.3472
1683.00,0.3475
1682.00,0.3479
1681.00,0.3487
1680.00,0.3495
1679.00,0.3501
1678.00,0.3508
1677.00,0.3518
1676.00,0.3528
1675.00,0.3536
1674.00,0.3540
1673.00,0.3546
1672.00,0.3554
1671.00,0.3563
1670.00,0.3575
1669.00,0.3588
1668.00,0.3599
1667.00,0.3608
1666.00,0.3615
1665.00,0.3624
1664.00,0.3633
1663.00,0.3642
1662.00,0.3650
1661.00,0.3658
1660.00,0.3666
1659.00,0.3673
1658.00,0.3678
1657.00,0.3684
1656.00,0.3695
1655.00,0.3711
1654.00,0.3734
1653.00,0.3760
1652.00,0.3773
1651.00,0.3776
1650.00,0.3780
1649.00,0.3794
1648.00,0.3817
1647.00,0.3845
1646.00,0.3875
1645.00,0.3902
1644.00,0.3928
1643.00,0.3952
1642.00,0.3977
1641.00,0.4004
1640.00,0.4030
1639.00,0.4056
1638.00,0.4085
1637.00,0.4123
1636.00,0.4169
1635.00,0.4213
1634.00,0.4250
1633.00,0.4285
1632.00,0.4320
1631.00,0.4356
1630.00,0.4395
1629.00,0.4438
1628.00,0.4487
1627.00,0.4536
1626.00,0.4589
1625.00,0.4649
1624.00,0.4720
1623.00,0.4800
1622.00,0.4884
1621.00,0.4973
1620.00,0.5068
1619.00,0.5173
1618.00,0.5296
1617.00,0.5443
1616.00,0.5603
1615.00,0.5764
1614.00,0.5928
1613.00,0.6113
1612.00,0.6325
1611.00,0.6557
1610.00,0.6797
1609.00,0.7042
1608.00,0.7285
1607.00,0.7523
1606.00,0.7765
1605.00,0.8039
1604.00,0.8364
1603.00,0.8743
1602.00,0.9170
1601.00,0.9634
1600.00,1.0115
1599.00,1.0583
1598.00,1.1040
1597.00,1.1533
1596.00,1.2113
1595.00,1.2802
1594.00,1.3627
1593.00,1.4652
1592.00,1.5944
1591.00,1.7512
1590.00,1.9352
1589.00,2.1598
1588.00,2.4513
1587.00,2.8163
1586.00,3.1759
1585.00,3.5763
1584.00,4.2354
1583.00,4.0227
1582.00,4.1435
1581.00,4.1217
1580.00,4.1459
1579.00,3.9725
1578.00,3.9235
1577.00,3.7003
1576.00,3.9175
1575.00,3.9756
1574.00,3.8693
1573.00,3.5991
1572.00,3.4779
1571.00,3.2290
1570.00,2.9569
1569.00,2.8546
1568.00,2.8923
1567.00,2.9695
1566.00,3.0183
1565.00,3.1328
1564.00,3.4549
1563.00,3.8279
1562.00,4.1287
1561.00,4.4123
1560.00,4.0258
1559.00,3.5103
1558.00,2.8030
1557.00,2.4444
1556.00,2.1818
1555.00,1.9333
1554.00,1.7173
1553.00,1.5473
1552.00,1.4140
1551.00,1.3012
1550.00,1.2036
1549.00,1.1239
1548.00,1.0615
1547.00,1.0105
1546.00,0.9659
1545.00,0.9264
1544.00,0.8915
1543.00,0.8594
1542.00,0.8282
1541.00,0.7977
1540.00,0.7691
1539.00,0.7441
1538.00,0.7250
1537.00,0.7123
1536.00,0.7042
1535.00,0.6990
1534.00,0.6968
1533.00,0.6992
1532.00,0.7066
1531.00,0.7176
1530.00,0.7314
1529.00,0.7474
1528.00,0.7639
1527.00,0.7788
1526.00,0.7908
1525.00,0.8011
1524.00,0.8121
1523.00,0.8262
1522.00,0.8461
1521.00,0.8717
1520.00,0.8982
1519.00,0.9201
1518.00,0.9349
1517.00,0.9405
1516.00,0.9338
1515.00,0.9141
1514.00,0.8850
1513.00,0.8511
1512.00,0.8165
1511.00,0.7850
1510.00,0.7589
1509.00,0.7386
1508.00,0.7236
1507.00,0.7134
1506.00,0.7084
1505.00,0.7086
1504.00,0.7129
1503.00,0.7198
1502.00,0.7280
1501.00,0.7363
1500.00,0.7433
1499.00,0.7474
1498.00,0.7486
1497.00,0.7483
1496.00,0.7481
1495.00,0.7486
1494.00,0.7508
1493.00,0.7559
1492.00,0.7644
1491.00,0.7764
1490.00,0.7922
1489.00,0.8124
1488.00,0.8362
1487.00,0.8626
1486.00,0.8909
1485.00,0.9211
1484.00,0.9530
1483.00,0.9861
1482.00,1.0213
1481.00,1.0601
1480.00,1.1033
1479.00,1.1520
1478.00,1.2099
1477.00,1.2829
1476.00,1.3752
1475.00,1.4904
1474.00,1.6392
1473.00,1.8415
1472.00,2.1166
1471.00,2.4684
1470.00,2.8891
1469.00,3.4212
1468.00,4.1716
1467.00,4.0905
1466.00,4.0414
1465.00,4.0361
1464.00,3.7245
1463.00,3.5460
1462.00,3.5004
1461.00,3.5116
1460.00,3.6061
1459.00,3.9956
1458.00,4.2579
1457.00,3.8924
1456.00,3.9405
1455.00,4.1639
1454.00,4.5918
1453.00,4.2827
1452.00,4.1355
1451.00,4.3920
1450.00,4.0258
1449.00,4.1573
1448.00,4.5624
1447.00,4.1141
1446.00,3.8276
1445.00,3.6385
1444.00,3.6154
1443.00,3.6686
1442.00,3.6806
1441.00,3.7257
1440.00,3.7538
1439.00,3.6130
1438.00,3.4701
1437.00,3.3796
1436.00,3.2010
1435.00,2.9367
1434.00,2.6861
1433.00,2.4609
1432.00,2.2457
1431.00,2.0455
1430.00,1.8736
1429.00,1.7343
1428.00,1.6241
1427.00,1.5383
1426.00,1.4734
1425.00,1.4278
1424.00,1.4010
1423.00,1.3922
1422.00,1.3993
1421.00,1.4198
1420.00,1.4507
1419.00,1.4871
1418.00,1.5265
1417.00,1.5744
1416.00,1.6399
1415.00,1.7251
1414.00,1.8153
1413.00,1.8687
1412.00,1.8381
1411.00,1.7328
1410.00,1.6061
1409.00,1.4924
1408.00,1.3984
1407.00,1.3195
1406.00,1.2499
1405.00,1.1853
1404.00,1.1245
1403.00,1.0688
1402.00,1.0191
1401.00,0.9747
1400.00,0.9353
1399.00,0.9022
1398.00,0.8766
1397.00,0.8579
1396.00,0.8436
1395.00,0.8315
1394.00,0.8199
1393.00,0.8087
1392.00,0.7988
1391.00,0.7919
1390.00,0.7898
1389.00,0.7946
1388.00,0.8089
1387.00,0.8348
1386.00,0.8728
1385.00,0.9241
1384.00,0.9926
1383.00,1.0844
1382.00,1.2048
1381.00,1.3553
1380.00,1.5287
1379.00,1.6928
1378.00,1.7794
1377.00,1.7436
1376.00,1.6297
1375.00,1.5016
1374.00,1.3928
1373.00,1.3139
1372.00,1.2628
1371.00,1.2313
1370.00,1.2106
1369.00,1.1943
1368.00,1.1785
1367.00,1.1608
1366.00,1.1394
1365.00,1.1136
1364.00,1.0833
1363.00,1.0506
1362.00,1.0187
1361.00,0.9908
1360.00,0.9679
1359.00,0.9499
1358.00,0.9365
1357.00,0.9273
1356.00,0.9220
1355.00,0.9198
1354.00,0.9196
1353.00,0.9204
1352.00,0.9208
1351.00,0.9200
1350.00,0.9181
1349.00,0.9162
1348.00,0.9160
1347.00,0.9190
1346.00,0.9263
1345.00,0.9377
1344.00,0.9519
1343.00,0.9660
1342.00,0.9766
1341.00,0.9802
1340.00,0.9742
1339.00,0.9580
1338.00,0.9324
1337.00,0.8998
1336.00,0.8633
1335.00,0.8265
1334.00,0.7928
1333.00,0.7644
1332.00,0.7425
1331.00,0.7278
1330.00,0.7212
1329.00,0.7239
1328.00,0.7385
1327.00,0.7683
1326.00,0.8141
1325.00,0.8687
1324.00,0.9133
1323.00,0.9253
1322.00,0.9004
1321.00,0.8569
1320.00,0.8157
1319.00,0.7868
1318.00,0.7707
1317.00,0.7639
1316.00,0.7633
1315.00,0.7669
1314.00,0.7738
1313.00,0.7833
1312.00,0.7948
1311.00,0.8070
1310.00,0.8192
1309.00,0.8312
1308.00,0.8442
1307.00,0.8601
1306.00,0.8812
1305.00,0.9075
1304.00,0.9336
1303.00,0.9486
1302.00,0.9445
1301.00,0.9257
1300.00,0.9054
1299.00,0.8951
1298.00,0.8966
1297.00,0.9024
1296.00,0.9000
1295.00,0.8815
1294.00,0.8500
1293.00,0.8153
1292.00,0.7854
1291.00,0.7628
1290.00,0.7458
1289.00,0.7323
1288.00,0.7206
1287.00,0.7094
1286.00,0.6975
1285.00,0.6845
1284.00,0.6706
1283.00,0.6565
1282.00,0.6432
1281.00,0.6316
1280.00,0.6224
1279.00,0.6155
1278.00,0.6104
1277.00,0.6067
1276.00,0.6041
1275.00,0.6030
1274.00,0.6037
1273.00,0.6062
1272.00,0.6105
1271.00,0.6162
1270.00,0.6217
1269.00,0.6253
1268.00,0.6250
1267.00,0.6205
1266.00,0.6123
1265.00,0.6025
1264.00,0.5934
1263.00,0.5862
1262.00,0.5815
1261.00,0.5791
1260.00,0.5785
1259.00,0.5794
1258.00,0.5806
1257.00,0.5812
1256.00,0.5805
1255.00,0.5785
1254.00,0.5754
1253.00,0.5716
1252.00,0.5674
1251.00,0.5631
1250.00,0.5585
1249.00,0.5539
1248.00,0.5494
1247.00,0.5456
1246.00,0.5423
1245.00,0.5390
1244.00,0.5352
1243.00,0.5307
1242.00,0.5253
1241.00,0.5193
1240.00,0.5133
1239.00,0.5080
1238.00,0.5036
1237.00,0.5002
1236.00,0.4981
1235.00,0.4974
1234.00,0.4985
1233.00,0.5014
1232.00,0.5064
1231.00,0.5135
1230.00,0.5218
1229.00,0.5304
1228.00,0.5384
1227.00,0.5455
1226.00,0.5517
1225.00,0.5575
1224.00,0.5637
1223.00,0.5710
1222.00,0.5793
1221.00,0.5863
1220.00,0.5884
1219.00,0.5831
1218.00,0.5710
1217.00,0.5564
1216.00,0.5436
1215.00,0.5346
1214.00,0.5285
1213.00,0.5231
1212.00,0.5172
1211.00,0.5104
1210.00,0.5035
1209.00,0.4975
1208.00,0.4935
1207.00,0.4919
1206.00,0.4920
1205.00,0.4923
1204.00,0.4918
1203.00,0.4903
1202.00,0.4883
1201.00,0.4870
1200.00,0.4873
1199.00,0.4892
1198.00,0.4924
1197.00,0.4963
1196.00,0.5009
1195.00,0.5066
1194.00,0.5137
1193.00,0.5222
1192.00,0.5311
1191.00,0.5391
1190.00,0.5441
1189.00,0.5447
1188.00,0.5412
1187.00,0.5352
1186.00,0.5285
1185.00,0.5223
1184.00,0.5174
1183.00,0.5136
1182.00,0.5107
1181.00,0.5080
1180.00,0.5053
1179.00,0.5023
1178.00,0.4988
1177.00,0.4944
1176.00,0.4889
1175.00,0.4825
1174.00,0.4757
1173.00,0.4688
1172.00,0.4622
1171.00,0.4561
1170.00,0.4506
1169.00,0.4456
1168.00,0.4411
1167.00,0.4373
1166.00,0.4342
1165.00,0.4318
1164.00,0.4301
1163.00,0.4294
1162.00,0.4300
1161.00,0.4323
1160.00,0.4367
1159.00,0.4441
1158.00,0.4558
1157.00,0.4736
1156.00,0.5016
1155.00,0.5443
1154.00,0.6013
1153.00,0.6606
1152.00,0.6963
1151.00,0.6886
1150.00,0.6474
1149.00,0.5998
1148.00,0.5642
1147.00,0.5443
1146.00,0.5367
1145.00,0.5372
1144.00,0.5436
1143.00,0.5555
1142.00,0.5735
1141.00,0.5986
1140.00,0.6302
1139.00,0.6644
1138.00,0.6935
1137.00,0.7111
1136.00,0.7157
1135.00,0.7110
1134.00,0.7010
1133.00,0.6871
1132.00,0.6684
1131.00,0.6451
1130.00,0.6192
1129.00,0.5944
1128.00,0.5740
1127.00,0.5594
1126.00,0.5507
1125.00,0.5472
1124.00,0.5475
1123.00,0.5501
1122.00,0.5536
1121.00,0.5574
1120.00,0.5617
1119.00,0.5672
1118.00,0.5747
1117.00,0.5847
1116.00,0.5964
1115.00,0.6074
1114.00,0.6136
1113.00,0.6116
1112.00,0.6009
1111.00,0.5845
1110.00,0.5663
1109.00,0.5498
1108.00,0.5365
1107.00,0.5265
1106.00,0.5193
1105.00,0.5143
1104.00,0.5109
1103.00,0.5085
1102.00,0.5067
1101.00,0.5054
1100.00,0.5043
1099.00,0.5032
1098.00,0.5015
1097.00,0.4990
1096.00,0.4958
1095.00,0.4924
1094.00,0.4891
1093.00,0.4864
1092.00,0.4846
1091.00,0.4839
1090.00,0.4846
1089.00,0.4869
1088.00,0.4911
1087.00,0.4976
1086.00,0.5065
1085.00,0.5179
1084.00,0.5318
1083.00,0.5480
1082.00,0.5661
1081.00,0.5848
1080.00,0.6026
1079.00,0.6177
1078.00,0.6285
1077.00,0.6340
1076.00,0.6338
1075.00,0.6285
1074.00,0.6192
1073.00,0.6079
1072.00,0.5961
1071.00,0.5849
1070.00,0.5745
1069.00,0.5653
1068.00,0.5576
1067.00,0.5517
1066.00,0.5476
1065.00,0.5453
1064.00,0.5445
1063.00,0.5447
1062.00,0.5452
1061.00,0.5453
1060.00,0.5447
1059.00,0.5432
1058.00,0.5413
1057.00,0.5394
1056.00,0.5378
1055.00,0.5368
1054.00,0.5365
1053.00,0.5370
1052.00,0.5386
1051.00,0.5413
1050.00,0.5448
1049.00,0.5489
1048.00,0.5534
1047.00,0.5580
1046.00,0.5623
1045.00,0.5659
1044.00,0.5687
1043.00,0.5709
1042.00,0.5729
1041.00,0.5751
1040.00,0.5779
1039.00,0.5809
1038.00,0.5837
1037.00,0.5862
1036.00,0.5889
1035.00,0.5925
1034.00,0.5978
1033.00,0.6053
1032.00,0.6152
1031.00,0.6270
1030.00,0.6397
1029.00,0.6515
1028.00,0.6607
1027.00,0.6657
1026.00,0.6660
1025.00,0.6622
1024.00,0.6560
1023.00,0.6492
1022.00,0.6436
1021.00,0.6400
1020.00,0.6388
1019.00,0.6398
1018.00,0.6425
1017.00,0.6468
1016.00,0.6522
1015.00,0.6584
1014.00,0.6646
1013.00,0.6706
1012.00,0.6764
1011.00,0.6822
1010.00,0.6880
1009.00,0.6938
1008.00,0.6997
1007.00,0.7059
1006.00,0.7123
1005.00,0.7187
1004.00,0.7249
1003.00,0.7304
1002.00,0.7346
1001.00,0.7371
1000.00,0.7372
999.00,0.7343
998.00,0.7278
997.00,0.7180
996.00,0.7060
995.00,0.6927
994.00,0.6791
993.00,0.6652
992.00,0.6508
991.00,0.6359
990.00,0.6207
989.00,0.6059
988.00,0.5920
987.00,0.5794
986.00,0.5681
985.00,0.5578
984.00,0.5484
983.00,0.5396
982.00,0.5311
981.00,0.5225
980.00,0.5138
979.00,0.5049
978.00,0.4957
977.00,0.4866
976.00,0.4779
975.00,0.4700
974.00,0.4632
973.00,0.4575
972.00,0.4530
971.00,0.4498
970.00,0.4480
969.00,0.4471
968.00,0.4472
967.00,0.4477
966.00,0.4481
965.00,0.4478
964.00,0.4464
963.00,0.4435
962.00,0.4394
961.00,0.4347
960.00,0.4301
959.00,0.4263
958.00,0.4237
957.00,0.4220
956.00,0.4209
955.00,0.4200
954.00,0.4192
953.00,0.4185
952.00,0.4182
951.00,0.4188
950.00,0.4208
949.00,0.4247
948.00,0.4306
947.00,0.4386
946.00,0.4479
945.00,0.4571
944.00,0.4647
943.00,0.4694
942.00,0.4706
941.00,0.4688
940.00,0.4647
939.00,0.4597
938.00,0.4547
937.00,0.4502
936.00,0.4466
935.00,0.4437
934.00,0.4416
933.00,0.4403
932.00,0.4403
931.00,0.4420
930.00,0.4463
929.00,0.4542
928.00,0.4668
927.00,0.4850
926.00,0.5080
925.00,0.5329
924.00,0.5551
923.00,0.5706
922.00,0.5782
921.00,0.5791
920.00,0.5748
919.00,0.5650
918.00,0.5488
917.00,0.5268
916.00,0.5016
915.00,0.4768
914.00,0.4554
913.00,0.4386
912.00,0.4264
911.00,0.4175
910.00,0.4108
909.00,0.4054
908.00,0.4008
907.00,0.3969
906.00,0.3936
905.00,0.3911
904.00,0.3893
903.00,0.3884
902.00,0.3884
901.00,0.3891
900.00,0.3905
899.00,0.3926
898.00,0.3954
897.00,0.3990
896.00,0.4037
895.00,0.4095
894.00,0.4165
893.00,0.4244
892.00,0.4329
891.00,0.4410
890.00,0.4471
889.00,0.4500
888.00,0.4491
887.00,0.4448
886.00,0.4384
885.00,0.4314
884.00,0.4252
883.00,0.4208
882.00,0.4182
881.00,0.4172
880.00,0.4173
879.00,0.4179
878.00,0.4187
877.00,0.4195
876.00,0.4202
875.00,0.4210
874.00,0.4220
873.00,0.4232
872.00,0.4247
871.00,0.4266
870.00,0.4293
869.00,0.4334
868.00,0.4394
867.00,0.4477
866.00,0.4582
865.00,0.4706
864.00,0.4839
863.00,0.4967
862.00,0.5066
861.00,0.5110
860.00,0.5086
859.00,0.5003
858.00,0.4887
857.00,0.4769
856.00,0.4671
855.00,0.4601
854.00,0.4557
853.00,0.4536
852.00,0.4530
851.00,0.4537
850.00,0.4552
849.00,0.4572
848.00,0.4596
847.00,0.4624
846.00,0.4656
845.00,0.4693
844.00,0.4740
843.00,0.4805
842.00,0.4895
841.00,0.5025
840.00,0.5202
839.00,0.5415
838.00,0.5624
837.00,0.5771
836.00,0.5805
835.00,0.5718
834.00,0.5545
833.00,0.5344
832.00,0.5161
831.00,0.5020
830.00,0.4927
829.00,0.4879
828.00,0.4868
827.00,0.4887
826.00,0.4931
825.00,0.4994
824.00,0.5069
823.00,0.5142
822.00,0.5196
821.00,0.5213
820.00,0.5187
819.00,0.5125
818.00,0.5040
817.00,0.4949
816.00,0.4864
815.00,0.4793
814.00,0.4735
813.00,0.4690
812.00,0.4652
811.00,0.4620
810.00,0.4590
809.00,0.4561
808.00,0.4535
807.00,0.4509
806.00,0.4484
805.00,0.4463
804.00,0.4449
803.00,0.4446
802.00,0.4453
801.00,0.4470
800.00,0.4497
799.00,0.4530
798.00,0.4564
797.00,0.4596
796.00,0.4627
795.00,0.4659
794.00,0.4697
793.00,0.4740
792.00,0.4786
791.00,0.4833
790.00,0.4877
789.00,0.4919
788.00,0.4963
787.00,0.5019
786.00,0.5104
785.00,0.5232
784.00,0.5415
783.00,0.5645
782.00,0.5891
781.00,0.6092
780.00,0.6173
779.00,0.6096
778.00,0.5884
777.00,0.5607
776.00,0.5337
775.00,0.5117
774.00,0.4960
773.00,0.4865
772.00,0.4823
771.00,0.4827
770.00,0.4869
769.00,0.4945
768.00,0.5049
767.00,0.5174
766.00,0.5312
765.00,0.5451
764.00,0.5581
763.00,0.5693
762.00,0.5780
761.00,0.5838
760.00,0.5861
759.00,0.5844
758.00,0.5792
757.00,0.5723
756.00,0.5659
755.00,0.5618
754.00,0.5608
753.00,0.5625
752.00,0.5667
751.00,0.5731
750.00,0.5819
749.00,0.5930
748.00,0.6059
747.00,0.6192
746.00,0.6313
745.00,0.6410
744.00,0.6479
743.00,0.6525
742.00,0.6555
741.00,0.6580
740.00,0.6606
739.00,0.6642
738.00,0.6694
737.00,0.6774
736.00,0.6892
735.00,0.7048
734.00,0.7244
733.00,0.7486
732.00,0.7789
731.00,0.8161
730.00,0.8608
729.00,0.9136
728.00,0.9755
727.00,1.0482
726.00,1.1320
725.00,1.2245
724.00,1.3171
723.00,1.3926
722.00,1.4261
721.00,1.3985
720.00,1.3163
719.00,1.2076
718.00,1.0984
717.00,1.0023
716.00,0.9231
715.00,0.8596
714.00,0.8085
713.00,0.7666
712.00,0.7313
711.00,0.7011
710.00,0.6748
709.00,0.6521
708.00,0.6323
707.00,0.6148
706.00,0.5992
705.00,0.5855
704.00,0.5741
703.00,0.5650
702.00,0.5574
701.00,0.5510
700.00,0.5455
699.00,0.5407
698.00,0.5361
697.00,0.5317
696.00,0.5278
695.00,0.5244
694.00,0.5219
693.00,0.5204
692.00,0.5201
691.00,0.5206
690.00,0.5215
689.00,0.5229
688.00,0.5251
687.00,0.5282
686.00,0.5322
685.00,0.5370
684.00,0.5426
683.00,0.5490
682.00,0.5564
681.00,0.5648
680.00,0.5743
679.00,0.5848
678.00,0.5957
677.00,0.6066
676.00,0.6171
675.00,0.6263
674.00,0.6332
673.00,0.6378
672.00,0.6405
671.00,0.6420
670.00,0.6428
669.00,0.6444
668.00,0.6470
667.00,0.6503
666.00,0.6543
665.00,0.6583
664.00,0.6609
663.00,0.6610
662.00,0.6577
661.00,0.6508
660.00,0.6411
659.00,0.6305
658.00,0.6202
657.00,0.6110
656.00,0.6029
655.00,0.5961
654.00,0.5907
653.00,0.5871
652.00,0.5856
651.00,0.5862
650.00,0.5890
649.00,0.5936
648.00,0.6001
647.00,0.6085
646.00,0.6187
645.00,0.6298
644.00,0.6414
643.00,0.6523
642.00,0.6615
641.00,0.6673
640.00,0.6683
639.00,0.6640
638.00,0.6548
637.00,0.6418
636.00,0.6265
635.00,0.6103
634.00,0.5947
633.00,0.5808
632.00,0.5695
631.00,0.5613
630.00,0.5559
629.00,0.5529
628.00,0.5524
627.00,0.5547
626.00,0.5602
625.00,0.5689
624.00,0.5804
623.00,0.5947
622.00,0.6116
621.00,0.6305
620.00,0.6503
619.00,0.6694
618.00,0.6853
617.00,0.6951
616.00,0.6965
615.00,0.6890
614.00,0.6736
613.00,0.6528
612.00,0.6295
611.00,0.6066
610.00,0.5858
609.00,0.5681
608.00,0.5532
607.00,0.5408
606.00,0.5305
605.00,0.5220
604.00,0.5154
603.00,0.5105
602.00,0.5070
601.00,0.5048
600.00,0.5036
599.00,0.5031
598.00,0.5030
597.00,0.5035
596.00,0.5048
595.00,0.5068
594.00,0.5093
593.00,0.5121
592.00,0.5151
591.00,0.5182
590.00,0.5213
589.00,0.5243
588.00,0.5277
587.00,0.5319
586.00,0.5364
585.00,0.5408
584.00,0.5449
583.00,0.5487
582.00,0.5523
581.00,0.5558
580.00,0.5592
579.00,0.5624
578.00,0.5656
577.00,0.5690
576.00,0.5731
575.00,0.5780
574.00,0.5833
573.00,0.5889
572.00,0.5951
571.00,0.6028
570.00,0.6117
569.00,0.6208
568.00,0.6295
567.00,0.6378
566.00,0.6456
565.00,0.6530
564.00,0.6596
563.00,0.6651
562.00,0.6693
561.00,0.6722
560.00,0.6745
559.00,0.6770
558.00,0.6802
557.00,0.6841
556.00,0.6885
555.00,0.6930
554.00,0.6976
553.00,0.7023
552.00,0.7080
551.00,0.7155
550.00,0.7256
