Created as New Dataset,
cm-1,A
4000.00,0.3526
3999.00,0.3527
3998.00,0.3527
3997.00,0.3527
3996.00,0.3526
3995.00,0.3525
3994.00,0.3524
3993.00,0.3522
3992.00,0.3519
3991.00,0.3516
3990.00,0.3513
3989.00,0.3509
3988.00,0.3504
3987.00,0.3499
3986.00,0.3494
3985.00,0.3489
3984.00,0.3485
3983.00,0.3480
3982.00,0.3475
3981.00,0.3470
3980.00,0.3466
3979.00,0.3461
3978.00,0.3457
3977.00,0.3453
3976.00,0.3449
3975.00,0.3445
3974.00,0.3442
3973.00,0.3439
3972.00,0.3436
3971.00,0.3433
3970.00,0.3430
3969.00,0.3427
3968.00,0.3423
3967.00,0.3419
3966.00,0.3415
3965.00,0.3411
3964.00,0.3405
3963.00,0.3399
3962.00,0.3394
3961.00,0.3388
3960.00,0.3383
3959.00,0.3378
3958.00,0.3373
3957.00,0.3369
3956.00,0.3365
3955.00,0.3361
3954.00,0.3358
3953.00,0.3354
3952.00,0.3350
3951.00,0.3346
3950.00,0.3342
3949.00,0.3339
3948.00,0.3336
3947.00,0.3334
3946.00,0.3331
3945.00,0.3329
3944.00,0.3326
3943.00,0.3324
3942.00,0.3322
3941.00,0.3320
3940.00,0.3318
3939.00,0.3316
3938.00,0.3315
3937.00,0.3314
3936.00,0.3314
3935.00,0.3313
3934.00,0.3313
3933.00,0.3313
3932.00,0.3313
3931.00,0.3314
3930.00,0.3314
3929.00,0.3314
3928.00,0.3314
3927.00,0.3314
3926.00,0.3314
3925.00,0.3315
3924.00,0.3316
3923.00,0.3316
3922.00,0.3316
3921.00,0.3316
3920.00,0.3316
3919.00,0.3316
3918.00,0.3315
3917.00,0.3314
3916.00,0.3313
3915.00,0.3311
3914.00,0.3310
3913.00,0.3308
3912.00,0.3306
3911.00,0.3304
3910.00,0.3303
3909.00,0.3302
3908.00,0.3301
3907.00,0.3300
3906.00,0.3299
3905.00,0.3299
3904.00,0.3298
3903.00,0.3297
3902.00,0.3297
3901.00,0.3296
3900.00,0.3294
3899.00,0.3293
3898.00,0.3291
3897.00,0.3289
3896.00,0.3288
3895.00,0.3286
3894.00,0.3284
3893.00,0.3283
3892.00,0.3282
3891.00,0.3282
3890.00,0.3281
3889.00,0.3280
3888.00,0.3279
3887.00,0.3277
3886.00,0.3277
3885.00,0.3276
3884.00,0.3276
3883.00,0.3275
3882.00,0.3274
3881.00,0.3273
3880.00,0.3273
3879.00,0.3272
3878.00,0.3270
3877.00,0.3269
3876.00,0.3268
3875.00,0.3268
3874.00,0.3268
3873.00,0.3267
3872.00,0.3266
3871.00,0.3264
3870.00,0.3263
3869.00,0.3262
3868.00,0.3261
3867.00,0.3260
3866.00,0.3258
3865.00,0.3257
3864.00,0.3257
3863.00,0.3256
3862.00,0.3254
3861.00,0.3254
3860.00,0.3253
3859.00,0.3253
3858.00,0.3252
3857.00,0.3253
3856.00,0.3253
3855.00,0.3253
3854.00,0.3255
3853.00,0.3257
3852.00,0.3258
3851.00,0.3258
3850.00,0.3257
3849.00,0.3257
3848.00,0.3256
3847.00,0.3255
3846.00,0.3254
3845.00,0.3253
3844.00,0.3252
3843.00,0.3252
3842.00,0.3252
3841.00,0.3251
3840.00,0.3251
3839.00,0.3250
3838.00,0.3250
3837.00,0.3249
3836.00,0.3247
3835.00,0.3245
3834.00,0.3242
3833.00,0.3240
3832.00,0.3238
3831.00,0.3236
3830.00,0.3234
3829.00,0.3231
3828.00,0.3229
3827.00,0.3227
3826.00,0.3226
3825.00,0.3225
3824.00,0.3223
3823.00,0.3222
3822.00,0.3220
3821.00,0.3220
3820.00,0.3219
3819.00,0.3217
3818.00,0.3215
3817.00,0.3214
3816.00,0.3213
3815.00,0.3211
3814.00,0.3209
3813.00,0.3207
3812.00,0.3206
3811.00,0.3205
3810.00,0.3203
3809.00,0.3202
3808.00,0.3200
3807.00,0.3200
3806.00,0.3199
3805.00,0.3199
3804.00,0.3198
3803.00,0.3197
3802.00,0.3197
3801.00,0.3196
3800.00,0.3195
3799.00,0.3193
3798.00,0.3190
3797.00,0.3188
3796.00,0.3185
3795.00,0.3183
3794.00,0.3180
3793.00,0.3177
3792.00,0.3174
3791.00,0.3171
3790.00,0.3168
3789.00,0.3166
3788.00,0.3164
3787.00,0.3163
3786.00,0.3162
3785.00,0.3161
3784.00,0.3161
3783.00,0.3161
3782.00,0.3161
3781.00,0.3162
3780.00,0.3163
3779.00,0.3163
3778.00,0.3163
3777.00,0.3162
3776.00,0.3162
3775.00,0.3162
3774.00,0.3164
3773.00,0.3165
3772.00,0.3165
3771.00,0.3166
3770.00,0.3167
3769.00,0.3168
3768.00,0.3168
3767.00,0.3167
3766.00,0.3166
3765.00,0.3165
3764.00,0.3165
3763.00,0.3164
3762.00,0.3163
3761.00,0.3162
3760.00,0.3161
3759.00,0.3160
3758.00,0.3158
3757.00,0.3156
3756.00,0.3155
3755.00,0.3154
3754.00,0.3153
3753.00,0.3152
3752.00,0.3151
3751.00,0.3151
3750.00,0.3151
3749.00,0.3152
3748.00,0.3153
3747.00,0.3152
3746.00,0.3151
3745.00,0.3149
3744.00,0.3149
3743.00,0.3148
3742.00,0.3146
3741.00,0.3144
3740.00,0.3144
3739.00,0.3145
3738.00,0.3146
3737.00,0.3145
3736.00,0.3144
3735.00,0.3143
3734.00,0.3142
3733.00,0.3142
3732.00,0.3141
3731.00,0.3140
3730.00,0.3138
3729.00,0.3136
3728.00,0.3134
3727.00,0.3133
3726.00,0.3131
3725.00,0.3130
3724.00,0.3128
3723.00,0.3127
3722.00,0.3125
3721.00,0.3124
3720.00,0.3122
3719.00,0.3120
3718.00,0.3119
3717.00,0.3118
3716.00,0.3118
3715.00,0.3118
3714.00,0.3118
3713.00,0.3119
3712.00,0.3120
3711.00,0.3121
3710.00,0.3122
3709.00,0.3123
3708.00,0.3123
3707.00,0.3124
3706.00,0.3125
3705.00,0.3127
3704.00,0.3128
3703.00,0.3129
3702.00,0.3130
3701.00,0.3132
3700.00,0.3133
3699.00,0.3134
3698.00,0.3135
3697.00,0.3136
3696.00,0.3137
3695.00,0.3138
3694.00,0.3140
3693.00,0.3141
3692.00,0.3142
3691.00,0.3142
3690.00,0.3142
3689.00,0.3142
3688.00,0.3143
3687.00,0.3143
3686.00,0.3142
3685.00,0.3141
3684.00,0.3140
3683.00,0.3139
3682.00,0.3139
3681.00,0.3138
3680.00,0.3137
3679.00,0.3137
3678.00,0.3136
3677.00,0.3135
3676.00,0.3135
3675.00,0.3136
3674.00,0.3136
3673.00,0.3135
3672.00,0.3135
3671.00,0.3135
3670.00,0.3136
3669.00,0.3137
3668.00,0.3136
3667.00,0.3135
3666.00,0.3135
3665.00,0.3136
3664.00,0.3137
3663.00,0.3138
3662.00,0.3140
3661.00,0.3142
3660.00,0.3144
3659.00,0.3146
3658.00,0.3149
3657.00,0.3152
3656.00,0.3156
3655.00,0.3159
3654.00,0.3162
3653.00,0.3164
3652.00,0.3167
3651.00,0.3169
3650.00,0.3172
3649.00,0.3175
3648.00,0.3177
3647.00,0.3178
3646.00,0.3179
3645.00,0.3180
3644.00,0.3180
3643.00,0.3181
3642.00,0.3182
3641.00,0.3183
3640.00,0.3185
3639.00,0.3187
3638.00,0.3189
3637.00,0.3191
3636.00,0.3194
3635.00,0.3196
3634.00,0.3200
3633.00,0.3203
3632.00,0.3206
3631.00,0.3209
3630.00,0.3214
3629.00,0.3219
3628.00,0.3225
3627.00,0.3231
3626.00,0.3235
3625.00,0.3239
3624.00,0.3241
3623.00,0.3242
3622.00,0.3240
3621.00,0.3236
3620.00,0.3230
3619.00,0.3224
3618.00,0.3218
3617.00,0.3213
3616.00,0.3209
3615.00,0.3207
3614.00,0.3206
3613.00,0.3206
3612.00,0.3206
3611.00,0.3207
3610.00,0.3208
3609.00,0.3209
3608.00,0.3210
3607.00,0.3209
3606.00,0.3207
3605.00,0.3203
3604.00,0.3199
3603.00,0.3194
3602.00,0.3187
3601.00,0.3178
3600.00,0.3168
3599.00,0.3157
3598.00,0.3146
3597.00,0.3135
3596.00,0.3124
3595.00,0.3113
3594.00,0.3103
3593.00,0.3095
3592.00,0.3087
3591.00,0.3081
3590.00,0.3075
3589.00,0.3069
3588.00,0.3064
3587.00,0.3058
3586.00,0.3053
3585.00,0.3048
3584.00,0.3044
3583.00,0.3040
3582.00,0.3035
3581.00,0.3031
3580.00,0.3027
3579.00,0.3023
3578.00,0.3020
3577.00,0.3018
3576.00,0.3016
3575.00,0.3014
3574.00,0.3012
3573.00,0.3010
3572.00,0.3009
3571.00,0.3008
3570.00,0.3007
3569.00,0.3006
3568.00,0.3005
3567.00,0.3005
3566.00,0.3004
3565.00,0.3004
3564.00,0.3004
3563.00,0.3004
3562.00,0.3004
3561.00,0.3003
3560.00,0.3002
3559.00,0.3001
3558.00,0.3001
3557.00,0.3002
3556.00,0.3003
3555.00,0.3004
3554.00,0.3005
3553.00,0.3006
3552.00,0.3008
3551.00,0.3010
3550.00,0.3012
3549.00,0.3013
3548.00,0.3015
3547.00,0.3017
3546.00,0.3020
3545.00,0.3022
3544.00,0.3025
3543.00,0.3027
3542.00,0.3029
3541.00,0.3032
3540.00,0.3034
3539.00,0.3036
3538.00,0.3039
3537.00,0.3041
3536.00,0.3044
3535.00,0.3047
3534.00,0.3050
3533.00,0.3053
3532.00,0.3057
3531.00,0.3060
3530.00,0.3063
3529.00,0.3067
3528.00,0.3071
3527.00,0.3075
3526.00,0.3079
3525.00,0.3083
3524.00,0.3087
3523.00,0.3092
3522.00,0.3097
3521.00,0.3101
3520.00,0.3106
3519.00,0.3110
3518.00,0.3114
3517.00,0.3119
3516.00,0.3124
3515.00,0.3128
3514.00,0.3132
3513.00,0.3136
3512.00,0.3140
3511.00,0.3144
3510.00,0.3149
3509.00,0.3154
3508.00,0.3160
3507.00,0.3166
3506.00,0.3171
3505.00,0.3175
3504.00,0.3179
3503.00,0.3183
3502.00,0.3188
3501.00,0.3193
3500.00,0.3198
3499.00,0.3204
3498.00,0.3209
3497.00,0.3215
3496.00,0.3220
3495.00,0.3226
3494.00,0.3232
3493.00,0.3238
3492.00,0.3244
3491.00,0.3250
3490.00,0.3256
3489.00,0.3263
3488.00,0.3270
3487.00,0.3277
3486.00,0.3284
3485.00,0.3291
3484.00,0.3298
3483.00,0.3305
3482.00,0.3313
3481.00,0.3320
3480.00,0.3328
3479.00,0.3335
3478.00,0.3343
3477.00,0.3350
3476.00,0.3357
3475.00,0.3365
3474.00,0.3372
3473.00,0.3380
3472.00,0.3388
3471.00,0.3396
3470.00,0.3404
3469.00,0.3413
3468.00,0.3422
3467.00,0.3430
3466.00,0.3438
3465.00,0.3447
3464.00,0.3456
3463.00,0.3465
3462.00,0.3475
3461.00,0.3485
3460.00,0.3495
3459.00,0.3505
3458.00,0.3515
3457.00,0.3526
3456.00,0.3536
3455.00,0.3547
3454.00,0.3559
3453.00,0.3571
3452.00,0.3583
3451.00,0.3596
3450.00,0.3610
3449.00,0.3625
3448.00,0.3640
3447.00,0.3657
3446.00,0.3673
3445.00,0.3691
3444.00,0.3708
3443.00,0.3726
3442.00,0.3745
3441.00,0.3763
3440.00,0.3780
3439.00,0.3797
3438.00,0.3813
3437.00,0.3829
3436.00,0.3843
3435.00,0.3857
3434.00,0.3868
3433.00,0.3880
3432.00,0.3891
3431.00,0.3902
3430.00,0.3913
3429.00,0.3923
3428.00,0.3933
3427.00,0.3944
3426.00,0.3955
3425.00,0.3966
3424.00,0.3978
3423.00,0.3990
3422.00,0.4002
3421.00,0.4014
3420.00,0.4026
3419.00,0.4039
3418.00,0.4053
3417.00,0.4067
3416.00,0.4081
3415.00,0.4095
3414.00,0.4109
3413.00,0.4124
3412.00,0.4139
3411.00,0.4154
3410.00,0.4169
3409.00,0.4183
3408.00,0.4198
3407.00,0.4213
3406.00,0.4228
3405.00,0.4243
3404.00,0.4257
3403.00,0.4272
3402.00,0.4286
3401.00,0.4301
3400.00,0.4315
3399.00,0.4330
3398.00,0.4345
3397.00,0.4361
3396.00,0.4376
3395.00,0.4392
3394.00,0.4407
3393.00,0.4423
3392.00,0.4439
3391.00,0.4456
3390.00,0.4472
3389.00,0.4489
3388.00,0.4506
3387.00,0.4524
3386.00,0.4541
3385.00,0.4559
3384.00,0.4578
3383.00,0.4597
3382.00,0.4616
3381.00,0.4635
3380.00,0.4654
3379.00,0.4674
3378.00,0.4694
3377.00,0.4714
3376.00,0.4736
3375.00,0.4757
3374.00,0.4777
3373.00,0.4798
3372.00,0.4818
3371.00,0.4839
3370.00,0.4861
3369.00,0.4883
3368.00,0.4904
3367.00,0.4925
3366.00,0.4946
3365.00,0.4967
3364.00,0.4988
3363.00,0.5009
3362.00,0.5030
3361.00,0.5050
3360.00,0.5069
3359.00,0.5088
3358.00,0.5106
3357.00,0.5125
3356.00,0.5143
3355.00,0.5161
3354.00,0.5178
3353.00,0.5194
3352.00,0.5209
3351.00,0.5224
3350.00,0.5236
3349.00,0.5247
3348.00,0.5257
3347.00,0.5266
3346.00,0.5276
3345.00,0.5286
3344.00,0.5294
3343.00,0.5300
3342.00,0.5306
3341.00,0.5310
3340.00,0.5314
3339.00,0.5315
3338.00,0.5316
3337.00,0.5316
3336.00,0.5315
3335.00,0.5313
3334.00,0.5310
3333.00,0.5306
3332.00,0.5300
3331.00,0.5293
3330.00,0.5286
3329.00,0.5278
3328.00,0.5270
3327.00,0.5262
3326.00,0.5253
3325.00,0.5243
3324.00,0.5234
3323.00,0.5224
3322.00,0.5214
3321.00,0.5203
3320.00,0.5192
3319.00,0.5181
3318.00,0.5171
3317.00,0.5160
3316.00,0.5150
3315.00,0.5139
3314.00,0.5129
3313.00,0.5119
3312.00,0.5110
3311.00,0.5102
3310.00,0.5093
3309.00,0.5085
3308.00,0.5077
3307.00,0.5070
3306.00,0.5063
3305.00,0.5057
3304.00,0.5051
3303.00,0.5046
3302.00,0.5040
3301.00,0.5035
3300.00,0.5030
3299.00,0.5025
3298.00,0.5022
3297.00,0.5020
3296.00,0.5018
3295.00,0.5016
3294.00,0.5014
3293.00,0.5012
3292.00,0.5011
3291.00,0.5011
3290.00,0.5011
3289.00,0.5013
3288.00,0.5014
3287.00,0.5014
3286.00,0.5015
3285.00,0.5017
3284.00,0.5019
3283.00,0.5023
3282.00,0.5027
3281.00,0.5031
3280.00,0.5035
3279.00,0.5038
3278.00,0.5041
3277.00,0.5044
3276.00,0.5047
3275.00,0.5051
3274.00,0.5055
3273.00,0.5060
3272.00,0.5066
3271.00,0.5071
3270.00,0.5074
3269.00,0.5077
3268.00,0.5078
3267.00,0.5080
3266.00,0.5081
3265.00,0.5082
3264.00,0.5084
3263.00,0.5085
3262.00,0.5086
3261.00,0.5086
3260.00,0.5085
3259.00,0.5085
3258.00,0.5085
3257.00,0.5084
3256.00,0.5082
3255.00,0.5079
3254.00,0.5074
3253.00,0.5069
3252.00,0.5065
3251.00,0.5062
3250.00,0.5058
3249.00,0.5053
3248.00,0.5048
3247.00,0.5042
3246.00,0.5035
3245.00,0.5028
3244.00,0.5019
3243.00,0.5010
3242.00,0.5001
3241.00,0.4993
3240.00,0.4984
3239.00,0.4976
3238.00,0.4967
3237.00,0.4958
3236.00,0.4949
3235.00,0.4940
3234.00,0.4931
3233.00,0.4921
3232.00,0.4910
3231.00,0.4900
3230.00,0.4888
3229.00,0.4877
3228.00,0.4865
3227.00,0.4854
3226.00,0.4842
3225.00,0.4831
3224.00,0.4820
3223.00,0.4810
3222.00,0.4800
3221.00,0.4789
3220.00,0.4778
3219.00,0.4766
3218.00,0.4755
3217.00,0.4744
3216.00,0.4734
3215.00,0.4724
3214.00,0.4714
3213.00,0.4704
3212.00,0.4693
3211.00,0.4682
3210.00,0.4672
3209.00,0.4663
3208.00,0.4654
3207.00,0.4647
3206.00,0.4639
3205.00,0.4632
3204.00,0.4625
3203.00,0.4618
3202.00,0.4611
3201.00,0.4603
3200.00,0.4595
3199.00,0.4587
3198.00,0.4579
3197.00,0.4572
3196.00,0.4564
3195.00,0.4555
3194.00,0.4546
3193.00,0.4537
3192.00,0.4528
3191.00,0.4519
3190.00,0.4509
3189.00,0.4499
3188.00,0.4488
3187.00,0.4477
3186.00,0.4466
3185.00,0.4455
3184.00,0.4444
3183.00,0.4433
3182.00,0.4423
3181.00,0.4412
3180.00,0.4402
3179.00,0.4392
3178.00,0.4383
3177.00,0.4373
3176.00,0.4362
3175.00,0.4351
3174.00,0.4340
3173.00,0.4329
3172.00,0.4319
3171.00,0.4310
3170.00,0.4300
3169.00,0.4291
3168.00,0.4282
3167.00,0.4273
3166.00,0.4264
3165.00,0.4256
3164.00,0.4247
3163.00,0.4239
3162.00,0.4231
3161.00,0.4223
3160.00,0.4214
3159.00,0.4207
3158.00,0.4199
3157.00,0.4192
3156.00,0.4185
3155.00,0.4178
3154.00,0.4172
3153.00,0.4165
3152.00,0.4158
3151.00,0.4151
3150.00,0.4144
3149.00,0.4138
3148.00,0.4131
3147.00,0.4125
3146.00,0.4120
3145.00,0.4115
3144.00,0.4110
3143.00,0.4105
3142.00,0.4100
3141.00,0.4096
3140.00,0.4092
3139.00,0.4089
3138.00,0.4085
3137.00,0.4082
3136.00,0.4079
3135.00,0.4075
3134.00,0.4073
3133.00,0.4070
3132.00,0.4068
3131.00,0.4066
3130.00,0.4064
3129.00,0.4063
3128.00,0.4062
3127.00,0.4061
3126.00,0.4059
3125.00,0.4058
3124.00,0.4058
3123.00,0.4058
3122.00,0.4059
3121.00,0.4059
3120.00,0.4060
3119.00,0.4062
3118.00,0.4065
3117.00,0.4068
3116.00,0.4073
3115.00,0.4078
3114.00,0.4083
3113.00,0.4089
3112.00,0.4095
3111.00,0.4102
3110.00,0.4110
3109.00,0.4119
3108.00,0.4130
3107.00,0.4142
3106.00,0.4155
3105.00,0.4169
3104.00,0.4184
3103.00,0.4200
3102.00,0.4216
3101.00,0.4232
3100.00,0.4248
3099.00,0.4265
3098.00,0.4281
3097.00,0.4298
3096.00,0.4315
3095.00,0.4332
3094.00,0.4349
3093.00,0.4367
3092.00,0.4386
3091.00,0.4406
3090.00,0.4427
3089.00,0.4449
3088.00,0.4473
3087.00,0.4497
3086.00,0.4523
3085.00,0.4550
3084.00,0.4579
3083.00,0.4610
3082.00,0.4641
3081.00,0.4672
3080.00,0.4703
3079.00,0.4734
3078.00,0.4765
3077.00,0.4798
3076.00,0.4832
3075.00,0.4867
3074.00,0.4902
3073.00,0.4939
3072.00,0.4978
3071.00,0.5018
3070.00,0.5061
3069.00,0.5104
3068.00,0.5150
3067.00,0.5198
3066.00,0.5249
3065.00,0.5301
3064.00,0.5355
3063.00,0.5408
3062.00,0.5460
3061.00,0.5512
3060.00,0.5563
3059.00,0.5611
3058.00,0.5659
3057.00,0.5704
3056.00,0.5748
3055.00,0.5789
3054.00,0.5827
3053.00,0.5863
3052.00,0.5896
3051.00,0.5925
3050.00,0.5949
3049.00,0.5970
3048.00,0.5988
3047.00,0.6004
3046.00,0.6017
3045.00,0.6030
3044.00,0.6041
3043.00,0.6052
3042.00,0.6064
3041.00,0.6078
3040.00,0.6094
3039.00,0.6112
3038.00,0.6132
3037.00,0.6156
3036.00,0.6183
3035.00,0.6215
3034.00,0.6252
3033.00,0.6294
3032.00,0.6339
3031.00,0.6387
3030.00,0.6438
3029.00,0.6493
3028.00,0.6551
3027.00,0.6612
3026.00,0.6674
3025.00,0.6737
3024.00,0.6803
3023.00,0.6870
3022.00,0.6939
3021.00,0.7010
3020.00,0.7083
3019.00,0.7159
3018.00,0.7238
3017.00,0.7320
3016.00,0.7404
3015.00,0.7489
3014.00,0.7577
3013.00,0.7668
3012.00,0.7765
3011.00,0.7867
3010.00,0.7974
3009.00,0.8086
3008.00,0.8204
3007.00,0.8328
3006.00,0.8460
3005.00,0.8600
3004.00,0.8748
3003.00,0.8905
3002.00,0.9073
3001.00,0.9250
3000.00,0.9438
2999.00,0.9638
2998.00,0.9851
2997.00,1.0078
2996.00,1.0321
2995.00,1.0581
2994.00,1.0862
2993.00,1.1166
2992.00,1.1493
2991.00,1.1848
2990.00,1.2234
2989.00,1.2657
2988.00,1.3119
2987.00,1.3623
2986.00,1.4174
2985.00,1.4776
2984.00,1.5440
2983.00,1.6180
2982.00,1.7007
2981.00,1.7928
2980.00,1.8943
2979.00,2.0058
2978.00,2.1285
2977.00,2.2643
2976.00,2.4169
2975.00,2.5927
2974.00,2.7994
2973.00,3.0446
2972.00,3.3360
2971.00,3.7116
2970.00,4.2007
2969.00,4.5881
2968.00,4.5652
2967.00,4.4246
2966.00,4.3954
2965.00,4.2676
2964.00,4.1868
2963.00,4.1146
2962.00,4.0250
2961.00,3.9848
2960.00,4.0072
2959.00,4.0744
2958.00,4.0788
2957.00,4.0346
2956.00,4.0000
2955.00,4.0478
2954.00,4.1315
2953.00,4.1308
2952.00,4.0676
2951.00,3.9884
2950.00,3.9533
2949.00,3.9509
2948.00,4.0256
2947.00,4.3153
2946.00,4.6180
2945.00,4.3402
2944.00,4.1132
2943.00,4.0102
2942.00,3.9628
2941.00,3.9317
2940.00,4.0412
2939.00,4.3477
2938.00,4.4850
2937.00,4.3473
2936.00,4.2176
2935.00,4.2226
2934.00,4.2885
2933.00,4.3946
2932.00,4.5525
2931.00,4.4533
2930.00,4.2792
2929.00,4.1268
2928.00,4.1207
2927.00,4.3686
2926.00,4.5099
2925.00,4.2165
2924.00,4.0429
2923.00,4.1101
2922.00,4.2111
2921.00,4.1957
2920.00,4.1894
2919.00,4.1556
2918.00,4.0671
2917.00,4.0924
2916.00,4.4363
2915.00,4.5748
2914.00,4.1834
2913.00,3.9285
2912.00,3.8912
2911.00,3.9919
2910.00,4.1367
2909.00,4.2787
2908.00,4.1788
2907.00,4.0477
2906.00,4.0083
2905.00,4.1104
2904.00,4.2602
2903.00,4.2147
2902.00,4.0877
2901.00,3.9977
2900.00,4.0246
2899.00,4.2207
2898.00,4.4164
2897.00,4.2488
2896.00,4.0371
2895.00,3.9465
2894.00,3.9431
2893.00,3.9474
2892.00,4.0237
2891.00,4.2142
2890.00,4.4000
2889.00,4.4448
2888.00,4.3229
2887.00,4.2002
2886.00,4.1605
2885.00,4.2574
2884.00,4.3335
2883.00,4.1839
2882.00,4.0033
2881.00,3.9042
2880.00,3.8657
2879.00,3.8480
2878.00,3.8559
2877.00,3.9199
2876.00,4.0378
2875.00,4.0823
2874.00,4.0579
2873.00,4.0986
2872.00,4.2094
2871.00,4.2186
2870.00,4.1386
2869.00,4.0987
2868.00,4.0300
2867.00,3.9608
2866.00,3.9927
2865.00,4.1436
2864.00,4.2802
2863.00,4.2357
2862.00,4.1122
2861.00,3.9742
2860.00,3.8604
2859.00,3.8088
2858.00,3.8540
2857.00,3.9607
2856.00,4.0416
2855.00,4.0884
2854.00,4.0599
2853.00,3.9475
2852.00,3.8238
2851.00,3.7238
2850.00,3.6761
2849.00,3.7084
2848.00,3.8581
2847.00,4.1871
2846.00,4.6476
2845.00,4.9491
2844.00,4.8896
2843.00,4.5479
2842.00,4.2410
2841.00,3.8908
2840.00,3.6001
2839.00,3.3433
2838.00,3.1069
2837.00,2.8809
2836.00,2.6694
2835.00,2.4812
2834.00,2.3149
2833.00,2.1682
2832.00,2.0398
2831.00,1.9278
2830.00,1.8297
2829.00,1.7428
2828.00,1.6653
2827.00,1.5957
2826.00,1.5328
2825.00,1.4754
2824.00,1.4229
2823.00,1.3750
2822.00,1.3312
2821.00,1.2909
2820.00,1.2535
2819.00,1.2188
2818.00,1.1865
2817.00,1.1563
2816.00,1.1278
2815.00,1.1011
2814.00,1.0760
2813.00,1.0522
2812.00,1.0295
2811.00,1.0078
2810.00,0.9871
2809.00,0.9673
2808.00,0.9481
2807.00,0.9297
2806.00,0.9118
2805.00,0.8944
2804.00,0.8776
2803.00,0.8612
2802.00,0.8454
2801.00,0.8301
2800.00,0.8153
2799.00,0.8010
2798.00,0.7873
2797.00,0.7743
2796.00,0.7619
2795.00,0.7501
2794.00,0.7388
2793.00,0.7281
2792.00,0.7179
2791.00,0.7082
2790.00,0.6990
2789.00,0.6902
2788.00,0.6816
2787.00,0.6731
2786.00,0.6647
2785.00,0.6563
2784.00,0.6479
2783.00,0.6396
2782.00,0.6313
2781.00,0.6231
2780.00,0.6152
2779.00,0.6075
2778.00,0.6001
2777.00,0.5931
2776.00,0.5864
2775.00,0.5800
2774.00,0.5741
2773.00,0.5686
2772.00,0.5635
2771.00,0.5589
2770.00,0.5546
2769.00,0.5508
2768.00,0.5473
2767.00,0.5441
2766.00,0.5414
2765.00,0.5391
2764.00,0.5371
2763.00,0.5353
2762.00,0.5337
2761.00,0.5322
2760.00,0.5309
2759.00,0.5298
2758.00,0.5291
2757.00,0.5286
2756.00,0.5283
2755.00,0.5281
2754.00,0.5282
2753.00,0.5284
2752.00,0.5288
2751.00,0.5293
2750.00,0.5301
2749.00,0.5310
2748.00,0.5321
2747.00,0.5334
2746.00,0.5348
2745.00,0.5363
2744.00,0.5382
2743.00,0.5402
2742.00,0.5425
2741.00,0.5450
2740.00,0.5479
2739.00,0.5511
2738.00,0.5549
2737.00,0.5590
2736.00,0.5636
2735.00,0.5686
2734.00,0.5737
2733.00,0.5784
2732.00,0.5821
2731.00,0.5842
2730.00,0.5845
2729.00,0.5827
2728.00,0.5791
2727.00,0.5741
2726.00,0.5683
2725.00,0.5625
2724.00,0.5571
2723.00,0.5524
2722.00,0.5484
2721.00,0.5452
2720.00,0.5427
2719.00,0.5406
2718.00,0.5390
2717.00,0.5374
2716.00,0.5357
2715.00,0.5337
2714.00,0.5315
2713.00,0.5290
2712.00,0.5263
2711.00,0.5237
2710.00,0.5213
2709.00,0.5190
2708.00,0.5170
2707.00,0.5152
2706.00,0.5135
2705.00,0.5120
2704.00,0.5108
2703.00,0.5098
2702.00,0.5091
2701.00,0.5087
2700.00,0.5085
2699.00,0.5085
2698.00,0.5088
2697.00,0.5095
2696.00,0.5103
2695.00,0.5114
2694.00,0.5128
2693.00,0.5143
2692.00,0.5161
2691.00,0.5179
2690.00,0.5198
2689.00,0.5216
2688.00,0.5232
2687.00,0.5246
2686.00,0.5257
2685.00,0.5267
2684.00,0.5275
2683.00,0.5281
2682.00,0.5287
2681.00,0.5293
2680.00,0.5298
2679.00,0.5304
2678.00,0.5308
2677.00,0.5312
2676.00,0.5316
2675.00,0.5320
2674.00,0.5322
2673.00,0.5322
2672.00,0.5321
2671.00,0.5317
2670.00,0.5309
2669.00,0.5297
2668.00,0.5280
2667.00,0.5260
2666.00,0.5235
2665.00,0.5207
2664.00,0.5176
2663.00,0.5143
2662.00,0.5111
2661.00,0.5079
2660.00,0.5050
2659.00,0.5023
2658.00,0.4996
2657.00,0.4970
2656.00,0.4944
2655.00,0.4921
2654.00,0.4899
2653.00,0.4879
2652.00,0.4859
2651.00,0.4840
2650.00,0.4822
2649.00,0.4806
2648.00,0.4790
2647.00,0.4774
2646.00,0.4759
2645.00,0.4744
2644.00,0.4730
2643.00,0.4717
2642.00,0.4704
2641.00,0.4692
2640.00,0.4680
2639.00,0.4668
2638.00,0.4656
2637.00,0.4644
2636.00,0.4632
2635.00,0.4620
2634.00,0.4608
2633.00,0.4596
2632.00,0.4584
2631.00,0.4571
2630.00,0.4557
2629.00,0.4543
2628.00,0.4529
2627.00,0.4516
2626.00,0.4503
2625.00,0.4490
2624.00,0.4478
2623.00,0.4466
2622.00,0.4455
2621.00,0.4444
2620.00,0.4433
2619.00,0.4423
2618.00,0.4413
2617.00,0.4403
2616.00,0.4394
2615.00,0.4385
2614.00,0.4376
2613.00,0.4367
2612.00,0.4359
2611.00,0.4350
2610.00,0.4342
2609.00,0.4334
2608.00,0.4325
2607.00,0.4316
2606.00,0.4307
2605.00,0.4297
2604.00,0.4288
2603.00,0.4278
2602.00,0.4268
2601.00,0.4258
2600.00,0.4247
2599.00,0.4236
2598.00,0.4224
2597.00,0.4211
2596.00,0.4199
2595.00,0.4186
2594.00,0.4174
2593.00,0.4162
2592.00,0.4150
2591.00,0.4138
2590.00,0.4126
2589.00,0.4114
2588.00,0.4102
2587.00,0.4090
2586.00,0.4078
2585.00,0.4066
2584.00,0.4053
2583.00,0.4041
2582.00,0.4027
2581.00,0.4013
2580.00,0.3999
2579.00,0.3984
2578.00,0.3970
2577.00,0.3956
2576.00,0.3942
2575.00,0.3927
2574.00,0.3913
2573.00,0.3899
2572.00,0.3886
2571.00,0.3872
2570.00,0.3859
2569.00,0.3846
2568.00,0.3833
2567.00,0.3821
2566.00,0.3808
2565.00,0.3795
2564.00,0.3782
2563.00,0.3769
2562.00,0.3756
2561.00,0.3743
2560.00,0.3730
2559.00,0.3719
2558.00,0.3707
2557.00,0.3696
2556.00,0.3685
2555.00,0.3675
2554.00,0.3665
2553.00,0.3656
2552.00,0.3648
2551.00,0.3641
2550.00,0.3633
2549.00,0.3626
2548.00,0.3620
2547.00,0.3614
2546.00,0.3608
2545.00,0.3604
2544.00,0.3599
2543.00,0.3595
2542.00,0.3591
2541.00,0.3586
2540.00,0.3582
2539.00,0.3578
2538.00,0.3574
2537.00,0.3570
2536.00,0.3566
2535.00,0.3560
2534.00,0.3554
2533.00,0.3545
2532.00,0.3536
2531.00,0.3525
2530.00,0.3514
2529.00,0.3503
2528.00,0.3490
2527.00,0.3477
2526.00,0.3464
2525.00,0.3451
2524.00,0.3438
2523.00,0.3424
2522.00,0.3411
2521.00,0.3398
2520.00,0.3386
2519.00,0.3374
2518.00,0.3362
2517.00,0.3351
2516.00,0.3340
2515.00,0.3329
2514.00,0.3319
2513.00,0.3309
2512.00,0.3299
2511.00,0.3290
2510.00,0.3280
2509.00,0.3272
2508.00,0.3264
2507.00,0.3256
2506.00,0.3250
2505.00,0.3245
2504.00,0.3240
2503.00,0.3234
2502.00,0.3229
2501.00,0.3224
2500.00,0.3220
2499.00,0.3216
2498.00,0.3212
2497.00,0.3207
2496.00,0.3203
2495.00,0.3198
2494.00,0.3193
2493.00,0.3188
2492.00,0.3183
2491.00,0.3178
2490.00,0.3173
2489.00,0.3168
2488.00,0.3162
2487.00,0.3156
2486.00,0.3150
2485.00,0.3145
2484.00,0.3140
2483.00,0.3135
2482.00,0.3131
2481.00,0.3127
2480.00,0.3122
2479.00,0.3117
2478.00,0.3111
2477.00,0.3106
2476.00,0.3102
2475.00,0.3098
2474.00,0.3093
2473.00,0.3089
2472.00,0.3084
2471.00,0.3081
2470.00,0.3078
2469.00,0.3076
2468.00,0.3074
2467.00,0.3072
2466.00,0.3070
2465.00,0.3068
2464.00,0.3066
2463.00,0.3064
2462.00,0.3062
2461.00,0.3061
2460.00,0.3060
2459.00,0.3059
2458.00,0.3058
2457.00,0.3057
2456.00,0.3057
2455.00,0.3056
2454.00,0.3056
2453.00,0.3056
2452.00,0.3056
2451.00,0.3056
2450.00,0.3056
2449.00,0.3055
2448.00,0.3055
2447.00,0.3055
2446.00,0.3055
2445.00,0.3055
2444.00,0.3056
2443.00,0.3057
2442.00,0.3058
2441.00,0.3058
2440.00,0.3059
2439.00,0.3059
2438.00,0.3061
2437.00,0.3062
2436.00,0.3064
2435.00,0.3064
2434.00,0.3065
2433.00,0.3065
2432.00,0.3066
2431.00,0.3067
2430.00,0.3069
2429.00,0.3071
2428.00,0.3072
2427.00,0.3074
2426.00,0.3076
2425.00,0.3077
2424.00,0.3079
2423.00,0.3080
2422.00,0.3081
2421.00,0.3083
2420.00,0.3083
2419.00,0.3084
2418.00,0.3085
2417.00,0.3085
2416.00,0.3086
2415.00,0.3086
2414.00,0.3087
2413.00,0.3086
2412.00,0.3086
2411.00,0.3085
2410.00,0.3084
2409.00,0.3084
2408.00,0.3083
2407.00,0.3082
2406.00,0.3082
2405.00,0.3082
2404.00,0.3082
2403.00,0.3082
2402.00,0.3083
2401.00,0.3083
2400.00,0.3084
2399.00,0.3084
2398.00,0.3084
2397.00,0.3084
2396.00,0.3085
2395.00,0.3086
2394.00,0.3087
2393.00,0.3089
2392.00,0.3091
2391.00,0.3093
2390.00,0.3094
2389.00,0.3096
2388.00,0.3098
2387.00,0.3099
2386.00,0.3102
2385.00,0.3105
2384.00,0.3108
2383.00,0.3112
2382.00,0.3116
2381.00,0.3120
2380.00,0.3124
2379.00,0.3128
2378.00,0.3131
2377.00,0.3134
2376.00,0.3135
2375.00,0.3135
2374.00,0.3135
2373.00,0.3134
2372.00,0.3135
2371.00,0.3135
2370.00,0.3136
2369.00,0.3137
2368.00,0.3138
2367.00,0.3139
2366.00,0.3140
2365.00,0.3141
2364.00,0.3143
2363.00,0.3145
2362.00,0.3147
2361.00,0.3148
2360.00,0.3149
2359.00,0.3149
2358.00,0.3149
2357.00,0.3150
2356.00,0.3150
2355.00,0.3150
2354.00,0.3151
2353.00,0.3152
2352.00,0.3152
2351.00,0.3152
2350.00,0.3152
2349.00,0.3151
2348.00,0.3151
2347.00,0.3153
2346.00,0.3154
2345.00,0.3154
2344.00,0.3152
2343.00,0.3150
2342.00,0.3148
2341.00,0.3147
2340.00,0.3147
2339.00,0.3146
2338.00,0.3146
2337.00,0.3145
2336.00,0.3144
2335.00,0.3143
2334.00,0.3142
2333.00,0.3141
2332.00,0.3141
2331.00,0.3140
2330.00,0.3137
2329.00,0.3134
2328.00,0.3131
2327.00,0.3127
2326.00,0.3125
2325.00,0.3123
2324.00,0.3121
2323.00,0.3119
2322.00,0.3115
2321.00,0.3111
2320.00,0.3106
2319.00,0.3101
2318.00,0.3096
2317.00,0.3093
2316.00,0.3090
2315.00,0.3087
2314.00,0.3084
2313.00,0.3081
2312.00,0.3078
2311.00,0.3074
2310.00,0.3069
2309.00,0.3064
2308.00,0.3059
2307.00,0.3054
2306.00,0.3049
2305.00,0.3044
2304.00,0.3040
2303.00,0.3035
2302.00,0.3031
2301.00,0.3027
2300.00,0.3023
2299.00,0.3018
2298.00,0.3014
2297.00,0.3010
2296.00,0.3006
2295.00,0.3002
2294.00,0.2998
2293.00,0.2994
2292.00,0.2991
2291.00,0.2987
2290.00,0.2983
2289.00,0.2978
2288.00,0.2974
2287.00,0.2969
2286.00,0.2964
2285.00,0.2960
2284.00,0.2955
2283.00,0.2950
2282.00,0.2946
2281.00,0.2942
2280.00,0.2938
2279.00,0.2935
2278.00,0.2933
2277.00,0.2930
2276.00,0.2928
2275.00,0.2926
2274.00,0.2925
2273.00,0.2923
2272.00,0.2922
2271.00,0.2922
2270.00,0.2922
2269.00,0.2922
2268.00,0.2922
2267.00,0.2922
2266.00,0.2922
2265.00,0.2922
2264.00,0.2922
2263.00,0.2921
2262.00,0.2919
2261.00,0.2918
2260.00,0.2916
2259.00,0.2914
2258.00,0.2913
2257.00,0.2911
2256.00,0.2908
2255.00,0.2906
2254.00,0.2903
2253.00,0.2899
2252.00,0.2895
2251.00,0.2891
2250.00,0.2887
2249.00,0.2884
2248.00,0.2880
2247.00,0.2876
2246.00,0.2873
2245.00,0.2870
2244.00,0.2866
2243.00,0.2863
2242.00,0.2860
2241.00,0.2858
2240.00,0.2855
2239.00,0.2853
2238.00,0.2850
2237.00,0.2848
2236.00,0.2846
2235.00,0.2845
2234.00,0.2844
2233.00,0.2843
2232.00,0.2843
2231.00,0.2842
2230.00,0.2842
2229.00,0.2843
2228.00,0.2843
2227.00,0.2843
2226.00,0.2842
2225.00,0.2842
2224.00,0.2842
2223.00,0.2842
2222.00,0.2842
2221.00,0.2842
2220.00,0.2841
2219.00,0.2840
2218.00,0.2839
2217.00,0.2838
2216.00,0.2838
2215.00,0.2837
2214.00,0.2837
2213.00,0.2836
2212.00,0.2834
2211.00,0.2833
2210.00,0.2831
2209.00,0.2829
2208.00,0.2829
2207.00,0.2828
2206.00,0.2828
2205.00,0.2828
2204.00,0.2828
2203.00,0.2827
2202.00,0.2827
2201.00,0.2828
2200.00,0.2829
2199.00,0.2829
2198.00,0.2830
2197.00,0.2831
2196.00,0.2832
2195.00,0.2834
2194.00,0.2835
2193.00,0.2838
2192.00,0.2840
2191.00,0.2843
2190.00,0.2845
2189.00,0.2847
2188.00,0.2849
2187.00,0.2851
2186.00,0.2853
2185.00,0.2854
2184.00,0.2855
2183.00,0.2856
2182.00,0.2857
2181.00,0.2858
2180.00,0.2858
2179.00,0.2858
2178.00,0.2858
2177.00,0.2858
2176.00,0.2857
2175.00,0.2857
2174.00,0.2856
2173.00,0.2855
2172.00,0.2854
2171.00,0.2853
2170.00,0.2853
2169.00,0.2853
2168.00,0.2852
2167.00,0.2851
2166.00,0.2850
2165.00,0.2849
2164.00,0.2850
2163.00,0.2850
2162.00,0.2850
2161.00,0.2851
2160.00,0.2851
2159.00,0.2851
2158.00,0.2852
2157.00,0.2852
2156.00,0.2852
2155.00,0.2853
2154.00,0.2853
2153.00,0.2852
2152.00,0.2852
2151.00,0.2851
2150.00,0.2850
2149.00,0.2848
2148.00,0.2845
2147.00,0.2841
2146.00,0.2835
2145.00,0.2830
2144.00,0.2824
2143.00,0.2817
2142.00,0.2811
2141.00,0.2805
2140.00,0.2799
2139.00,0.2793
2138.00,0.2786
2137.00,0.2780
2136.00,0.2775
2135.00,0.2770
2134.00,0.2766
2133.00,0.2762
2132.00,0.2759
2131.00,0.2756
2130.00,0.2753
2129.00,0.2750
2128.00,0.2748
2127.00,0.2745
2126.00,0.2743
2125.00,0.2742
2124.00,0.2741
2123.00,0.2740
2122.00,0.2738
2121.00,0.2737
2120.00,0.2736
2119.00,0.2736
2118.00,0.2735
2117.00,0.2734
2116.00,0.2733
2115.00,0.2732
2114.00,0.2732
2113.00,0.2731
2112.00,0.2731
2111.00,0.2730
2110.00,0.2730
2109.00,0.2729
2108.00,0.2728
2107.00,0.2728
2106.00,0.2728
2105.00,0.2728
2104.00,0.2729
2103.00,0.2728
2102.00,0.2728
2101.00,0.2727
2100.00,0.2726
2099.00,0.2726
2098.00,0.2725
2097.00,0.2724
2096.00,0.2723
2095.00,0.2722
2094.00,0.2721
2093.00,0.2720
2092.00,0.2720
2091.00,0.2718
2090.00,0.2717
2089.00,0.2716
2088.00,0.2715
2087.00,0.2715
2086.00,0.2714
2085.00,0.2714
2084.00,0.2714
2083.00,0.2713
2082.00,0.2713
2081.00,0.2713
2080.00,0.2714
2079.00,0.2715
2078.00,0.2716
2077.00,0.2717
2076.00,0.2718
2075.00,0.2720
2074.00,0.2721
2073.00,0.2722
2072.00,0.2723
2071.00,0.2725
2070.00,0.2726
2069.00,0.2728
2068.00,0.2731
2067.00,0.2733
2066.00,0.2735
2065.00,0.2737
2064.00,0.2739
2063.00,0.2741
2062.00,0.2742
2061.00,0.2744
2060.00,0.2746
2059.00,0.2748
2058.00,0.2751
2057.00,0.2754
2056.00,0.2758
2055.00,0.2761
2054.00,0.2764
2053.00,0.2768
2052.00,0.2771
2051.00,0.2775
2050.00,0.2779
2049.00,0.2784
2048.00,0.2788
2047.00,0.2793
2046.00,0.2797
2045.00,0.2800
2044.00,0.2804
2043.00,0.2806
2042.00,0.2809
2041.00,0.2811
2040.00,0.2812
2039.00,0.2813
2038.00,0.2814
2037.00,0.2815
2036.00,0.2817
2035.00,0.2819
2034.00,0.2821
2033.00,0.2824
2032.00,0.2826
2031.00,0.2829
2030.00,0.2832
2029.00,0.2835
2028.00,0.2839
2027.00,0.2842
2026.00,0.2844
2025.00,0.2845
2024.00,0.2845
2023.00,0.2843
2022.00,0.2839
2021.00,0.2833
2020.00,0.2825
2019.00,0.2816
2018.00,0.2805
2017.00,0.2794
2016.00,0.2782
2015.00,0.2769
2014.00,0.2758
2013.00,0.2747
2012.00,0.2736
2011.00,0.2727
2010.00,0.2718
2009.00,0.2710
2008.00,0.2703
2007.00,0.2696
2006.00,0.2690
2005.00,0.2685
2004.00,0.2681
2003.00,0.2677
2002.00,0.2674
2001.00,0.2671
2000.00,0.2669
1999.00,0.2667
1998.00,0.2665
1997.00,0.2664
1996.00,0.2662
1995.00,0.2661
1994.00,0.2660
1993.00,0.2660
1992.00,0.2659
1991.00,0.2658
1990.00,0.2658
1989.00,0.2657
1988.00,0.2657
1987.00,0.2656
1986.00,0.2654
1985.00,0.2654
1984.00,0.2653
1983.00,0.2653
1982.00,0.2652
1981.00,0.2652
1980.00,0.2652
1979.00,0.2651
1978.00,0.2649
1977.00,0.2649
1976.00,0.2648
1975.00,0.2647
1974.00,0.2646
1973.00,0.2645
1972.00,0.2645
1971.00,0.2644
1970.00,0.2644
1969.00,0.2644
1968.00,0.2643
1967.00,0.2643
1966.00,0.2642
1965.00,0.2641
1964.00,0.2641
1963.00,0.2641
1962.00,0.2641
1961.00,0.2642
1960.00,0.2643
1959.00,0.2644
1958.00,0.2645
1957.00,0.2646
1956.00,0.2647
1955.00,0.2649
1954.00,0.2650
1953.00,0.2653
1952.00,0.2655
1951.00,0.2657
1950.00,0.2659
1949.00,0.2663
1948.00,0.2667
1947.00,0.2672
1946.00,0.2678
1945.00,0.2686
1944.00,0.2695
1943.00,0.2705
1942.00,0.2714
1941.00,0.2722
1940.00,0.2727
1939.00,0.2729
1938.00,0.2729
1937.00,0.2726
1936.00,0.2722
1935.00,0.2718
1934.00,0.2714
1933.00,0.2711
1932.00,0.2709
1931.00,0.2708
1930.00,0.2708
1929.00,0.2710
1928.00,0.2712
1927.00,0.2715
1926.00,0.2718
1925.00,0.2721
1924.00,0.2724
1923.00,0.2725
1922.00,0.2726
1921.00,0.2728
1920.00,0.2732
1919.00,0.2737
1918.00,0.2744
1917.00,0.2751
1916.00,0.2758
1915.00,0.2764
1914.00,0.2768
1913.00,0.2770
1912.00,0.2770
1911.00,0.2767
1910.00,0.2764
1909.00,0.2759
1908.00,0.2755
1907.00,0.2751
1906.00,0.2748
1905.00,0.2745
1904.00,0.2744
1903.00,0.2743
1902.00,0.2742
1901.00,0.2740
1900.00,0.2736
1899.00,0.2732
1898.00,0.2727
1897.00,0.2723
1896.00,0.2719
1895.00,0.2716
1894.00,0.2713
1893.00,0.2711
1892.00,0.2709
1891.00,0.2708
1890.00,0.2708
1889.00,0.2707
1888.00,0.2706
1887.00,0.2704
1886.00,0.2702
1885.00,0.2700
1884.00,0.2698
1883.00,0.2696
1882.00,0.2695
1881.00,0.2695
1880.00,0.2695
1879.00,0.2695
1878.00,0.2695
1877.00,0.2695
1876.00,0.2696
1875.00,0.2696
1874.00,0.2696
1873.00,0.2695
1872.00,0.2696
1871.00,0.2696
1870.00,0.2698
1869.00,0.2699
1868.00,0.2701
1867.00,0.2703
1866.00,0.2705
1865.00,0.2708
1864.00,0.2710
1863.00,0.2711
1862.00,0.2711
1861.00,0.2711
1860.00,0.2709
1859.00,0.2705
1858.00,0.2701
1857.00,0.2698
1856.00,0.2694
1855.00,0.2690
1854.00,0.2687
1853.00,0.2683
1852.00,0.2681
1851.00,0.2680
1850.00,0.2678
1849.00,0.2677
1848.00,0.2676
1847.00,0.2675
1846.00,0.2675
1845.00,0.2676
1844.00,0.2675
1843.00,0.2673
1842.00,0.2670
1841.00,0.2668
1840.00,0.2667
1839.00,0.2666
1838.00,0.2665
1837.00,0.2665
1836.00,0.2666
1835.00,0.2666
1834.00,0.2665
1833.00,0.2665
1832.00,0.2666
1831.00,0.2668
1830.00,0.2671
1829.00,0.2674
1828.00,0.2678
1827.00,0.2681
1826.00,0.2684
1825.00,0.2687
1824.00,0.2689
1823.00,0.2690
1822.00,0.2691
1821.00,0.2691
1820.00,0.2690
1819.00,0.2689
1818.00,0.2687
1817.00,0.2685
1816.00,0.2684
1815.00,0.2682
1814.00,0.2682
1813.00,0.2682
1812.00,0.2683
1811.00,0.2685
1810.00,0.2686
1809.00,0.2689
1808.00,0.2692
1807.00,0.2694
1806.00,0.2697
1805.00,0.2701
1804.00,0.2707
1803.00,0.2712
1802.00,0.2718
1801.00,0.2723
1800.00,0.2728
1799.00,0.2733
1798.00,0.2736
1797.00,0.2739
1796.00,0.2740
1795.00,0.2742
1794.00,0.2743
1793.00,0.2745
1792.00,0.2748
1791.00,0.2749
1790.00,0.2751
1789.00,0.2753
1788.00,0.2757
1787.00,0.2762
1786.00,0.2766
1785.00,0.2770
1784.00,0.2773
1783.00,0.2776
1782.00,0.2780
1781.00,0.2785
1780.00,0.2790
1779.00,0.2794
1778.00,0.2797
1777.00,0.2801
1776.00,0.2804
1775.00,0.2807
1774.00,0.2810
1773.00,0.2814
1772.00,0.2819
1771.00,0.2825
1770.00,0.2830
1769.00,0.2834
1768.00,0.2837
1767.00,0.2838
1766.00,0.2839
1765.00,0.2843
1764.00,0.2849
1763.00,0.2856
1762.00,0.2865
1761.00,0.2876
1760.00,0.2888
1759.00,0.2900
1758.00,0.2913
1757.00,0.2927
1756.00,0.2942
1755.00,0.2959
1754.00,0.2977
1753.00,0.3000
1752.00,0.3023
1751.00,0.3046
1750.00,0.3069
1749.00,0.3091
1748.00,0.3111
1747.00,0.3129
1746.00,0.3142
1745.00,0.3152
1744.00,0.3158
1743.00,0.3160
1742.00,0.3159
1741.00,0.3157
1740.00,0.3152
1739.00,0.3143
1738.00,0.3131
1737.00,0.3120
1736.00,0.3108
1735.00,0.3092
1734.00,0.3072
1733.00,0.3052
1732.00,0.3036
1731.00,0.3022
1730.00,0.3011
1729.00,0.3002
1728.00,0.2995
1727.00,0.2989
1726.00,0.2985
1725.00,0.2983
1724.00,0.2981
1723.00,0.2979
1722.00,0.2976
1721.00,0.2975
1720.00,0.2976
1719.00,0.2979
1718.00,0.2983
1717.00,0.2989
1716.00,0.2996
1715.00,0.3004
1714.00,0.3012
1713.00,0.3022
1712.00,0.3032
1711.00,0.3041
1710.00,0.3051
1709.00,0.3062
1708.00,0.3073
1707.00,0.3084
1706.00,0.3094
1705.00,0.3102
1704.00,0.3106
1703.00,0.3109
1702.00,0.3109
1701.00,0.3103
1700.00,0.3092
1699.00,0.3082
1698.00,0.3078
1697.00,0.3079
1696.00,0.3080
1695.00,0.3077
1694.00,0.3072
1693.00,0.3070
1692.00,0.3070
1691.00,0.3071
1690.00,0.3072
1689.00,0.3072
1688.00,0.3073
1687.00,0.3074
1686.00,0.3075
1685.00,0.3075
1684.00,0.3077
1683.00,0.3079
1682.00,0.3080
1681.00,0.3083
1680.00,0.3086
1679.00,0.3088
1678.00,0.3092
1677.00,0.3099
1676.00,0.3106
1675.00,0.3111
1674.00,0.3114
1673.00,0.3118
1672.00,0.3123
1671.00,0.3129
1670.00,0.3135
1669.00,0.3143
1668.00,0.3150
1667.00,0.3155
1666.00,0.3158
1665.00,0.3162
1664.00,0.3167
1663.00,0.3173
1662.00,0.3179
1661.00,0.3185
1660.00,0.3190
1659.00,0.3195
1658.00,0.3198
1657.00,0.3203
1656.00,0.3210
1655.00,0.3220
1654.00,0.3235
1653.00,0.3255
1652.00,0.3270
1651.00,0.3278
1650.00,0.3284
1649.00,0.3296
1648.00,0.3314
1647.00,0.3337
1646.00,0.3362
1645.00,0.3387
1644.00,0.3411
1643.00,0.3434
1642.00,0.3461
1641.00,0.3491
1640.00,0.3526
1639.00,0.3564
1638.00,0.3606
1637.00,0.3656
1636.00,0.3712
1635.00,0.3765
1634.00,0.3808
1633.00,0.3843
1632.00,0.3874
1631.00,0.3902
1630.00,0.3929
1629.00,0.3958
1628.00,0.3985
1627.00,0.4011
1626.00,0.4036
1625.00,0.4066
1624.00,0.4104
1623.00,0.4148
1622.00,0.4196
1621.00,0.4250
1620.00,0.4309
1619.00,0.4376
1618.00,0.4460
1617.00,0.4566
1616.00,0.4690
1615.00,0.4816
1614.00,0.4945
1613.00,0.5090
1612.00,0.5255
1611.00,0.5436
1610.00,0.5623
1609.00,0.5811
1608.00,0.5996
1607.00,0.6173
1606.00,0.6352
1605.00,0.6554
1604.00,0.6794
1603.00,0.7074
1602.00,0.7388
1601.00,0.7730
1600.00,0.8083
1599.00,0.8427
1598.00,0.8760
1597.00,0.9115
1596.00,0.9525
1595.00,1.0014
1594.00,1.0606
1593.00,1.1350
1592.00,1.2292
1591.00,1.3452
1590.00,1.4852
1589.00,1.6572
1588.00,1.8722
1587.00,2.1316
1586.00,2.4237
1585.00,2.7695
1584.00,3.2812
1583.00,3.7364
1582.00,3.5438
1581.00,3.4527
1580.00,3.4954
1579.00,3.4830
1578.00,3.4226
1577.00,3.3351
1576.00,3.2418
1575.00,2.8890
1574.00,2.5262
1573.00,2.2796
1572.00,2.1016
1571.00,1.9572
1570.00,1.8525
1569.00,1.8071
1568.00,1.8244
1567.00,1.8920
1566.00,2.0033
1565.00,2.1710
1564.00,2.4098
1563.00,2.6764
1562.00,2.8167
1561.00,2.7627
1560.00,2.5158
1559.00,2.1496
1558.00,1.8432
1557.00,1.6255
1556.00,1.4522
1555.00,1.2954
1554.00,1.1577
1553.00,1.0479
1552.00,0.9631
1551.00,0.8937
1550.00,0.8345
1549.00,0.7858
1548.00,0.7475
1547.00,0.7166
1546.00,0.6900
1545.00,0.6666
1544.00,0.6459
1543.00,0.6271
1542.00,0.6093
1541.00,0.5926
1540.00,0.5773
1539.00,0.5640
1538.00,0.5536
1537.00,0.5466
1536.00,0.5423
1535.00,0.5396
1534.00,0.5388
1533.00,0.5411
1532.00,0.5465
1531.00,0.5543
1530.00,0.5641
1529.00,0.5755
1528.00,0.5876
1527.00,0.5990
1526.00,0.6091
1525.00,0.6185
1524.00,0.6286
1523.00,0.6410
1522.00,0.6577
1521.00,0.6785
1520.00,0.6999
1519.00,0.7183
1518.00,0.7328
1517.00,0.7426
1516.00,0.7457
1515.00,0.7409
1514.00,0.7296
1513.00,0.7143
1512.00,0.6972
1511.00,0.6805
1510.00,0.6659
1509.00,0.6534
1508.00,0.6416
1507.00,0.6294
1506.00,0.6183
1505.00,0.6110
1504.00,0.6079
1503.00,0.6077
1502.00,0.6093
1501.00,0.6118
1500.00,0.6146
1499.00,0.6167
1498.00,0.6182
1497.00,0.6200
1496.00,0.6228
1495.00,0.6264
1494.00,0.6312
1493.00,0.6381
1492.00,0.6471
1491.00,0.6578
1490.00,0.6701
1489.00,0.6844
1488.00,0.7008
1487.00,0.7189
1486.00,0.7388
1485.00,0.7610
1484.00,0.7853
1483.00,0.8114
1482.00,0.8404
1481.00,0.8737
1480.00,0.9115
1479.00,0.9548
1478.00,1.0069
1477.00,1.0728
1476.00,1.1557
1475.00,1.2595
1474.00,1.3950
1473.00,1.5817
1472.00,1.8364
1471.00,2.1601
1470.00,2.5434
1469.00,2.9968
1468.00,3.5512
1467.00,3.9454
1466.00,3.9034
1465.00,4.0384
1464.00,4.3524
1463.00,4.0957
1462.00,3.9548
1461.00,3.9444
1460.00,4.0307
1459.00,3.9146
1458.00,3.8037
1457.00,4.0443
1456.00,4.0083
1455.00,4.1545
1454.00,4.5575
1453.00,4.1250
1452.00,4.3162
1451.00,4.2344
1450.00,3.7485
1449.00,3.7364
1448.00,3.7692
1447.00,3.5882
1446.00,3.4375
1445.00,3.3785
1444.00,3.3020
1443.00,3.1470
1442.00,3.0128
1441.00,2.9333
1440.00,2.8674
1439.00,2.7859
1438.00,2.7054
1437.00,2.6224
1436.00,2.4959
1435.00,2.3240
1434.00,2.1404
1433.00,1.9591
1432.00,1.7830
1431.00,1.6206
1430.00,1.4800
1429.00,1.3638
1428.00,1.2706
1427.00,1.1977
1426.00,1.1418
1425.00,1.1004
1424.00,1.0728
1423.00,1.0587
1422.00,1.0561
1421.00,1.0622
1420.00,1.0740
1419.00,1.0891
1418.00,1.1076
1417.00,1.1333
1416.00,1.1713
1415.00,1.2210
1414.00,1.2704
1413.00,1.2953
1412.00,1.2753
1411.00,1.2155
1410.00,1.1409
1409.00,1.0717
1408.00,1.0147
1407.00,0.9687
1406.00,0.9295
1405.00,0.8936
1404.00,0.8599
1403.00,0.8292
1402.00,0.8021
1401.00,0.7784
1400.00,0.7579
1399.00,0.7413
1398.00,0.7291
1397.00,0.7202
1396.00,0.7130
1395.00,0.7060
1394.00,0.6985
1393.00,0.6913
1392.00,0.6860
1391.00,0.6842
1390.00,0.6875
1389.00,0.6974
1388.00,0.7161
1387.00,0.7450
1386.00,0.7850
1385.00,0.8372
1384.00,0.9059
1383.00,0.9971
1382.00,1.1162
1381.00,1.2648
1380.00,1.4367
1379.00,1.6028
1378.00,1.6978
1377.00,1.6726
1376.00,1.5648
1375.00,1.4387
1374.00,1.3293
1373.00,1.2485
1372.00,1.1949
1371.00,1.1608
1370.00,1.1374
1369.00,1.1182
1368.00,1.0995
1367.00,1.0793
1366.00,1.0564
1365.00,1.0303
1364.00,1.0008
1363.00,0.9694
1362.00,0.9389
1361.00,0.9120
1360.00,0.8898
1359.00,0.8724
1358.00,0.8593
1357.00,0.8501
1356.00,0.8446
1355.00,0.8417
1354.00,0.8404
1353.00,0.8392
1352.00,0.8370
1351.00,0.8331
1350.00,0.8276
1349.00,0.8215
1348.00,0.8166
1347.00,0.8144
1346.00,0.8163
1345.00,0.8226
1344.00,0.8321
1343.00,0.8426
1342.00,0.8505
1341.00,0.8523
1340.00,0.8453
1339.00,0.8293
1338.00,0.8061
1337.00,0.7783
1336.00,0.7492
1335.00,0.7212
1334.00,0.6963
1333.00,0.6754
1332.00,0.6589
1331.00,0.6471
1330.00,0.6406
1329.00,0.6403
1328.00,0.6480
1327.00,0.6658
1326.00,0.6940
1325.00,0.7276
1324.00,0.7549
1323.00,0.7633
1322.00,0.7503
1321.00,0.7257
1320.00,0.7017
1319.00,0.6851
1318.00,0.6769
1317.00,0.6752
1316.00,0.6780
1315.00,0.6839
1314.00,0.6920
1313.00,0.7017
1312.00,0.7125
1311.00,0.7237
1310.00,0.7346
1309.00,0.7448
1308.00,0.7551
1307.00,0.7668
1306.00,0.7815
1305.00,0.7993
1304.00,0.8167
1303.00,0.8272
1302.00,0.8260
1301.00,0.8149
1300.00,0.8014
1299.00,0.7924
1298.00,0.7898
1297.00,0.7895
1296.00,0.7845
1295.00,0.7703
1294.00,0.7482
1293.00,0.7238
1292.00,0.7022
1291.00,0.6851
1290.00,0.6719
1289.00,0.6610
1288.00,0.6512
1287.00,0.6417
1286.00,0.6319
1285.00,0.6214
1284.00,0.6104
1283.00,0.5996
1282.00,0.5893
1281.00,0.5803
1280.00,0.5731
1279.00,0.5676
1278.00,0.5636
1277.00,0.5607
1276.00,0.5590
1275.00,0.5587
1274.00,0.5599
1273.00,0.5625
1272.00,0.5666
1271.00,0.5714
1270.00,0.5755
1269.00,0.5772
1268.00,0.5756
1267.00,0.5707
1266.00,0.5635
1265.00,0.5558
1264.00,0.5489
1263.00,0.5436
1262.00,0.5401
1261.00,0.5379
1260.00,0.5371
1259.00,0.5371
1258.00,0.5376
1257.00,0.5376
1256.00,0.5368
1255.00,0.5350
1254.00,0.5322
1253.00,0.5286
1252.00,0.5245
1251.00,0.5201
1250.00,0.5154
1249.00,0.5107
1248.00,0.5064
1247.00,0.5028
1246.00,0.4998
1245.00,0.4969
1244.00,0.4941
1243.00,0.4909
1242.00,0.4871
1241.00,0.4827
1240.00,0.4780
1239.00,0.4736
1238.00,0.4698
1237.00,0.4665
1236.00,0.4639
1235.00,0.4622
1234.00,0.4615
1233.00,0.4620
1232.00,0.4637
1231.00,0.4667
1230.00,0.4705
1229.00,0.4744
1228.00,0.4778
1227.00,0.4807
1226.00,0.4833
1225.00,0.4859
1224.00,0.4889
1223.00,0.4927
1222.00,0.4970
1221.00,0.5005
1220.00,0.5012
1219.00,0.4978
1218.00,0.4909
1217.00,0.4826
1216.00,0.4756
1215.00,0.4708
1214.00,0.4677
1213.00,0.4650
1212.00,0.4617
1211.00,0.4579
1210.00,0.4541
1209.00,0.4509
1208.00,0.4488
1207.00,0.4481
1206.00,0.4484
1205.00,0.4487
1204.00,0.4485
1203.00,0.4477
1202.00,0.4465
1201.00,0.4458
1200.00,0.4462
1199.00,0.4480
1198.00,0.4512
1197.00,0.4552
1196.00,0.4599
1195.00,0.4651
1194.00,0.4709
1193.00,0.4771
1192.00,0.4830
1191.00,0.4878
1190.00,0.4902
1189.00,0.4892
1188.00,0.4853
1187.00,0.4795
1186.00,0.4732
1185.00,0.4673
1184.00,0.4623
1183.00,0.4584
1182.00,0.4554
1181.00,0.4530
1180.00,0.4508
1179.00,0.4486
1178.00,0.4464
1177.00,0.4436
1176.00,0.4404
1175.00,0.4369
1174.00,0.4332
1173.00,0.4296
1172.00,0.4262
1171.00,0.4232
1170.00,0.4206
1169.00,0.4183
1168.00,0.4160
1167.00,0.4139
1166.00,0.4119
1165.00,0.4100
1164.00,0.4082
1163.00,0.4068
1162.00,0.4061
1161.00,0.4063
1160.00,0.4077
1159.00,0.4109
1158.00,0.4168
1157.00,0.4266
1156.00,0.4425
1155.00,0.4675
1154.00,0.5011
1153.00,0.5359
1152.00,0.5576
1151.00,0.5555
1150.00,0.5338
1149.00,0.5067
1148.00,0.4857
1147.00,0.4743
1146.00,0.4707
1145.00,0.4718
1144.00,0.4762
1143.00,0.4831
1142.00,0.4931
1141.00,0.5067
1140.00,0.5240
1139.00,0.5432
1138.00,0.5602
1137.00,0.5711
1136.00,0.5746
1135.00,0.5720
1134.00,0.5655
1133.00,0.5563
1132.00,0.5444
1131.00,0.5301
1130.00,0.5147
1129.00,0.5004
1128.00,0.4893
1127.00,0.4821
1126.00,0.4784
1125.00,0.4775
1124.00,0.4786
1123.00,0.4811
1122.00,0.4842
1121.00,0.4874
1120.00,0.4908
1119.00,0.4947
1118.00,0.4995
1117.00,0.5054
1116.00,0.5121
1115.00,0.5180
1114.00,0.5210
1113.00,0.5190
1112.00,0.5118
1111.00,0.5010
1110.00,0.4890
1109.00,0.4777
1108.00,0.4682
1107.00,0.4609
1106.00,0.4556
1105.00,0.4521
1104.00,0.4500
1103.00,0.4489
1102.00,0.4486
1101.00,0.4488
1100.00,0.4491
1099.00,0.4492
1098.00,0.4489
1097.00,0.4478
1096.00,0.4461
1095.00,0.4442
1094.00,0.4425
1093.00,0.4411
1092.00,0.4406
1091.00,0.4410
1090.00,0.4424
1089.00,0.4447
1088.00,0.4479
1087.00,0.4524
1086.00,0.4581
1085.00,0.4652
1084.00,0.4739
1083.00,0.4841
1082.00,0.4954
1081.00,0.5070
1080.00,0.5179
1079.00,0.5271
1078.00,0.5335
1077.00,0.5365
1076.00,0.5358
1075.00,0.5317
1074.00,0.5248
1073.00,0.5163
1072.00,0.5072
1071.00,0.4983
1070.00,0.4902
1069.00,0.4830
1068.00,0.4770
1067.00,0.4723
1066.00,0.4688
1065.00,0.4665
1064.00,0.4651
1063.00,0.4641
1062.00,0.4633
1061.00,0.4623
1060.00,0.4610
1059.00,0.4594
1058.00,0.4575
1057.00,0.4556
1056.00,0.4538
1055.00,0.4522
1054.00,0.4510
1053.00,0.4501
1052.00,0.4499
1051.00,0.4505
1050.00,0.4516
1049.00,0.4531
1048.00,0.4548
1047.00,0.4565
1046.00,0.4581
1045.00,0.4594
1044.00,0.4603
1043.00,0.4610
1042.00,0.4616
1041.00,0.4625
1040.00,0.4636
1039.00,0.4648
1038.00,0.4659
1037.00,0.4670
1036.00,0.4685
1035.00,0.4706
1034.00,0.4740
1033.00,0.4788
1032.00,0.4855
1031.00,0.4938
1030.00,0.5029
1029.00,0.5114
1028.00,0.5178
1027.00,0.5210
1026.00,0.5207
1025.00,0.5177
1024.00,0.5136
1023.00,0.5097
1022.00,0.5072
1021.00,0.5062
1020.00,0.5063
1019.00,0.5071
1018.00,0.5081
1017.00,0.5094
1016.00,0.5112
1015.00,0.5136
1014.00,0.5164
1013.00,0.5191
1012.00,0.5219
1011.00,0.5247
1010.00,0.5274
1009.00,0.5300
1008.00,0.5327
1007.00,0.5354
1006.00,0.5381
1005.00,0.5408
1004.00,0.5438
1003.00,0.5470
1002.00,0.5500
1001.00,0.5522
1000.00,0.5529
999.00,0.5515
998.00,0.5480
997.00,0.5424
996.00,0.5353
995.00,0.5276
994.00,0.5197
993.00,0.5117
992.00,0.5035
991.00,0.4951
990.00,0.4868
989.00,0.4788
988.00,0.4713
987.00,0.4646
986.00,0.4587
985.00,0.4535
984.00,0.4490
983.00,0.4449
982.00,0.4411
981.00,0.4373
980.00,0.4335
979.00,0.4296
978.00,0.4258
977.00,0.4221
976.00,0.4188
975.00,0.4161
974.00,0.4141
973.00,0.4128
972.00,0.4120
971.00,0.4118
970.00,0.4119
969.00,0.4123
968.00,0.4130
967.00,0.4141
966.00,0.4152
965.00,0.4159
964.00,0.4158
963.00,0.4146
962.00,0.4126
961.00,0.4102
960.00,0.4075
959.00,0.4048
958.00,0.4018
957.00,0.3986
956.00,0.3954
955.00,0.3925
954.00,0.3901
953.00,0.3882
952.00,0.3869
951.00,0.3861
950.00,0.3863
949.00,0.3878
948.00,0.3912
947.00,0.3963
946.00,0.4024
945.00,0.4077
944.00,0.4109
943.00,0.4114
942.00,0.4095
941.00,0.4063
940.00,0.4025
939.00,0.3990
938.00,0.3959
937.00,0.3934
936.00,0.3915
935.00,0.3900
934.00,0.3889
933.00,0.3883
932.00,0.3885
931.00,0.3899
930.00,0.3929
929.00,0.3981
928.00,0.4060
927.00,0.4172
926.00,0.4311
925.00,0.4461
924.00,0.4594
923.00,0.4689
922.00,0.4739
921.00,0.4748
920.00,0.4724
919.00,0.4664
918.00,0.4563
917.00,0.4427
916.00,0.4273
915.00,0.4124
914.00,0.3996
913.00,0.3896
912.00,0.3823
911.00,0.3772
910.00,0.3735
909.00,0.3708
908.00,0.3689
907.00,0.3680
906.00,0.3679
905.00,0.3686
904.00,0.3703
903.00,0.3728
902.00,0.3759
901.00,0.3791
900.00,0.3819
899.00,0.3843
898.00,0.3868
897.00,0.3899
896.00,0.3942
895.00,0.4002
894.00,0.4079
893.00,0.4170
892.00,0.4271
891.00,0.4371
890.00,0.4454
889.00,0.4498
888.00,0.4492
887.00,0.4439
886.00,0.4354
885.00,0.4262
884.00,0.4181
883.00,0.4124
882.00,0.4093
881.00,0.4084
880.00,0.4088
879.00,0.4094
878.00,0.4093
877.00,0.4079
876.00,0.4053
875.00,0.4021
874.00,0.3990
873.00,0.3962
872.00,0.3939
871.00,0.3924
870.00,0.3919
869.00,0.3925
868.00,0.3943
867.00,0.3973
866.00,0.4019
865.00,0.4080
864.00,0.4154
863.00,0.4230
862.00,0.4295
861.00,0.4332
860.00,0.4336
859.00,0.4314
858.00,0.4282
857.00,0.4261
856.00,0.4264
855.00,0.4298
854.00,0.4352
853.00,0.4402
852.00,0.4419
851.00,0.4391
850.00,0.4327
849.00,0.4253
848.00,0.4195
847.00,0.4161
846.00,0.4152
845.00,0.4161
844.00,0.4186
843.00,0.4230
842.00,0.4299
841.00,0.4398
840.00,0.4526
839.00,0.4671
838.00,0.4806
837.00,0.4898
836.00,0.4925
835.00,0.4884
834.00,0.4794
833.00,0.4685
832.00,0.4585
831.00,0.4505
830.00,0.4449
829.00,0.4416
828.00,0.4408
827.00,0.4427
826.00,0.4474
825.00,0.4544
824.00,0.4626
823.00,0.4709
822.00,0.4783
821.00,0.4847
820.00,0.4910
819.00,0.4982
818.00,0.5066
817.00,0.5144
816.00,0.5176
815.00,0.5129
814.00,0.4998
813.00,0.4818
812.00,0.4634
811.00,0.4476
810.00,0.4352
809.00,0.4256
808.00,0.4184
807.00,0.4129
806.00,0.4089
805.00,0.4062
804.00,0.4049
803.00,0.4051
802.00,0.4069
801.00,0.4105
800.00,0.4162
799.00,0.4245
798.00,0.4355
797.00,0.4487
796.00,0.4623
795.00,0.4737
794.00,0.4805
793.00,0.4821
792.00,0.4801
791.00,0.4768
790.00,0.4739
789.00,0.4724
788.00,0.4730
787.00,0.4769
786.00,0.4848
785.00,0.4975
784.00,0.5156
783.00,0.5392
782.00,0.5674
781.00,0.5980
780.00,0.6285
779.00,0.6548
778.00,0.6706
777.00,0.6683
776.00,0.6445
775.00,0.6054
774.00,0.5627
773.00,0.5264
772.00,0.5009
771.00,0.4859
770.00,0.4787
769.00,0.4768
768.00,0.4785
767.00,0.4828
766.00,0.4887
765.00,0.4957
764.00,0.5031
763.00,0.5105
762.00,0.5173
761.00,0.5233
760.00,0.5276
759.00,0.5296
758.00,0.5289
757.00,0.5260
756.00,0.5223
755.00,0.5197
754.00,0.5195
753.00,0.5221
752.00,0.5279
751.00,0.5367
750.00,0.5489
749.00,0.5650
748.00,0.5857
747.00,0.6108
746.00,0.6386
745.00,0.6642
744.00,0.6811
743.00,0.6845
742.00,0.6748
741.00,0.6576
740.00,0.6400
739.00,0.6268
738.00,0.6200
737.00,0.6197
736.00,0.6255
735.00,0.6370
734.00,0.6542
733.00,0.6771
732.00,0.7061
731.00,0.7418
730.00,0.7846
729.00,0.8348
728.00,0.8930
727.00,0.9597
726.00,1.0355
725.00,1.1187
724.00,1.2023
723.00,1.2709
722.00,1.3026
721.00,1.2811
720.00,1.2108
719.00,1.1139
718.00,1.0120
717.00,0.9184
716.00,0.8384
715.00,0.7730
714.00,0.7198
713.00,0.6756
712.00,0.6376
711.00,0.6045
710.00,0.5757
709.00,0.5507
708.00,0.5293
707.00,0.5109
706.00,0.4951
705.00,0.4812
704.00,0.4691
703.00,0.4588
702.00,0.4499
701.00,0.4420
700.00,0.4350
699.00,0.4289
698.00,0.4239
697.00,0.4199
696.00,0.4170
695.00,0.4151
694.00,0.4143
693.00,0.4144
692.00,0.4150
691.00,0.4156
690.00,0.4157
689.00,0.4154
688.00,0.4144
687.00,0.4129
686.00,0.4110
685.00,0.4093
684.00,0.4083
683.00,0.4084
682.00,0.4096
681.00,0.4117
680.00,0.4145
679.00,0.4181
678.00,0.4220
677.00,0.4260
676.00,0.4299
675.00,0.4337
674.00,0.4373
673.00,0.4408
672.00,0.4444
671.00,0.4479
670.00,0.4516
669.00,0.4562
668.00,0.4614
667.00,0.4665
666.00,0.4718
665.00,0.4769
664.00,0.4812
663.00,0.4841
662.00,0.4850
661.00,0.4832
660.00,0.4788
659.00,0.4723
658.00,0.4649
657.00,0.4579
656.00,0.4519
655.00,0.4474
654.00,0.4443
653.00,0.4424
652.00,0.4418
651.00,0.4428
650.00,0.4452
649.00,0.4491
648.00,0.4543
647.00,0.4604
646.00,0.4669
645.00,0.4733
644.00,0.4793
643.00,0.4846
642.00,0.4888
641.00,0.4909
640.00,0.4905
639.00,0.4874
638.00,0.4818
637.00,0.4742
636.00,0.4653
635.00,0.4559
634.00,0.4471
633.00,0.4397
632.00,0.4344
631.00,0.4310
630.00,0.4291
629.00,0.4286
628.00,0.4297
627.00,0.4330
626.00,0.4387
625.00,0.4467
624.00,0.4562
623.00,0.4669
622.00,0.4782
621.00,0.4897
620.00,0.5015
619.00,0.5132
618.00,0.5236
617.00,0.5306
616.00,0.5321
615.00,0.5273
614.00,0.5170
613.00,0.5034
612.00,0.4884
611.00,0.4737
610.00,0.4599
609.00,0.4476
608.00,0.4367
607.00,0.4276
606.00,0.4203
605.00,0.4148
604.00,0.4106
603.00,0.4076
602.00,0.4054
601.00,0.4038
600.00,0.4030
599.00,0.4031
598.00,0.4040
597.00,0.4052
596.00,0.4064
595.00,0.4080
594.00,0.4098
593.00,0.4118
592.00,0.4140
591.00,0.4164
590.00,0.4190
589.00,0.4216
588.00,0.4246
587.00,0.4281
586.00,0.4320
585.00,0.4359
584.00,0.4394
583.00,0.4427
582.00,0.4457
581.00,0.4485
580.00,0.4514
579.00,0.4543
578.00,0.4572
577.00,0.4599
576.00,0.4628
575.00,0.4661
574.00,0.4699
573.00,0.4740
572.00,0.4781
571.00,0.4822
570.00,0.4862
569.00,0.4901
568.00,0.4937
567.00,0.4971
566.00,0.5008
565.00,0.5048
564.00,0.5087
563.00,0.5120
562.00,0.5143
561.00,0.5157
560.00,0.5170
559.00,0.5189
558.00,0.5212
557.00,0.5238
556.00,0.5263
555.00,0.5284
554.00,0.5305
553.00,0.5333
552.00,0.5377
551.00,0.5437
550.00,0.5511
