Created as New Dataset,
cm-1,A
4000.00,0.3643
3999.00,0.3642
3998.00,0.3640
3997.00,0.3639
3996.00,0.3638
3995.00,0.3636
3994.00,0.3634
3993.00,0.3632
3992.00,0.3629
3991.00,0.3625
3990.00,0.3621
3989.00,0.3618
3988.00,0.3614
3987.00,0.3610
3986.00,0.3606
3985.00,0.3602
3984.00,0.3598
3983.00,0.3593
3982.00,0.3590
3981.00,0.3586
3980.00,0.3583
3979.00,0.3579
3978.00,0.3575
3977.00,0.3570
3976.00,0.3567
3975.00,0.3564
3974.00,0.3561
3973.00,0.3559
3972.00,0.3557
3971.00,0.3554
3970.00,0.3551
3969.00,0.3547
3968.00,0.3543
3967.00,0.3539
3966.00,0.3534
3965.00,0.3529
3964.00,0.3524
3963.00,0.3520
3962.00,0.3515
3961.00,0.3511
3960.00,0.3506
3959.00,0.3502
3958.00,0.3498
3957.00,0.3494
3956.00,0.3491
3955.00,0.3487
3954.00,0.3484
3953.00,0.3481
3952.00,0.3478
3951.00,0.3475
3950.00,0.3472
3949.00,0.3469
3948.00,0.3467
3947.00,0.3464
3946.00,0.3462
3945.00,0.3459
3944.00,0.3457
3943.00,0.3455
3942.00,0.3453
3941.00,0.3451
3940.00,0.3450
3939.00,0.3449
3938.00,0.3449
3937.00,0.3449
3936.00,0.3449
3935.00,0.3449
3934.00,0.3448
3933.00,0.3448
3932.00,0.3447
3931.00,0.3446
3930.00,0.3446
3929.00,0.3446
3928.00,0.3446
3927.00,0.3445
3926.00,0.3445
3925.00,0.3444
3924.00,0.3444
3923.00,0.3443
3922.00,0.3443
3921.00,0.3442
3920.00,0.3442
3919.00,0.3442
3918.00,0.3441
3917.00,0.3440
3916.00,0.3439
3915.00,0.3438
3914.00,0.3436
3913.00,0.3436
3912.00,0.3435
3911.00,0.3435
3910.00,0.3434
3909.00,0.3434
3908.00,0.3434
3907.00,0.3434
3906.00,0.3434
3905.00,0.3434
3904.00,0.3434
3903.00,0.3434
3902.00,0.3434
3901.00,0.3433
3900.00,0.3432
3899.00,0.3432
3898.00,0.3431
3897.00,0.3430
3896.00,0.3429
3895.00,0.3427
3894.00,0.3425
3893.00,0.3423
3892.00,0.3422
3891.00,0.3421
3890.00,0.3420
3889.00,0.3418
3888.00,0.3416
3887.00,0.3414
3886.00,0.3413
3885.00,0.3413
3884.00,0.3412
3883.00,0.3410
3882.00,0.3409
3881.00,0.3408
3880.00,0.3408
3879.00,0.3407
3878.00,0.3405
3877.00,0.3403
3876.00,0.3402
3875.00,0.3402
3874.00,0.3403
3873.00,0.3403
3872.00,0.3401
3871.00,0.3400
3870.00,0.3400
3869.00,0.3401
3868.00,0.3400
3867.00,0.3399
3866.00,0.3399
3865.00,0.3399
3864.00,0.3399
3863.00,0.3398
3862.00,0.3396
3861.00,0.3395
3860.00,0.3395
3859.00,0.3395
3858.00,0.3396
3857.00,0.3395
3856.00,0.3393
3855.00,0.3391
3854.00,0.3390
3853.00,0.3390
3852.00,0.3390
3851.00,0.3389
3850.00,0.3387
3849.00,0.3386
3848.00,0.3385
3847.00,0.3383
3846.00,0.3381
3845.00,0.3379
3844.00,0.3378
3843.00,0.3377
3842.00,0.3377
3841.00,0.3377
3840.00,0.3376
3839.00,0.3376
3838.00,0.3375
3837.00,0.3375
3836.00,0.3373
3835.00,0.3372
3834.00,0.3370
3833.00,0.3368
3832.00,0.3367
3831.00,0.3366
3830.00,0.3364
3829.00,0.3362
3828.00,0.3360
3827.00,0.3360
3826.00,0.3360
3825.00,0.3360
3824.00,0.3359
3823.00,0.3358
3822.00,0.3358
3821.00,0.3358
3820.00,0.3358
3819.00,0.3356
3818.00,0.3353
3817.00,0.3351
3816.00,0.3349
3815.00,0.3346
3814.00,0.3343
3813.00,0.3339
3812.00,0.3337
3811.00,0.3335
3810.00,0.3333
3809.00,0.3331
3808.00,0.3329
3807.00,0.3329
3806.00,0.3328
3805.00,0.3327
3804.00,0.3325
3803.00,0.3323
3802.00,0.3322
3801.00,0.3321
3800.00,0.3319
3799.00,0.3316
3798.00,0.3313
3797.00,0.3311
3796.00,0.3310
3795.00,0.3308
3794.00,0.3305
3793.00,0.3302
3792.00,0.3300
3791.00,0.3298
3790.00,0.3297
3789.00,0.3296
3788.00,0.3295
3787.00,0.3294
3786.00,0.3294
3785.00,0.3294
3784.00,0.3294
3783.00,0.3293
3782.00,0.3293
3781.00,0.3293
3780.00,0.3292
3779.00,0.3292
3778.00,0.3292
3777.00,0.3292
3776.00,0.3292
3775.00,0.3292
3774.00,0.3293
3773.00,0.3293
3772.00,0.3292
3771.00,0.3291
3770.00,0.3291
3769.00,0.3291
3768.00,0.3290
3767.00,0.3290
3766.00,0.3289
3765.00,0.3289
3764.00,0.3289
3763.00,0.3288
3762.00,0.3287
3761.00,0.3286
3760.00,0.3285
3759.00,0.3284
3758.00,0.3283
3757.00,0.3282
3756.00,0.3281
3755.00,0.3281
3754.00,0.3281
3753.00,0.3281
3752.00,0.3281
3751.00,0.3281
3750.00,0.3281
3749.00,0.3281
3748.00,0.3281
3747.00,0.3280
3746.00,0.3279
3745.00,0.3279
3744.00,0.3279
3743.00,0.3277
3742.00,0.3274
3741.00,0.3271
3740.00,0.3270
3739.00,0.3270
3738.00,0.3270
3737.00,0.3269
3736.00,0.3268
3735.00,0.3267
3734.00,0.3265
3733.00,0.3264
3732.00,0.3262
3731.00,0.3260
3730.00,0.3258
3729.00,0.3255
3728.00,0.3253
3727.00,0.3251
3726.00,0.3249
3725.00,0.3248
3724.00,0.3246
3723.00,0.3246
3722.00,0.3245
3721.00,0.3245
3720.00,0.3244
3719.00,0.3244
3718.00,0.3244
3717.00,0.3244
3716.00,0.3244
3715.00,0.3244
3714.00,0.3245
3713.00,0.3246
3712.00,0.3248
3711.00,0.3250
3710.00,0.3251
3709.00,0.3251
3708.00,0.3251
3707.00,0.3252
3706.00,0.3253
3705.00,0.3253
3704.00,0.3253
3703.00,0.3253
3702.00,0.3253
3701.00,0.3254
3700.00,0.3254
3699.00,0.3254
3698.00,0.3255
3697.00,0.3256
3696.00,0.3258
3695.00,0.3260
3694.00,0.3262
3693.00,0.3264
3692.00,0.3266
3691.00,0.3267
3690.00,0.3267
3689.00,0.3269
3688.00,0.3271
3687.00,0.3273
3686.00,0.3273
3685.00,0.3273
3684.00,0.3274
3683.00,0.3275
3682.00,0.3277
3681.00,0.3279
3680.00,0.3280
3679.00,0.3280
3678.00,0.3280
3677.00,0.3281
3676.00,0.3283
3675.00,0.3285
3674.00,0.3286
3673.00,0.3285
3672.00,0.3285
3671.00,0.3286
3670.00,0.3288
3669.00,0.3288
3668.00,0.3288
3667.00,0.3287
3666.00,0.3287
3665.00,0.3288
3664.00,0.3289
3663.00,0.3291
3662.00,0.3293
3661.00,0.3295
3660.00,0.3298
3659.00,0.3300
3658.00,0.3303
3657.00,0.3307
3656.00,0.3313
3655.00,0.3318
3654.00,0.3324
3653.00,0.3329
3652.00,0.3335
3651.00,0.3342
3650.00,0.3350
3649.00,0.3359
3648.00,0.3368
3647.00,0.3377
3646.00,0.3385
3645.00,0.3392
3644.00,0.3397
3643.00,0.3400
3642.00,0.3401
3641.00,0.3402
3640.00,0.3403
3639.00,0.3406
3638.00,0.3409
3637.00,0.3414
3636.00,0.3419
3635.00,0.3426
3634.00,0.3433
3633.00,0.3441
3632.00,0.3449
3631.00,0.3458
3630.00,0.3469
3629.00,0.3484
3628.00,0.3499
3627.00,0.3514
3626.00,0.3527
3625.00,0.3537
3624.00,0.3545
3623.00,0.3547
3622.00,0.3544
3621.00,0.3535
3620.00,0.3522
3619.00,0.3507
3618.00,0.3494
3617.00,0.3483
3616.00,0.3476
3615.00,0.3471
3614.00,0.3469
3613.00,0.3468
3612.00,0.3469
3611.00,0.3471
3610.00,0.3474
3609.00,0.3477
3608.00,0.3481
3607.00,0.3484
3606.00,0.3486
3605.00,0.3486
3604.00,0.3485
3603.00,0.3483
3602.00,0.3478
3601.00,0.3472
3600.00,0.3465
3599.00,0.3457
3598.00,0.3449
3597.00,0.3441
3596.00,0.3432
3595.00,0.3423
3594.00,0.3414
3593.00,0.3407
3592.00,0.3400
3591.00,0.3395
3590.00,0.3391
3589.00,0.3387
3588.00,0.3383
3587.00,0.3380
3586.00,0.3377
3585.00,0.3375
3584.00,0.3372
3583.00,0.3369
3582.00,0.3367
3581.00,0.3365
3580.00,0.3363
3579.00,0.3361
3578.00,0.3360
3577.00,0.3359
3576.00,0.3359
3575.00,0.3360
3574.00,0.3361
3573.00,0.3363
3572.00,0.3365
3571.00,0.3367
3570.00,0.3369
3569.00,0.3370
3568.00,0.3372
3567.00,0.3374
3566.00,0.3376
3565.00,0.3379
3564.00,0.3381
3563.00,0.3383
3562.00,0.3385
3561.00,0.3387
3560.00,0.3389
3559.00,0.3391
3558.00,0.3393
3557.00,0.3395
3556.00,0.3399
3555.00,0.3402
3554.00,0.3406
3553.00,0.3410
3552.00,0.3414
3551.00,0.3419
3550.00,0.3424
3549.00,0.3429
3548.00,0.3434
3547.00,0.3439
3546.00,0.3445
3545.00,0.3451
3544.00,0.3457
3543.00,0.3462
3542.00,0.3468
3541.00,0.3474
3540.00,0.3481
3539.00,0.3488
3538.00,0.3494
3537.00,0.3500
3536.00,0.3506
3535.00,0.3512
3534.00,0.3519
3533.00,0.3525
3532.00,0.3532
3531.00,0.3538
3530.00,0.3544
3529.00,0.3550
3528.00,0.3556
3527.00,0.3562
3526.00,0.3569
3525.00,0.3576
3524.00,0.3583
3523.00,0.3591
3522.00,0.3597
3521.00,0.3604
3520.00,0.3611
3519.00,0.3619
3518.00,0.3627
3517.00,0.3635
3516.00,0.3643
3515.00,0.3650
3514.00,0.3658
3513.00,0.3665
3512.00,0.3673
3511.00,0.3682
3510.00,0.3691
3509.00,0.3700
3508.00,0.3709
3507.00,0.3718
3506.00,0.3727
3505.00,0.3736
3504.00,0.3746
3503.00,0.3755
3502.00,0.3764
3501.00,0.3773
3500.00,0.3782
3499.00,0.3791
3498.00,0.3800
3497.00,0.3809
3496.00,0.3819
3495.00,0.3828
3494.00,0.3837
3493.00,0.3847
3492.00,0.3857
3491.00,0.3866
3490.00,0.3876
3489.00,0.3886
3488.00,0.3896
3487.00,0.3906
3486.00,0.3917
3485.00,0.3927
3484.00,0.3938
3483.00,0.3949
3482.00,0.3960
3481.00,0.3971
3480.00,0.3982
3479.00,0.3993
3478.00,0.4004
3477.00,0.4015
3476.00,0.4026
3475.00,0.4038
3474.00,0.4050
3473.00,0.4062
3472.00,0.4075
3471.00,0.4088
3470.00,0.4102
3469.00,0.4115
3468.00,0.4129
3467.00,0.4143
3466.00,0.4156
3465.00,0.4169
3464.00,0.4182
3463.00,0.4196
3462.00,0.4209
3461.00,0.4223
3460.00,0.4238
3459.00,0.4253
3458.00,0.4268
3457.00,0.4284
3456.00,0.4300
3455.00,0.4317
3454.00,0.4334
3453.00,0.4351
3452.00,0.4368
3451.00,0.4386
3450.00,0.4404
3449.00,0.4424
3448.00,0.4444
3447.00,0.4466
3446.00,0.4489
3445.00,0.4515
3444.00,0.4541
3443.00,0.4567
3442.00,0.4593
3441.00,0.4618
3440.00,0.4643
3439.00,0.4667
3438.00,0.4690
3437.00,0.4712
3436.00,0.4733
3435.00,0.4752
3434.00,0.4770
3433.00,0.4787
3432.00,0.4803
3431.00,0.4820
3430.00,0.4836
3429.00,0.4851
3428.00,0.4865
3427.00,0.4878
3426.00,0.4892
3425.00,0.4906
3424.00,0.4920
3423.00,0.4935
3422.00,0.4951
3421.00,0.4966
3420.00,0.4982
3419.00,0.4997
3418.00,0.5012
3417.00,0.5028
3416.00,0.5044
3415.00,0.5060
3414.00,0.5077
3413.00,0.5093
3412.00,0.5110
3411.00,0.5127
3410.00,0.5145
3409.00,0.5163
3408.00,0.5181
3407.00,0.5199
3406.00,0.5217
3405.00,0.5235
3404.00,0.5253
3403.00,0.5271
3402.00,0.5288
3401.00,0.5306
3400.00,0.5323
3399.00,0.5339
3398.00,0.5357
3397.00,0.5374
3396.00,0.5392
3395.00,0.5409
3394.00,0.5427
3393.00,0.5444
3392.00,0.5460
3391.00,0.5477
3390.00,0.5493
3389.00,0.5509
3388.00,0.5526
3387.00,0.5543
3386.00,0.5560
3385.00,0.5578
3384.00,0.5596
3383.00,0.5614
3382.00,0.5632
3381.00,0.5651
3380.00,0.5669
3379.00,0.5688
3378.00,0.5706
3377.00,0.5725
3376.00,0.5744
3375.00,0.5764
3374.00,0.5784
3373.00,0.5804
3372.00,0.5824
3371.00,0.5845
3370.00,0.5866
3369.00,0.5888
3368.00,0.5909
3367.00,0.5930
3366.00,0.5951
3365.00,0.5973
3364.00,0.5996
3363.00,0.6018
3362.00,0.6040
3361.00,0.6062
3360.00,0.6083
3359.00,0.6104
3358.00,0.6125
3357.00,0.6146
3356.00,0.6167
3355.00,0.6188
3354.00,0.6208
3353.00,0.6228
3352.00,0.6248
3351.00,0.6267
3350.00,0.6286
3349.00,0.6305
3348.00,0.6322
3347.00,0.6339
3346.00,0.6355
3345.00,0.6371
3344.00,0.6386
3343.00,0.6399
3342.00,0.6411
3341.00,0.6424
3340.00,0.6436
3339.00,0.6447
3338.00,0.6457
3337.00,0.6465
3336.00,0.6471
3335.00,0.6476
3334.00,0.6480
3333.00,0.6483
3332.00,0.6486
3331.00,0.6487
3330.00,0.6487
3329.00,0.6485
3328.00,0.6483
3327.00,0.6479
3326.00,0.6475
3325.00,0.6469
3324.00,0.6462
3323.00,0.6454
3322.00,0.6446
3321.00,0.6436
3320.00,0.6425
3319.00,0.6415
3318.00,0.6404
3317.00,0.6394
3316.00,0.6382
3315.00,0.6370
3314.00,0.6357
3313.00,0.6343
3312.00,0.6329
3311.00,0.6314
3310.00,0.6300
3309.00,0.6287
3308.00,0.6273
3307.00,0.6260
3306.00,0.6248
3305.00,0.6235
3304.00,0.6222
3303.00,0.6208
3302.00,0.6196
3301.00,0.6184
3300.00,0.6174
3299.00,0.6163
3298.00,0.6153
3297.00,0.6145
3296.00,0.6137
3295.00,0.6128
3294.00,0.6119
3293.00,0.6110
3292.00,0.6102
3291.00,0.6095
3290.00,0.6089
3289.00,0.6085
3288.00,0.6081
3287.00,0.6078
3286.00,0.6074
3285.00,0.6071
3284.00,0.6067
3283.00,0.6064
3282.00,0.6061
3281.00,0.6059
3280.00,0.6058
3279.00,0.6057
3278.00,0.6056
3277.00,0.6056
3276.00,0.6056
3275.00,0.6055
3274.00,0.6055
3273.00,0.6056
3272.00,0.6058
3271.00,0.6059
3270.00,0.6060
3269.00,0.6061
3268.00,0.6062
3267.00,0.6062
3266.00,0.6063
3265.00,0.6063
3264.00,0.6064
3263.00,0.6065
3262.00,0.6065
3261.00,0.6067
3260.00,0.6069
3259.00,0.6070
3258.00,0.6071
3257.00,0.6070
3256.00,0.6068
3255.00,0.6065
3254.00,0.6061
3253.00,0.6059
3252.00,0.6057
3251.00,0.6056
3250.00,0.6054
3249.00,0.6050
3248.00,0.6045
3247.00,0.6039
3246.00,0.6032
3245.00,0.6026
3244.00,0.6019
3243.00,0.6011
3242.00,0.6004
3241.00,0.5996
3240.00,0.5988
3239.00,0.5979
3238.00,0.5970
3237.00,0.5961
3236.00,0.5952
3235.00,0.5941
3234.00,0.5930
3233.00,0.5919
3232.00,0.5907
3231.00,0.5895
3230.00,0.5883
3229.00,0.5870
3228.00,0.5857
3227.00,0.5844
3226.00,0.5830
3225.00,0.5818
3224.00,0.5805
3223.00,0.5791
3222.00,0.5777
3221.00,0.5762
3220.00,0.5747
3219.00,0.5732
3218.00,0.5718
3217.00,0.5704
3216.00,0.5691
3215.00,0.5677
3214.00,0.5662
3213.00,0.5647
3212.00,0.5631
3211.00,0.5615
3210.00,0.5600
3209.00,0.5585
3208.00,0.5571
3207.00,0.5556
3206.00,0.5541
3205.00,0.5526
3204.00,0.5511
3203.00,0.5496
3202.00,0.5481
3201.00,0.5466
3200.00,0.5452
3199.00,0.5437
3198.00,0.5422
3197.00,0.5407
3196.00,0.5391
3195.00,0.5376
3194.00,0.5360
3193.00,0.5345
3192.00,0.5330
3191.00,0.5314
3190.00,0.5297
3189.00,0.5281
3188.00,0.5266
3187.00,0.5250
3186.00,0.5234
3185.00,0.5218
3184.00,0.5202
3183.00,0.5186
3182.00,0.5169
3181.00,0.5152
3180.00,0.5136
3179.00,0.5120
3178.00,0.5105
3177.00,0.5089
3176.00,0.5072
3175.00,0.5056
3174.00,0.5040
3173.00,0.5024
3172.00,0.5009
3171.00,0.4993
3170.00,0.4976
3169.00,0.4961
3168.00,0.4945
3167.00,0.4931
3166.00,0.4916
3165.00,0.4903
3164.00,0.4890
3163.00,0.4877
3162.00,0.4864
3161.00,0.4851
3160.00,0.4838
3159.00,0.4826
3158.00,0.4814
3157.00,0.4803
3156.00,0.4792
3155.00,0.4781
3154.00,0.4770
3153.00,0.4760
3152.00,0.4751
3151.00,0.4742
3150.00,0.4732
3149.00,0.4722
3148.00,0.4712
3147.00,0.4702
3146.00,0.4693
3145.00,0.4684
3144.00,0.4675
3143.00,0.4666
3142.00,0.4657
3141.00,0.4649
3140.00,0.4641
3139.00,0.4633
3138.00,0.4626
3137.00,0.4619
3136.00,0.4611
3135.00,0.4604
3134.00,0.4596
3133.00,0.4589
3132.00,0.4582
3131.00,0.4577
3130.00,0.4571
3129.00,0.4566
3128.00,0.4561
3127.00,0.4557
3126.00,0.4553
3125.00,0.4550
3124.00,0.4547
3123.00,0.4545
3122.00,0.4542
3121.00,0.4540
3120.00,0.4539
3119.00,0.4538
3118.00,0.4537
3117.00,0.4536
3116.00,0.4536
3115.00,0.4537
3114.00,0.4539
3113.00,0.4542
3112.00,0.4545
3111.00,0.4548
3110.00,0.4551
3109.00,0.4554
3108.00,0.4558
3107.00,0.4563
3106.00,0.4569
3105.00,0.4575
3104.00,0.4582
3103.00,0.4588
3102.00,0.4594
3101.00,0.4600
3100.00,0.4607
3099.00,0.4613
3098.00,0.4621
3097.00,0.4629
3096.00,0.4639
3095.00,0.4648
3094.00,0.4658
3093.00,0.4668
3092.00,0.4678
3091.00,0.4689
3090.00,0.4700
3089.00,0.4711
3088.00,0.4723
3087.00,0.4736
3086.00,0.4750
3085.00,0.4764
3084.00,0.4778
3083.00,0.4792
3082.00,0.4807
3081.00,0.4822
3080.00,0.4838
3079.00,0.4854
3078.00,0.4871
3077.00,0.4889
3076.00,0.4908
3075.00,0.4928
3074.00,0.4950
3073.00,0.4974
3072.00,0.4998
3071.00,0.5023
3070.00,0.5049
3069.00,0.5076
3068.00,0.5105
3067.00,0.5135
3066.00,0.5166
3065.00,0.5198
3064.00,0.5230
3063.00,0.5263
3062.00,0.5297
3061.00,0.5330
3060.00,0.5364
3059.00,0.5397
3058.00,0.5430
3057.00,0.5463
3056.00,0.5495
3055.00,0.5528
3054.00,0.5559
3053.00,0.5591
3052.00,0.5621
3051.00,0.5652
3050.00,0.5682
3049.00,0.5712
3048.00,0.5743
3047.00,0.5775
3046.00,0.5807
3045.00,0.5840
3044.00,0.5874
3043.00,0.5910
3042.00,0.5948
3041.00,0.5989
3040.00,0.6032
3039.00,0.6077
3038.00,0.6125
3037.00,0.6175
3036.00,0.6227
3035.00,0.6281
3034.00,0.6337
3033.00,0.6396
3032.00,0.6457
3031.00,0.6520
3030.00,0.6583
3029.00,0.6647
3028.00,0.6713
3027.00,0.6780
3026.00,0.6850
3025.00,0.6920
3024.00,0.6993
3023.00,0.7067
3022.00,0.7145
3021.00,0.7226
3020.00,0.7310
3019.00,0.7399
3018.00,0.7494
3017.00,0.7595
3016.00,0.7703
3015.00,0.7816
3014.00,0.7937
3013.00,0.8067
3012.00,0.8205
3011.00,0.8354
3010.00,0.8514
3009.00,0.8685
3008.00,0.8866
3007.00,0.9060
3006.00,0.9268
3005.00,0.9492
3004.00,0.9734
3003.00,0.9993
3002.00,1.0269
3001.00,1.0562
3000.00,1.0871
2999.00,1.1197
2998.00,1.1538
2997.00,1.1894
2996.00,1.2266
2995.00,1.2652
2994.00,1.3054
2993.00,1.3469
2992.00,1.3896
2991.00,1.4337
2990.00,1.4795
2989.00,1.5271
2988.00,1.5770
2987.00,1.6300
2986.00,1.6871
2985.00,1.7491
2984.00,1.8161
2983.00,1.8877
2982.00,1.9643
2981.00,2.0474
2980.00,2.1396
2979.00,2.2423
2978.00,2.3534
2977.00,2.4662
2976.00,2.5740
2975.00,2.6763
2974.00,2.7783
2973.00,2.8842
2972.00,2.9931
2971.00,3.1054
2970.00,3.2240
2969.00,3.3452
2968.00,3.4510
2967.00,3.5267
2966.00,3.5814
2965.00,3.6301
2964.00,3.6647
2963.00,3.6757
2962.00,3.6924
2961.00,3.7401
2960.00,3.8193
2959.00,3.9202
2958.00,4.1578
2957.00,4.3342
2956.00,4.0112
2955.00,3.8021
2954.00,3.7602
2953.00,3.9453
2952.00,4.2142
2951.00,4.1294
2950.00,3.9741
2949.00,3.8664
2948.00,3.8833
2947.00,3.8708
2946.00,3.8851
2945.00,4.1587
2944.00,4.3269
2943.00,3.9909
2942.00,3.7560
2941.00,3.7013
2940.00,3.7686
2939.00,3.8592
2938.00,4.0591
2937.00,4.3173
2936.00,4.2890
2935.00,4.1666
2934.00,4.1447
2933.00,4.3798
2932.00,4.5064
2931.00,4.2235
2930.00,4.0937
2929.00,4.1393
2928.00,4.2398
2927.00,4.1392
2926.00,3.9829
2925.00,3.8594
2924.00,3.7409
2923.00,3.6793
2922.00,3.6885
2921.00,3.7510
2920.00,3.8614
2919.00,4.0589
2918.00,4.2916
2917.00,4.2994
2916.00,4.1730
2915.00,4.1215
2914.00,4.1695
2913.00,4.1267
2912.00,4.0129
2911.00,3.9569
2910.00,4.0144
2909.00,4.1497
2908.00,4.2112
2907.00,4.1866
2906.00,4.2804
2905.00,4.6515
2904.00,4.9359
2903.00,4.9246
2902.00,4.8986
2901.00,5.3900
2900.00,5.0268
2899.00,4.3664
2898.00,4.0933
2897.00,3.9843
2896.00,4.0017
2895.00,4.0521
2894.00,4.0745
2893.00,4.2179
2892.00,4.3996
2891.00,4.2306
2890.00,3.9929
2889.00,3.8266
2888.00,3.7281
2887.00,3.6342
2886.00,3.5554
2885.00,3.4878
2884.00,3.4451
2883.00,3.4706
2882.00,3.5491
2881.00,3.6098
2880.00,3.6046
2879.00,3.5845
2878.00,3.6004
2877.00,3.6386
2876.00,3.6628
2875.00,3.6765
2874.00,3.7095
2873.00,3.7633
2872.00,3.8043
2871.00,3.8397
2870.00,3.9097
2869.00,3.9554
2868.00,3.9153
2867.00,3.8394
2866.00,3.8137
2865.00,3.8214
2864.00,3.9123
2863.00,4.2130
2862.00,4.4276
2861.00,4.1709
2860.00,3.9108
2859.00,3.8412
2858.00,3.8515
2857.00,3.9218
2856.00,4.0821
2855.00,4.2109
2854.00,4.3259
2853.00,4.3044
2852.00,4.1216
2851.00,4.0670
2850.00,4.2067
2849.00,4.1450
2848.00,3.9483
2847.00,3.8337
2846.00,3.9434
2845.00,4.2201
2844.00,4.1209
2843.00,3.8602
2842.00,3.6234
2841.00,3.4477
2840.00,3.2384
2839.00,3.0336
2838.00,2.8569
2837.00,2.6924
2836.00,2.5373
2835.00,2.3897
2834.00,2.2514
2833.00,2.1247
2832.00,2.0108
2831.00,1.9090
2830.00,1.8176
2829.00,1.7350
2828.00,1.6605
2827.00,1.5935
2826.00,1.5329
2825.00,1.4775
2824.00,1.4266
2823.00,1.3800
2822.00,1.3374
2821.00,1.2984
2820.00,1.2623
2819.00,1.2288
2818.00,1.1975
2817.00,1.1681
2816.00,1.1406
2815.00,1.1147
2814.00,1.0904
2813.00,1.0670
2812.00,1.0445
2811.00,1.0229
2810.00,1.0022
2809.00,0.9825
2808.00,0.9636
2807.00,0.9453
2806.00,0.9276
2805.00,0.9102
2804.00,0.8933
2803.00,0.8769
2802.00,0.8611
2801.00,0.8457
2800.00,0.8308
2799.00,0.8165
2798.00,0.8027
2797.00,0.7894
2796.00,0.7768
2795.00,0.7648
2794.00,0.7536
2793.00,0.7430
2792.00,0.7328
2791.00,0.7232
2790.00,0.7140
2789.00,0.7052
2788.00,0.6967
2787.00,0.6884
2786.00,0.6802
2785.00,0.6719
2784.00,0.6638
2783.00,0.6559
2782.00,0.6480
2781.00,0.6403
2780.00,0.6328
2779.00,0.6254
2778.00,0.6183
2777.00,0.6115
2776.00,0.6049
2775.00,0.5987
2774.00,0.5928
2773.00,0.5872
2772.00,0.5821
2771.00,0.5774
2770.00,0.5731
2769.00,0.5692
2768.00,0.5657
2767.00,0.5625
2766.00,0.5596
2765.00,0.5570
2764.00,0.5547
2763.00,0.5526
2762.00,0.5508
2761.00,0.5493
2760.00,0.5481
2759.00,0.5470
2758.00,0.5461
2757.00,0.5453
2756.00,0.5448
2755.00,0.5445
2754.00,0.5445
2753.00,0.5447
2752.00,0.5450
2751.00,0.5456
2750.00,0.5464
2749.00,0.5474
2748.00,0.5485
2747.00,0.5497
2746.00,0.5512
2745.00,0.5528
2744.00,0.5547
2743.00,0.5567
2742.00,0.5589
2741.00,0.5615
2740.00,0.5644
2739.00,0.5677
2738.00,0.5714
2737.00,0.5755
2736.00,0.5799
2735.00,0.5846
2734.00,0.5893
2733.00,0.5937
2732.00,0.5972
2731.00,0.5993
2730.00,0.5995
2729.00,0.5978
2728.00,0.5944
2727.00,0.5897
2726.00,0.5843
2725.00,0.5789
2724.00,0.5738
2723.00,0.5693
2722.00,0.5655
2721.00,0.5624
2720.00,0.5599
2719.00,0.5577
2718.00,0.5557
2717.00,0.5539
2716.00,0.5520
2715.00,0.5499
2714.00,0.5475
2713.00,0.5449
2712.00,0.5421
2711.00,0.5393
2710.00,0.5366
2709.00,0.5340
2708.00,0.5317
2707.00,0.5296
2706.00,0.5277
2705.00,0.5261
2704.00,0.5247
2703.00,0.5235
2702.00,0.5225
2701.00,0.5218
2700.00,0.5213
2699.00,0.5212
2698.00,0.5213
2697.00,0.5217
2696.00,0.5223
2695.00,0.5232
2694.00,0.5242
2693.00,0.5254
2692.00,0.5267
2691.00,0.5280
2690.00,0.5293
2689.00,0.5306
2688.00,0.5318
2687.00,0.5328
2686.00,0.5336
2685.00,0.5343
2684.00,0.5349
2683.00,0.5354
2682.00,0.5359
2681.00,0.5363
2680.00,0.5367
2679.00,0.5370
2678.00,0.5374
2677.00,0.5378
2676.00,0.5383
2675.00,0.5387
2674.00,0.5391
2673.00,0.5393
2672.00,0.5392
2671.00,0.5388
2670.00,0.5381
2669.00,0.5371
2668.00,0.5357
2667.00,0.5339
2666.00,0.5317
2665.00,0.5292
2664.00,0.5265
2663.00,0.5237
2662.00,0.5210
2661.00,0.5183
2660.00,0.5157
2659.00,0.5131
2658.00,0.5107
2657.00,0.5083
2656.00,0.5059
2655.00,0.5036
2654.00,0.5014
2653.00,0.4994
2652.00,0.4974
2651.00,0.4955
2650.00,0.4937
2649.00,0.4919
2648.00,0.4903
2647.00,0.4887
2646.00,0.4872
2645.00,0.4858
2644.00,0.4844
2643.00,0.4831
2642.00,0.4818
2641.00,0.4806
2640.00,0.4795
2639.00,0.4785
2638.00,0.4775
2637.00,0.4765
2636.00,0.4755
2635.00,0.4744
2634.00,0.4732
2633.00,0.4721
2632.00,0.4708
2631.00,0.4695
2630.00,0.4680
2629.00,0.4665
2628.00,0.4650
2627.00,0.4636
2626.00,0.4621
2625.00,0.4607
2624.00,0.4593
2623.00,0.4580
2622.00,0.4567
2621.00,0.4555
2620.00,0.4544
2619.00,0.4533
2618.00,0.4523
2617.00,0.4512
2616.00,0.4502
2615.00,0.4491
2614.00,0.4480
2613.00,0.4470
2612.00,0.4460
2611.00,0.4450
2610.00,0.4441
2609.00,0.4433
2608.00,0.4424
2607.00,0.4416
2606.00,0.4407
2605.00,0.4398
2604.00,0.4390
2603.00,0.4382
2602.00,0.4374
2601.00,0.4366
2600.00,0.4357
2599.00,0.4348
2598.00,0.4337
2597.00,0.4326
2596.00,0.4314
2595.00,0.4301
2594.00,0.4288
2593.00,0.4274
2592.00,0.4261
2591.00,0.4247
2590.00,0.4234
2589.00,0.4221
2588.00,0.4209
2587.00,0.4196
2586.00,0.4183
2585.00,0.4170
2584.00,0.4156
2583.00,0.4142
2582.00,0.4128
2581.00,0.4114
2580.00,0.4099
2579.00,0.4084
2578.00,0.4069
2577.00,0.4055
2576.00,0.4041
2575.00,0.4028
2574.00,0.4014
2573.00,0.4002
2572.00,0.3989
2571.00,0.3977
2570.00,0.3966
2569.00,0.3954
2568.00,0.3943
2567.00,0.3933
2566.00,0.3922
2565.00,0.3912
2564.00,0.3902
2563.00,0.3892
2562.00,0.3882
2561.00,0.3872
2560.00,0.3861
2559.00,0.3851
2558.00,0.3839
2557.00,0.3828
2556.00,0.3816
2555.00,0.3805
2554.00,0.3794
2553.00,0.3784
2552.00,0.3773
2551.00,0.3763
2550.00,0.3754
2549.00,0.3745
2548.00,0.3737
2547.00,0.3730
2546.00,0.3723
2545.00,0.3716
2544.00,0.3709
2543.00,0.3703
2542.00,0.3697
2541.00,0.3693
2540.00,0.3687
2539.00,0.3682
2538.00,0.3677
2537.00,0.3672
2536.00,0.3667
2535.00,0.3662
2534.00,0.3657
2533.00,0.3650
2532.00,0.3642
2531.00,0.3633
2530.00,0.3624
2529.00,0.3613
2528.00,0.3602
2527.00,0.3591
2526.00,0.3579
2525.00,0.3567
2524.00,0.3554
2523.00,0.3542
2522.00,0.3529
2521.00,0.3517
2520.00,0.3505
2519.00,0.3493
2518.00,0.3481
2517.00,0.3470
2516.00,0.3459
2515.00,0.3449
2514.00,0.3439
2513.00,0.3429
2512.00,0.3419
2511.00,0.3409
2510.00,0.3399
2509.00,0.3390
2508.00,0.3382
2507.00,0.3375
2506.00,0.3368
2505.00,0.3362
2504.00,0.3357
2503.00,0.3353
2502.00,0.3349
2501.00,0.3346
2500.00,0.3343
2499.00,0.3340
2498.00,0.3338
2497.00,0.3337
2496.00,0.3335
2495.00,0.3332
2494.00,0.3330
2493.00,0.3327
2492.00,0.3324
2491.00,0.3320
2490.00,0.3317
2489.00,0.3313
2488.00,0.3309
2487.00,0.3305
2486.00,0.3300
2485.00,0.3295
2484.00,0.3289
2483.00,0.3284
2482.00,0.3278
2481.00,0.3272
2480.00,0.3267
2479.00,0.3260
2478.00,0.3254
2477.00,0.3247
2476.00,0.3240
2475.00,0.3233
2474.00,0.3226
2473.00,0.3219
2472.00,0.3213
2471.00,0.3208
2470.00,0.3202
2469.00,0.3198
2468.00,0.3194
2467.00,0.3190
2466.00,0.3187
2465.00,0.3184
2464.00,0.3182
2463.00,0.3179
2462.00,0.3177
2461.00,0.3175
2460.00,0.3173
2459.00,0.3172
2458.00,0.3170
2457.00,0.3170
2456.00,0.3170
2455.00,0.3170
2454.00,0.3170
2453.00,0.3171
2452.00,0.3171
2451.00,0.3170
2450.00,0.3170
2449.00,0.3169
2448.00,0.3168
2447.00,0.3168
2446.00,0.3168
2445.00,0.3168
2444.00,0.3168
2443.00,0.3168
2442.00,0.3168
2441.00,0.3169
2440.00,0.3169
2439.00,0.3169
2438.00,0.3170
2437.00,0.3170
2436.00,0.3170
2435.00,0.3170
2434.00,0.3170
2433.00,0.3170
2432.00,0.3171
2431.00,0.3172
2430.00,0.3174
2429.00,0.3175
2428.00,0.3176
2427.00,0.3177
2426.00,0.3178
2425.00,0.3180
2424.00,0.3182
2423.00,0.3183
2422.00,0.3184
2421.00,0.3185
2420.00,0.3186
2419.00,0.3186
2418.00,0.3186
2417.00,0.3187
2416.00,0.3188
2415.00,0.3188
2414.00,0.3189
2413.00,0.3190
2412.00,0.3191
2411.00,0.3191
2410.00,0.3191
2409.00,0.3190
2408.00,0.3190
2407.00,0.3190
2406.00,0.3190
2405.00,0.3190
2404.00,0.3190
2403.00,0.3191
2402.00,0.3191
2401.00,0.3191
2400.00,0.3191
2399.00,0.3191
2398.00,0.3191
2397.00,0.3191
2396.00,0.3192
2395.00,0.3193
2394.00,0.3194
2393.00,0.3195
2392.00,0.3197
2391.00,0.3200
2390.00,0.3202
2389.00,0.3205
2388.00,0.3208
2387.00,0.3211
2386.00,0.3213
2385.00,0.3216
2384.00,0.3220
2383.00,0.3223
2382.00,0.3227
2381.00,0.3231
2380.00,0.3236
2379.00,0.3240
2378.00,0.3243
2377.00,0.3246
2376.00,0.3247
2375.00,0.3248
2374.00,0.3248
2373.00,0.3248
2372.00,0.3248
2371.00,0.3249
2370.00,0.3250
2369.00,0.3251
2368.00,0.3253
2367.00,0.3254
2366.00,0.3256
2365.00,0.3257
2364.00,0.3258
2363.00,0.3259
2362.00,0.3259
2361.00,0.3260
2360.00,0.3261
2359.00,0.3262
2358.00,0.3261
2357.00,0.3261
2356.00,0.3260
2355.00,0.3260
2354.00,0.3261
2353.00,0.3263
2352.00,0.3264
2351.00,0.3264
2350.00,0.3262
2349.00,0.3260
2348.00,0.3258
2347.00,0.3258
2346.00,0.3259
2345.00,0.3260
2344.00,0.3258
2343.00,0.3256
2342.00,0.3255
2341.00,0.3253
2340.00,0.3253
2339.00,0.3252
2338.00,0.3251
2337.00,0.3250
2336.00,0.3248
2335.00,0.3245
2334.00,0.3243
2333.00,0.3242
2332.00,0.3241
2331.00,0.3240
2330.00,0.3238
2329.00,0.3235
2328.00,0.3231
2327.00,0.3228
2326.00,0.3224
2325.00,0.3222
2324.00,0.3220
2323.00,0.3218
2322.00,0.3215
2321.00,0.3211
2320.00,0.3205
2319.00,0.3200
2318.00,0.3194
2317.00,0.3190
2316.00,0.3186
2315.00,0.3183
2314.00,0.3181
2313.00,0.3178
2312.00,0.3175
2311.00,0.3171
2310.00,0.3166
2309.00,0.3161
2308.00,0.3156
2307.00,0.3150
2306.00,0.3145
2305.00,0.3140
2304.00,0.3136
2303.00,0.3131
2302.00,0.3126
2301.00,0.3121
2300.00,0.3116
2299.00,0.3112
2298.00,0.3108
2297.00,0.3104
2296.00,0.3100
2295.00,0.3096
2294.00,0.3092
2293.00,0.3089
2292.00,0.3085
2291.00,0.3081
2290.00,0.3078
2289.00,0.3074
2288.00,0.3070
2287.00,0.3066
2286.00,0.3062
2285.00,0.3059
2284.00,0.3055
2283.00,0.3052
2282.00,0.3048
2281.00,0.3045
2280.00,0.3042
2279.00,0.3039
2278.00,0.3036
2277.00,0.3034
2276.00,0.3031
2275.00,0.3029
2274.00,0.3026
2273.00,0.3024
2272.00,0.3022
2271.00,0.3020
2270.00,0.3019
2269.00,0.3018
2268.00,0.3017
2267.00,0.3016
2266.00,0.3015
2265.00,0.3014
2264.00,0.3014
2263.00,0.3013
2262.00,0.3011
2261.00,0.3010
2260.00,0.3008
2259.00,0.3006
2258.00,0.3004
2257.00,0.3002
2256.00,0.3000
2255.00,0.2998
2254.00,0.2996
2253.00,0.2994
2252.00,0.2992
2251.00,0.2989
2250.00,0.2987
2249.00,0.2984
2248.00,0.2981
2247.00,0.2978
2246.00,0.2975
2245.00,0.2972
2244.00,0.2969
2243.00,0.2967
2242.00,0.2964
2241.00,0.2961
2240.00,0.2959
2239.00,0.2956
2238.00,0.2953
2237.00,0.2950
2236.00,0.2947
2235.00,0.2944
2234.00,0.2941
2233.00,0.2939
2232.00,0.2937
2231.00,0.2936
2230.00,0.2934
2229.00,0.2933
2228.00,0.2931
2227.00,0.2930
2226.00,0.2928
2225.00,0.2927
2224.00,0.2927
2223.00,0.2927
2222.00,0.2927
2221.00,0.2928
2220.00,0.2928
2219.00,0.2928
2218.00,0.2928
2217.00,0.2928
2216.00,0.2929
2215.00,0.2930
2214.00,0.2930
2213.00,0.2930
2212.00,0.2930
2211.00,0.2929
2210.00,0.2929
2209.00,0.2929
2208.00,0.2929
2207.00,0.2929
2206.00,0.2929
2205.00,0.2929
2204.00,0.2929
2203.00,0.2928
2202.00,0.2927
2201.00,0.2927
2200.00,0.2926
2199.00,0.2926
2198.00,0.2926
2197.00,0.2926
2196.00,0.2927
2195.00,0.2927
2194.00,0.2927
2193.00,0.2928
2192.00,0.2929
2191.00,0.2931
2190.00,0.2932
2189.00,0.2933
2188.00,0.2934
2187.00,0.2935
2186.00,0.2936
2185.00,0.2937
2184.00,0.2939
2183.00,0.2940
2182.00,0.2942
2181.00,0.2943
2180.00,0.2945
2179.00,0.2946
2178.00,0.2947
2177.00,0.2947
2176.00,0.2948
2175.00,0.2948
2174.00,0.2949
2173.00,0.2950
2172.00,0.2951
2171.00,0.2951
2170.00,0.2952
2169.00,0.2952
2168.00,0.2951
2167.00,0.2950
2166.00,0.2949
2165.00,0.2949
2164.00,0.2948
2163.00,0.2948
2162.00,0.2947
2161.00,0.2947
2160.00,0.2945
2159.00,0.2944
2158.00,0.2944
2157.00,0.2943
2156.00,0.2942
2155.00,0.2941
2154.00,0.2940
2153.00,0.2939
2152.00,0.2938
2151.00,0.2938
2150.00,0.2936
2149.00,0.2935
2148.00,0.2932
2147.00,0.2928
2146.00,0.2924
2145.00,0.2918
2144.00,0.2913
2143.00,0.2907
2142.00,0.2901
2141.00,0.2895
2140.00,0.2890
2139.00,0.2885
2138.00,0.2880
2137.00,0.2875
2136.00,0.2871
2135.00,0.2868
2134.00,0.2865
2133.00,0.2862
2132.00,0.2860
2131.00,0.2857
2130.00,0.2855
2129.00,0.2853
2128.00,0.2851
2127.00,0.2849
2126.00,0.2847
2125.00,0.2845
2124.00,0.2844
2123.00,0.2842
2122.00,0.2840
2121.00,0.2839
2120.00,0.2838
2119.00,0.2837
2118.00,0.2835
2117.00,0.2833
2116.00,0.2832
2115.00,0.2830
2114.00,0.2829
2113.00,0.2828
2112.00,0.2826
2111.00,0.2824
2110.00,0.2823
2109.00,0.2822
2108.00,0.2822
2107.00,0.2821
2106.00,0.2821
2105.00,0.2821
2104.00,0.2822
2103.00,0.2822
2102.00,0.2822
2101.00,0.2823
2100.00,0.2823
2099.00,0.2823
2098.00,0.2823
2097.00,0.2822
2096.00,0.2822
2095.00,0.2822
2094.00,0.2822
2093.00,0.2822
2092.00,0.2822
2091.00,0.2821
2090.00,0.2820
2089.00,0.2819
2088.00,0.2818
2087.00,0.2818
2086.00,0.2817
2085.00,0.2816
2084.00,0.2816
2083.00,0.2815
2082.00,0.2815
2081.00,0.2814
2080.00,0.2814
2079.00,0.2813
2078.00,0.2813
2077.00,0.2813
2076.00,0.2813
2075.00,0.2813
2074.00,0.2813
2073.00,0.2813
2072.00,0.2813
2071.00,0.2815
2070.00,0.2816
2069.00,0.2818
2068.00,0.2820
2067.00,0.2822
2066.00,0.2824
2065.00,0.2826
2064.00,0.2829
2063.00,0.2831
2062.00,0.2833
2061.00,0.2835
2060.00,0.2838
2059.00,0.2841
2058.00,0.2844
2057.00,0.2848
2056.00,0.2852
2055.00,0.2855
2054.00,0.2859
2053.00,0.2863
2052.00,0.2867
2051.00,0.2871
2050.00,0.2875
2049.00,0.2880
2048.00,0.2884
2047.00,0.2888
2046.00,0.2891
2045.00,0.2894
2044.00,0.2897
2043.00,0.2899
2042.00,0.2900
2041.00,0.2902
2040.00,0.2902
2039.00,0.2903
2038.00,0.2903
2037.00,0.2904
2036.00,0.2905
2035.00,0.2907
2034.00,0.2908
2033.00,0.2910
2032.00,0.2912
2031.00,0.2914
2030.00,0.2916
2029.00,0.2919
2028.00,0.2922
2027.00,0.2925
2026.00,0.2928
2025.00,0.2929
2024.00,0.2930
2023.00,0.2928
2022.00,0.2924
2021.00,0.2919
2020.00,0.2912
2019.00,0.2904
2018.00,0.2894
2017.00,0.2884
2016.00,0.2873
2015.00,0.2863
2014.00,0.2852
2013.00,0.2841
2012.00,0.2832
2011.00,0.2823
2010.00,0.2814
2009.00,0.2807
2008.00,0.2801
2007.00,0.2795
2006.00,0.2790
2005.00,0.2786
2004.00,0.2782
2003.00,0.2778
2002.00,0.2775
2001.00,0.2772
2000.00,0.2769
1999.00,0.2767
1998.00,0.2765
1997.00,0.2763
1996.00,0.2760
1995.00,0.2758
1994.00,0.2756
1993.00,0.2755
1992.00,0.2754
1991.00,0.2753
1990.00,0.2751
1989.00,0.2750
1988.00,0.2750
1987.00,0.2748
1986.00,0.2748
1985.00,0.2747
1984.00,0.2747
1983.00,0.2747
1982.00,0.2747
1981.00,0.2747
1980.00,0.2746
1979.00,0.2745
1978.00,0.2745
1977.00,0.2745
1976.00,0.2745
1975.00,0.2745
1974.00,0.2745
1973.00,0.2745
1972.00,0.2745
1971.00,0.2744
1970.00,0.2743
1969.00,0.2743
1968.00,0.2742
1967.00,0.2742
1966.00,0.2742
1965.00,0.2741
1964.00,0.2741
1963.00,0.2740
1962.00,0.2739
1961.00,0.2739
1960.00,0.2739
1959.00,0.2739
1958.00,0.2739
1957.00,0.2739
1956.00,0.2740
1955.00,0.2740
1954.00,0.2741
1953.00,0.2742
1952.00,0.2744
1951.00,0.2744
1950.00,0.2745
1949.00,0.2746
1948.00,0.2748
1947.00,0.2749
1946.00,0.2750
1945.00,0.2751
1944.00,0.2753
1943.00,0.2756
1942.00,0.2759
1941.00,0.2762
1940.00,0.2765
1939.00,0.2767
1938.00,0.2768
1937.00,0.2769
1936.00,0.2770
1935.00,0.2770
1934.00,0.2771
1933.00,0.2772
1932.00,0.2773
1931.00,0.2774
1930.00,0.2775
1929.00,0.2775
1928.00,0.2776
1927.00,0.2776
1926.00,0.2777
1925.00,0.2777
1924.00,0.2779
1923.00,0.2781
1922.00,0.2783
1921.00,0.2785
1920.00,0.2787
1919.00,0.2788
1918.00,0.2789
1917.00,0.2790
1916.00,0.2790
1915.00,0.2790
1914.00,0.2789
1913.00,0.2788
1912.00,0.2786
1911.00,0.2786
1910.00,0.2786
1909.00,0.2787
1908.00,0.2788
1907.00,0.2788
1906.00,0.2788
1905.00,0.2787
1904.00,0.2787
1903.00,0.2787
1902.00,0.2786
1901.00,0.2786
1900.00,0.2786
1899.00,0.2787
1898.00,0.2787
1897.00,0.2788
1896.00,0.2790
1895.00,0.2790
1894.00,0.2790
1893.00,0.2790
1892.00,0.2789
1891.00,0.2789
1890.00,0.2789
1889.00,0.2790
1888.00,0.2791
1887.00,0.2792
1886.00,0.2793
1885.00,0.2794
1884.00,0.2794
1883.00,0.2794
1882.00,0.2795
1881.00,0.2795
1880.00,0.2795
1879.00,0.2794
1878.00,0.2794
1877.00,0.2795
1876.00,0.2796
1875.00,0.2797
1874.00,0.2796
1873.00,0.2795
1872.00,0.2793
1871.00,0.2792
1870.00,0.2791
1869.00,0.2792
1868.00,0.2794
1867.00,0.2796
1866.00,0.2798
1865.00,0.2799
1864.00,0.2799
1863.00,0.2798
1862.00,0.2797
1861.00,0.2796
1860.00,0.2794
1859.00,0.2793
1858.00,0.2791
1857.00,0.2789
1856.00,0.2788
1855.00,0.2786
1854.00,0.2784
1853.00,0.2783
1852.00,0.2781
1851.00,0.2779
1850.00,0.2776
1849.00,0.2774
1848.00,0.2772
1847.00,0.2771
1846.00,0.2771
1845.00,0.2773
1844.00,0.2774
1843.00,0.2774
1842.00,0.2773
1841.00,0.2772
1840.00,0.2772
1839.00,0.2771
1838.00,0.2769
1837.00,0.2769
1836.00,0.2768
1835.00,0.2766
1834.00,0.2764
1833.00,0.2760
1832.00,0.2758
1831.00,0.2756
1830.00,0.2756
1829.00,0.2758
1828.00,0.2760
1827.00,0.2762
1826.00,0.2763
1825.00,0.2765
1824.00,0.2767
1823.00,0.2769
1822.00,0.2770
1821.00,0.2771
1820.00,0.2772
1819.00,0.2774
1818.00,0.2775
1817.00,0.2776
1816.00,0.2777
1815.00,0.2777
1814.00,0.2776
1813.00,0.2776
1812.00,0.2777
1811.00,0.2778
1810.00,0.2780
1809.00,0.2783
1808.00,0.2785
1807.00,0.2786
1806.00,0.2787
1805.00,0.2788
1804.00,0.2789
1803.00,0.2791
1802.00,0.2792
1801.00,0.2794
1800.00,0.2797
1799.00,0.2800
1798.00,0.2802
1797.00,0.2805
1796.00,0.2806
1795.00,0.2809
1794.00,0.2812
1793.00,0.2817
1792.00,0.2824
1791.00,0.2830
1790.00,0.2834
1789.00,0.2839
1788.00,0.2844
1787.00,0.2849
1786.00,0.2854
1785.00,0.2859
1784.00,0.2863
1783.00,0.2866
1782.00,0.2870
1781.00,0.2875
1780.00,0.2881
1779.00,0.2887
1778.00,0.2891
1777.00,0.2894
1776.00,0.2897
1775.00,0.2900
1774.00,0.2904
1773.00,0.2908
1772.00,0.2914
1771.00,0.2919
1770.00,0.2925
1769.00,0.2933
1768.00,0.2940
1767.00,0.2945
1766.00,0.2947
1765.00,0.2950
1764.00,0.2957
1763.00,0.2966
1762.00,0.2977
1761.00,0.2990
1760.00,0.3004
1759.00,0.3020
1758.00,0.3039
1757.00,0.3063
1756.00,0.3090
1755.00,0.3118
1754.00,0.3149
1753.00,0.3183
1752.00,0.3218
1751.00,0.3251
1750.00,0.3281
1749.00,0.3310
1748.00,0.3336
1747.00,0.3358
1746.00,0.3374
1745.00,0.3384
1744.00,0.3388
1743.00,0.3385
1742.00,0.3379
1741.00,0.3370
1740.00,0.3360
1739.00,0.3345
1738.00,0.3330
1737.00,0.3318
1736.00,0.3307
1735.00,0.3293
1734.00,0.3275
1733.00,0.3253
1732.00,0.3232
1731.00,0.3213
1730.00,0.3200
1729.00,0.3191
1728.00,0.3183
1727.00,0.3177
1726.00,0.3172
1725.00,0.3169
1724.00,0.3168
1723.00,0.3166
1722.00,0.3165
1721.00,0.3166
1720.00,0.3170
1719.00,0.3176
1718.00,0.3184
1717.00,0.3194
1716.00,0.3203
1715.00,0.3210
1714.00,0.3219
1713.00,0.3229
1712.00,0.3240
1711.00,0.3251
1710.00,0.3264
1709.00,0.3278
1708.00,0.3291
1707.00,0.3305
1706.00,0.3320
1705.00,0.3332
1704.00,0.3340
1703.00,0.3345
1702.00,0.3345
1701.00,0.3339
1700.00,0.3327
1699.00,0.3314
1698.00,0.3307
1697.00,0.3308
1696.00,0.3310
1695.00,0.3306
1694.00,0.3297
1693.00,0.3289
1692.00,0.3286
1691.00,0.3284
1690.00,0.3283
1689.00,0.3284
1688.00,0.3288
1687.00,0.3294
1686.00,0.3300
1685.00,0.3305
1684.00,0.3312
1683.00,0.3317
1682.00,0.3321
1681.00,0.3327
1680.00,0.3334
1679.00,0.3339
1678.00,0.3346
1677.00,0.3356
1676.00,0.3367
1675.00,0.3378
1674.00,0.3386
1673.00,0.3394
1672.00,0.3403
1671.00,0.3415
1670.00,0.3430
1669.00,0.3450
1668.00,0.3467
1667.00,0.3479
1666.00,0.3488
1665.00,0.3498
1664.00,0.3510
1663.00,0.3523
1662.00,0.3538
1661.00,0.3553
1660.00,0.3565
1659.00,0.3576
1658.00,0.3584
1657.00,0.3595
1656.00,0.3611
1655.00,0.3631
1654.00,0.3657
1653.00,0.3694
1652.00,0.3721
1651.00,0.3727
1650.00,0.3729
1649.00,0.3741
1648.00,0.3766
1647.00,0.3800
1646.00,0.3839
1645.00,0.3875
1644.00,0.3904
1643.00,0.3930
1642.00,0.3958
1641.00,0.3987
1640.00,0.4018
1639.00,0.4048
1638.00,0.4080
1637.00,0.4120
1636.00,0.4171
1635.00,0.4224
1634.00,0.4270
1633.00,0.4310
1632.00,0.4349
1631.00,0.4389
1630.00,0.4432
1629.00,0.4481
1628.00,0.4538
1627.00,0.4596
1626.00,0.4656
1625.00,0.4724
1624.00,0.4803
1623.00,0.4893
1622.00,0.4989
1621.00,0.5087
1620.00,0.5188
1619.00,0.5297
1618.00,0.5425
1617.00,0.5582
1616.00,0.5759
1615.00,0.5936
1614.00,0.6114
1613.00,0.6312
1612.00,0.6538
1611.00,0.6787
1610.00,0.7051
1609.00,0.7328
1608.00,0.7615
1607.00,0.7908
1606.00,0.8212
1605.00,0.8552
1604.00,0.8950
1603.00,0.9409
1602.00,0.9928
1601.00,1.0512
1600.00,1.1159
1599.00,1.1845
1598.00,1.2566
1597.00,1.3371
1596.00,1.4314
1595.00,1.5409
1594.00,1.6667
1593.00,1.8172
1592.00,2.0027
1591.00,2.2169
1590.00,2.4376
1589.00,2.6774
1588.00,2.9900
1587.00,3.3312
1586.00,3.4616
1585.00,3.6321
1584.00,4.1501
1583.00,4.3952
1582.00,3.9198
1581.00,3.6195
1580.00,3.9646
1579.00,4.2022
1578.00,3.8116
1577.00,3.6087
1576.00,3.4805
1575.00,3.1220
1574.00,2.7860
1573.00,2.5824
1572.00,2.4465
1571.00,2.3226
1570.00,2.2168
1569.00,2.1647
1568.00,2.1731
1567.00,2.2204
1566.00,2.2934
1565.00,2.4097
1564.00,2.5884
1563.00,2.7938
1562.00,2.9376
1561.00,3.0731
1560.00,3.3456
1559.00,3.4117
1558.00,3.0534
1557.00,2.7562
1556.00,2.4917
1555.00,2.2039
1554.00,1.9396
1553.00,1.7263
1552.00,1.5524
1551.00,1.4010
1550.00,1.2697
1549.00,1.1631
1548.00,1.0795
1547.00,1.0114
1546.00,0.9527
1545.00,0.9022
1544.00,0.8598
1543.00,0.8235
1542.00,0.7907
1541.00,0.7604
1540.00,0.7329
1539.00,0.7089
1538.00,0.6898
1537.00,0.6759
1536.00,0.6660
1535.00,0.6582
1534.00,0.6526
1533.00,0.6509
1532.00,0.6534
1531.00,0.6592
1530.00,0.6676
1529.00,0.6786
1528.00,0.6913
1527.00,0.7040
1526.00,0.7152
1525.00,0.7253
1524.00,0.7349
1523.00,0.7454
1522.00,0.7588
1521.00,0.7756
1520.00,0.7927
1519.00,0.8068
1518.00,0.8163
1517.00,0.8202
1516.00,0.8167
1515.00,0.8048
1514.00,0.7867
1513.00,0.7653
1512.00,0.7434
1511.00,0.7232
1510.00,0.7064
1509.00,0.6934
1508.00,0.6840
1507.00,0.6782
1506.00,0.6763
1505.00,0.6778
1504.00,0.6818
1503.00,0.6876
1502.00,0.6947
1501.00,0.7030
1500.00,0.7116
1499.00,0.7194
1498.00,0.7260
1497.00,0.7324
1496.00,0.7391
1495.00,0.7457
1494.00,0.7529
1493.00,0.7621
1492.00,0.7745
1491.00,0.7905
1490.00,0.8106
1489.00,0.8346
1488.00,0.8615
1487.00,0.8901
1486.00,0.9198
1485.00,0.9513
1484.00,0.9846
1483.00,1.0197
1482.00,1.0579
1481.00,1.1005
1480.00,1.1475
1479.00,1.1995
1478.00,1.2602
1477.00,1.3350
1476.00,1.4277
1475.00,1.5407
1474.00,1.6829
1473.00,1.8721
1472.00,2.1207
1471.00,2.4160
1470.00,2.7204
1469.00,3.0089
1468.00,3.2738
1467.00,3.4496
1466.00,3.4986
1465.00,3.5253
1464.00,3.5267
1463.00,3.4427
1462.00,3.3718
1461.00,3.4105
1460.00,3.5478
1459.00,3.6488
1458.00,3.6529
1457.00,3.6802
1456.00,3.6617
1455.00,3.5444
1454.00,3.4775
1453.00,3.5158
1452.00,3.5717
1451.00,3.4942
1450.00,3.3768
1449.00,3.3497
1448.00,3.3973
1447.00,3.4410
1446.00,3.4754
1445.00,3.5236
1444.00,3.4871
1443.00,3.3267
1442.00,3.1595
1441.00,3.0478
1440.00,2.9634
1439.00,2.8684
1438.00,2.7659
1437.00,2.6570
1436.00,2.5245
1435.00,2.3734
1434.00,2.2247
1433.00,2.0839
1432.00,1.9470
1431.00,1.8162
1430.00,1.6991
1429.00,1.6006
1428.00,1.5216
1427.00,1.4604
1426.00,1.4154
1425.00,1.3855
1424.00,1.3694
1423.00,1.3648
1422.00,1.3675
1421.00,1.3735
1420.00,1.3800
1419.00,1.3865
1418.00,1.3954
1417.00,1.4104
1416.00,1.4333
1415.00,1.4605
1414.00,1.4828
1413.00,1.4893
1412.00,1.4748
1411.00,1.4445
1410.00,1.4105
1409.00,1.3813
1408.00,1.3579
1407.00,1.3353
1406.00,1.3073
1405.00,1.2710
1404.00,1.2292
1403.00,1.1877
1402.00,1.1519
1401.00,1.1244
1400.00,1.1065
1399.00,1.0980
1398.00,1.0967
1397.00,1.0978
1396.00,1.0956
1395.00,1.0861
1394.00,1.0689
1393.00,1.0477
1392.00,1.0270
1391.00,1.0097
1390.00,0.9977
1389.00,0.9928
1388.00,0.9964
1387.00,1.0098
1386.00,1.0336
1385.00,1.0699
1384.00,1.1231
1383.00,1.1990
1382.00,1.3023
1381.00,1.4342
1380.00,1.5867
1379.00,1.7300
1378.00,1.8076
1377.00,1.7826
1376.00,1.6855
1375.00,1.5690
1374.00,1.4666
1373.00,1.3921
1372.00,1.3469
1371.00,1.3261
1370.00,1.3236
1369.00,1.3327
1368.00,1.3436
1367.00,1.3445
1366.00,1.3264
1365.00,1.2884
1364.00,1.2359
1363.00,1.1775
1362.00,1.1218
1361.00,1.0749
1360.00,1.0386
1359.00,1.0120
1358.00,0.9933
1357.00,0.9811
1356.00,0.9741
1355.00,0.9711
1354.00,0.9711
1353.00,0.9728
1352.00,0.9749
1351.00,0.9765
1350.00,0.9777
1349.00,0.9800
1348.00,0.9854
1347.00,0.9961
1346.00,1.0142
1345.00,1.0403
1344.00,1.0727
1343.00,1.1059
1342.00,1.1318
1341.00,1.1410
1340.00,1.1277
1339.00,1.0928
1338.00,1.0436
1337.00,0.9898
1336.00,0.9382
1335.00,0.8926
1334.00,0.8544
1333.00,0.8232
1332.00,0.7982
1331.00,0.7792
1330.00,0.7662
1329.00,0.7595
1328.00,0.7600
1327.00,0.7684
1326.00,0.7844
1325.00,0.8040
1324.00,0.8198
1323.00,0.8243
1322.00,0.8159
1321.00,0.7998
1320.00,0.7833
1319.00,0.7710
1318.00,0.7644
1317.00,0.7625
1316.00,0.7643
1315.00,0.7688
1314.00,0.7754
1313.00,0.7836
1312.00,0.7931
1311.00,0.8029
1310.00,0.8126
1309.00,0.8219
1308.00,0.8310
1307.00,0.8406
1306.00,0.8508
1305.00,0.8610
1304.00,0.8692
1303.00,0.8718
1302.00,0.8670
1301.00,0.8565
1300.00,0.8448
1299.00,0.8360
1298.00,0.8310
1297.00,0.8272
1296.00,0.8199
1295.00,0.8063
1294.00,0.7873
1293.00,0.7670
1292.00,0.7490
1291.00,0.7348
1290.00,0.7236
1289.00,0.7142
1288.00,0.7056
1287.00,0.6970
1286.00,0.6877
1285.00,0.6775
1284.00,0.6666
1283.00,0.6557
1282.00,0.6456
1281.00,0.6368
1280.00,0.6296
1279.00,0.6241
1278.00,0.6200
1277.00,0.6169
1276.00,0.6148
1275.00,0.6140
1274.00,0.6144
1273.00,0.6164
1272.00,0.6200
1271.00,0.6248
1270.00,0.6300
1269.00,0.6342
1268.00,0.6361
1267.00,0.6352
1266.00,0.6314
1265.00,0.6254
1264.00,0.6179
1263.00,0.6100
1262.00,0.6026
1261.00,0.5967
1260.00,0.5930
1259.00,0.5913
1258.00,0.5907
1257.00,0.5901
1256.00,0.5891
1255.00,0.5875
1254.00,0.5855
1253.00,0.5832
1252.00,0.5809
1251.00,0.5785
1250.00,0.5763
1249.00,0.5743
1248.00,0.5724
1247.00,0.5707
1246.00,0.5689
1245.00,0.5668
1244.00,0.5645
1243.00,0.5621
1242.00,0.5596
1241.00,0.5572
1240.00,0.5555
1239.00,0.5552
1238.00,0.5567
1237.00,0.5601
1236.00,0.5649
1235.00,0.5710
1234.00,0.5778
1233.00,0.5849
1232.00,0.5922
1231.00,0.5996
1230.00,0.6063
1229.00,0.6116
1228.00,0.6149
1227.00,0.6162
1226.00,0.6159
1225.00,0.6149
1224.00,0.6137
1223.00,0.6128
1222.00,0.6118
1221.00,0.6099
1220.00,0.6060
1219.00,0.5999
1218.00,0.5929
1217.00,0.5870
1216.00,0.5844
1215.00,0.5858
1214.00,0.5896
1213.00,0.5924
1212.00,0.5902
1211.00,0.5812
1210.00,0.5667
1209.00,0.5507
1208.00,0.5367
1207.00,0.5266
1206.00,0.5203
1205.00,0.5168
1204.00,0.5148
1203.00,0.5136
1202.00,0.5131
1201.00,0.5136
1200.00,0.5155
1199.00,0.5192
1198.00,0.5244
1197.00,0.5305
1196.00,0.5370
1195.00,0.5431
1194.00,0.5488
1193.00,0.5539
1192.00,0.5585
1191.00,0.5623
1190.00,0.5643
1189.00,0.5639
1188.00,0.5610
1187.00,0.5567
1186.00,0.5520
1185.00,0.5478
1184.00,0.5445
1183.00,0.5419
1182.00,0.5400
1181.00,0.5383
1180.00,0.5366
1179.00,0.5347
1178.00,0.5324
1177.00,0.5294
1176.00,0.5257
1175.00,0.5215
1174.00,0.5171
1173.00,0.5126
1172.00,0.5080
1171.00,0.5034
1170.00,0.4991
1169.00,0.4951
1168.00,0.4915
1167.00,0.4885
1166.00,0.4859
1165.00,0.4838
1164.00,0.4822
1163.00,0.4812
1162.00,0.4811
1161.00,0.4821
1160.00,0.4843
1159.00,0.4879
1158.00,0.4934
1157.00,0.5016
1156.00,0.5139
1155.00,0.5322
1154.00,0.5570
1153.00,0.5846
1152.00,0.6067
1151.00,0.6148
1150.00,0.6080
1149.00,0.5935
1148.00,0.5797
1147.00,0.5706
1146.00,0.5663
1145.00,0.5654
1144.00,0.5674
1143.00,0.5723
1142.00,0.5804
1141.00,0.5922
1140.00,0.6079
1139.00,0.6266
1138.00,0.6460
1137.00,0.6632
1136.00,0.6763
1135.00,0.6841
1134.00,0.6865
1133.00,0.6829
1132.00,0.6733
1131.00,0.6585
1130.00,0.6409
1129.00,0.6235
1128.00,0.6088
1127.00,0.5978
1126.00,0.5903
1125.00,0.5859
1124.00,0.5839
1123.00,0.5836
1122.00,0.5844
1121.00,0.5858
1120.00,0.5881
1119.00,0.5919
1118.00,0.5980
1117.00,0.6064
1116.00,0.6163
1115.00,0.6253
1114.00,0.6300
1113.00,0.6277
1112.00,0.6180
1111.00,0.6030
1110.00,0.5861
1109.00,0.5702
1108.00,0.5570
1107.00,0.5470
1106.00,0.5402
1105.00,0.5358
1104.00,0.5335
1103.00,0.5326
1102.00,0.5324
1101.00,0.5326
1100.00,0.5327
1099.00,0.5325
1098.00,0.5319
1097.00,0.5307
1096.00,0.5291
1095.00,0.5274
1094.00,0.5257
1093.00,0.5243
1092.00,0.5239
1091.00,0.5247
1090.00,0.5270
1089.00,0.5308
1088.00,0.5363
1087.00,0.5437
1086.00,0.5530
1085.00,0.5642
1084.00,0.5773
1083.00,0.5920
1082.00,0.6081
1081.00,0.6245
1080.00,0.6403
1079.00,0.6540
1078.00,0.6642
1077.00,0.6701
1076.00,0.6712
1075.00,0.6676
1074.00,0.6602
1073.00,0.6506
1072.00,0.6402
1071.00,0.6301
1070.00,0.6209
1069.00,0.6131
1068.00,0.6068
1067.00,0.6022
1066.00,0.5991
1065.00,0.5972
1064.00,0.5964
1063.00,0.5967
1062.00,0.5975
1061.00,0.5986
1060.00,0.5996
1059.00,0.6003
1058.00,0.6008
1057.00,0.6008
1056.00,0.6006
1055.00,0.6003
1054.00,0.6001
1053.00,0.6002
1052.00,0.6011
1051.00,0.6030
1050.00,0.6059
1049.00,0.6096
1048.00,0.6138
1047.00,0.6182
1046.00,0.6223
1045.00,0.6258
1044.00,0.6287
1043.00,0.6312
1042.00,0.6337
1041.00,0.6365
1040.00,0.6397
1039.00,0.6433
1038.00,0.6471
1037.00,0.6507
1036.00,0.6544
1035.00,0.6588
1034.00,0.6646
1033.00,0.6721
1032.00,0.6817
1031.00,0.6929
1030.00,0.7050
1029.00,0.7164
1028.00,0.7252
1027.00,0.7300
1026.00,0.7303
1025.00,0.7271
1024.00,0.7218
1023.00,0.7158
1022.00,0.7105
1021.00,0.7068
1020.00,0.7048
1019.00,0.7046
1018.00,0.7058
1017.00,0.7080
1016.00,0.7110
1015.00,0.7141
1014.00,0.7173
1013.00,0.7204
1012.00,0.7236
1011.00,0.7271
1010.00,0.7310
1009.00,0.7351
1008.00,0.7395
1007.00,0.7441
1006.00,0.7488
1005.00,0.7536
1004.00,0.7587
1003.00,0.7638
1002.00,0.7681
1001.00,0.7704
1000.00,0.7696
999.00,0.7654
998.00,0.7578
997.00,0.7478
996.00,0.7360
995.00,0.7231
994.00,0.7098
993.00,0.6960
992.00,0.6818
991.00,0.6672
990.00,0.6528
989.00,0.6391
988.00,0.6264
987.00,0.6147
986.00,0.6041
985.00,0.5943
984.00,0.5855
983.00,0.5773
982.00,0.5697
981.00,0.5624
980.00,0.5554
979.00,0.5484
978.00,0.5413
977.00,0.5344
976.00,0.5280
975.00,0.5222
974.00,0.5171
973.00,0.5128
972.00,0.5094
971.00,0.5072
970.00,0.5061
969.00,0.5061
968.00,0.5068
967.00,0.5080
966.00,0.5092
965.00,0.5099
964.00,0.5098
963.00,0.5084
962.00,0.5058
961.00,0.5026
960.00,0.4992
959.00,0.4965
958.00,0.4947
957.00,0.4939
956.00,0.4939
955.00,0.4942
954.00,0.4945
953.00,0.4944
952.00,0.4937
951.00,0.4928
950.00,0.4920
949.00,0.4918
948.00,0.4925
947.00,0.4941
946.00,0.4963
945.00,0.4985
944.00,0.5001
943.00,0.5008
942.00,0.5004
941.00,0.4989
940.00,0.4966
939.00,0.4937
938.00,0.4906
937.00,0.4877
936.00,0.4852
935.00,0.4834
934.00,0.4824
933.00,0.4824
932.00,0.4837
931.00,0.4868
930.00,0.4924
929.00,0.5009
928.00,0.5125
927.00,0.5262
926.00,0.5405
925.00,0.5533
924.00,0.5632
923.00,0.5696
922.00,0.5729
921.00,0.5738
920.00,0.5730
919.00,0.5713
918.00,0.5692
917.00,0.5655
916.00,0.5571
915.00,0.5414
914.00,0.5196
913.00,0.4961
912.00,0.4755
911.00,0.4597
910.00,0.4483
909.00,0.4399
908.00,0.4335
907.00,0.4286
906.00,0.4248
905.00,0.4220
904.00,0.4202
903.00,0.4194
902.00,0.4195
901.00,0.4202
900.00,0.4216
899.00,0.4237
898.00,0.4267
897.00,0.4305
896.00,0.4351
895.00,0.4406
894.00,0.4468
893.00,0.4534
892.00,0.4600
891.00,0.4657
890.00,0.4695
889.00,0.4705
888.00,0.4684
887.00,0.4637
886.00,0.4572
885.00,0.4501
884.00,0.4437
883.00,0.4388
882.00,0.4355
881.00,0.4338
880.00,0.4332
879.00,0.4334
878.00,0.4339
877.00,0.4345
876.00,0.4351
875.00,0.4357
874.00,0.4365
873.00,0.4373
872.00,0.4385
871.00,0.4401
870.00,0.4425
869.00,0.4464
868.00,0.4525
867.00,0.4613
866.00,0.4733
865.00,0.4878
864.00,0.5031
863.00,0.5164
862.00,0.5243
861.00,0.5249
860.00,0.5188
859.00,0.5082
858.00,0.4958
857.00,0.4840
856.00,0.4745
855.00,0.4678
854.00,0.4635
853.00,0.4612
852.00,0.4602
851.00,0.4602
850.00,0.4606
849.00,0.4614
848.00,0.4625
847.00,0.4640
846.00,0.4658
845.00,0.4680
844.00,0.4706
843.00,0.4743
842.00,0.4800
841.00,0.4885
840.00,0.5005
839.00,0.5155
838.00,0.5310
837.00,0.5434
836.00,0.5485
835.00,0.5444
834.00,0.5321
833.00,0.5152
832.00,0.4981
831.00,0.4837
830.00,0.4734
829.00,0.4672
828.00,0.4647
827.00,0.4653
826.00,0.4682
825.00,0.4729
824.00,0.4787
823.00,0.4845
822.00,0.4888
821.00,0.4907
820.00,0.4895
819.00,0.4857
818.00,0.4799
817.00,0.4734
816.00,0.4671
815.00,0.4615
814.00,0.4567
813.00,0.4527
812.00,0.4493
811.00,0.4464
810.00,0.4435
809.00,0.4405
808.00,0.4374
807.00,0.4346
806.00,0.4319
805.00,0.4296
804.00,0.4278
803.00,0.4268
802.00,0.4267
801.00,0.4272
800.00,0.4285
799.00,0.4304
798.00,0.4327
797.00,0.4349
796.00,0.4369
795.00,0.4391
794.00,0.4417
793.00,0.4446
792.00,0.4478
791.00,0.4510
790.00,0.4539
789.00,0.4563
788.00,0.4581
787.00,0.4598
786.00,0.4623
785.00,0.4664
784.00,0.4726
783.00,0.4805
782.00,0.4888
781.00,0.4954
780.00,0.4983
779.00,0.4961
778.00,0.4894
777.00,0.4800
776.00,0.4705
775.00,0.4627
774.00,0.4577
773.00,0.4559
772.00,0.4571
771.00,0.4613
770.00,0.4686
769.00,0.4790
768.00,0.4918
767.00,0.5049
766.00,0.5157
765.00,0.5227
764.00,0.5265
763.00,0.5293
762.00,0.5326
761.00,0.5371
760.00,0.5422
759.00,0.5470
758.00,0.5512
757.00,0.5554
756.00,0.5604
755.00,0.5664
754.00,0.5726
753.00,0.5781
752.00,0.5832
751.00,0.5896
750.00,0.5995
749.00,0.6139
748.00,0.6328
747.00,0.6544
746.00,0.6761
745.00,0.6937
744.00,0.7034
743.00,0.7037
742.00,0.6966
741.00,0.6865
740.00,0.6779
739.00,0.6734
738.00,0.6738
737.00,0.6791
736.00,0.6887
735.00,0.7025
734.00,0.7202
733.00,0.7418
732.00,0.7676
731.00,0.7984
730.00,0.8356
729.00,0.8810
728.00,0.9362
727.00,1.0026
726.00,1.0796
725.00,1.1643
724.00,1.2498
723.00,1.3217
722.00,1.3567
721.00,1.3353
720.00,1.2628
719.00,1.1657
718.00,1.0676
717.00,0.9803
716.00,0.9075
715.00,0.8490
714.00,0.8023
713.00,0.7643
712.00,0.7327
711.00,0.7059
710.00,0.6829
709.00,0.6629
708.00,0.6455
707.00,0.6308
706.00,0.6184
705.00,0.6079
704.00,0.5991
703.00,0.5917
702.00,0.5858
701.00,0.5808
700.00,0.5765
699.00,0.5728
698.00,0.5690
697.00,0.5648
696.00,0.5600
695.00,0.5555
694.00,0.5521
693.00,0.5505
692.00,0.5502
691.00,0.5505
690.00,0.5502
689.00,0.5486
688.00,0.5461
687.00,0.5436
686.00,0.5420
685.00,0.5419
684.00,0.5432
683.00,0.5458
682.00,0.5492
681.00,0.5528
680.00,0.5563
679.00,0.5595
678.00,0.5622
677.00,0.5642
676.00,0.5653
675.00,0.5653
674.00,0.5643
673.00,0.5627
672.00,0.5608
671.00,0.5589
670.00,0.5570
669.00,0.5550
668.00,0.5528
667.00,0.5510
666.00,0.5509
665.00,0.5519
664.00,0.5525
663.00,0.5523
662.00,0.5509
661.00,0.5484
660.00,0.5448
659.00,0.5403
658.00,0.5353
657.00,0.5303
656.00,0.5258
655.00,0.5224
654.00,0.5201
653.00,0.5187
652.00,0.5183
651.00,0.5190
650.00,0.5207
649.00,0.5229
648.00,0.5255
647.00,0.5286
646.00,0.5322
645.00,0.5358
644.00,0.5391
643.00,0.5418
642.00,0.5434
641.00,0.5433
640.00,0.5413
639.00,0.5376
638.00,0.5327
637.00,0.5269
636.00,0.5209
635.00,0.5151
634.00,0.5098
633.00,0.5055
632.00,0.5024
631.00,0.5007
630.00,0.5004
629.00,0.5014
628.00,0.5035
627.00,0.5069
626.00,0.5116
625.00,0.5173
624.00,0.5240
623.00,0.5315
622.00,0.5398
621.00,0.5485
620.00,0.5573
619.00,0.5656
618.00,0.5726
617.00,0.5776
616.00,0.5800
615.00,0.5792
614.00,0.5756
613.00,0.5698
612.00,0.5631
611.00,0.5562
610.00,0.5500
609.00,0.5446
608.00,0.5406
607.00,0.5381
606.00,0.5373
605.00,0.5381
604.00,0.5406
603.00,0.5443
602.00,0.5485
601.00,0.5526
600.00,0.5563
599.00,0.5594
598.00,0.5613
597.00,0.5615
596.00,0.5605
595.00,0.5591
594.00,0.5578
593.00,0.5566
592.00,0.5552
591.00,0.5537
590.00,0.5525
589.00,0.5521
588.00,0.5525
587.00,0.5536
586.00,0.5551
585.00,0.5569
584.00,0.5592
583.00,0.5618
582.00,0.5647
581.00,0.5676
580.00,0.5711
579.00,0.5754
578.00,0.5806
577.00,0.5866
576.00,0.5935
575.00,0.6014
574.00,0.6102
573.00,0.6201
572.00,0.6313
571.00,0.6441
570.00,0.6584
569.00,0.6738
568.00,0.6893
567.00,0.7041
566.00,0.7173
565.00,0.7291
564.00,0.7401
563.00,0.7499
562.00,0.7573
561.00,0.7618
560.00,0.7635
559.00,0.7628
558.00,0.7598
557.00,0.7546
556.00,0.7477
555.00,0.7392
554.00,0.7302
553.00,0.7216
552.00,0.7142
551.00,0.7078
550.00,0.7024
