Created as New Dataset,
cm-1,A
4000.00,0.3993
3999.00,0.3992
3998.00,0.3991
3997.00,0.3991
3996.00,0.3990
3995.00,0.3988
3994.00,0.3986
3993.00,0.3983
3992.00,0.3980
3991.00,0.3976
3990.00,0.3971
3989.00,0.3966
3988.00,0.3961
3987.00,0.3957
3986.00,0.3952
3985.00,0.3946
3984.00,0.3941
3983.00,0.3936
3982.00,0.3931
3981.00,0.3926
3980.00,0.3921
3979.00,0.3917
3978.00,0.3913
3977.00,0.3910
3976.00,0.3908
3975.00,0.3905
3974.00,0.3902
3973.00,0.3899
3972.00,0.3896
3971.00,0.3894
3970.00,0.3891
3969.00,0.3888
3968.00,0.3884
3967.00,0.3880
3966.00,0.3876
3965.00,0.3871
3964.00,0.3866
3963.00,0.3861
3962.00,0.3856
3961.00,0.3851
3960.00,0.3846
3959.00,0.3841
3958.00,0.3836
3957.00,0.3832
3956.00,0.3827
3955.00,0.3822
3954.00,0.3818
3953.00,0.3815
3952.00,0.3811
3951.00,0.3808
3950.00,0.3804
3949.00,0.3799
3948.00,0.3795
3947.00,0.3792
3946.00,0.3789
3945.00,0.3787
3944.00,0.3785
3943.00,0.3783
3942.00,0.3782
3941.00,0.3780
3940.00,0.3778
3939.00,0.3775
3938.00,0.3773
3937.00,0.3772
3936.00,0.3772
3935.00,0.3773
3934.00,0.3774
3933.00,0.3774
3932.00,0.3774
3931.00,0.3774
3930.00,0.3774
3929.00,0.3774
3928.00,0.3774
3927.00,0.3774
3926.00,0.3774
3925.00,0.3775
3924.00,0.3775
3923.00,0.3774
3922.00,0.3774
3921.00,0.3773
3920.00,0.3773
3919.00,0.3772
3918.00,0.3770
3917.00,0.3769
3916.00,0.3768
3915.00,0.3767
3914.00,0.3765
3913.00,0.3763
3912.00,0.3760
3911.00,0.3758
3910.00,0.3757
3909.00,0.3755
3908.00,0.3754
3907.00,0.3753
3906.00,0.3752
3905.00,0.3751
3904.00,0.3750
3903.00,0.3750
3902.00,0.3749
3901.00,0.3749
3900.00,0.3749
3899.00,0.3749
3898.00,0.3749
3897.00,0.3748
3896.00,0.3747
3895.00,0.3745
3894.00,0.3743
3893.00,0.3741
3892.00,0.3739
3891.00,0.3739
3890.00,0.3740
3889.00,0.3739
3888.00,0.3737
3887.00,0.3735
3886.00,0.3733
3885.00,0.3732
3884.00,0.3732
3883.00,0.3731
3882.00,0.3730
3881.00,0.3728
3880.00,0.3727
3879.00,0.3727
3878.00,0.3725
3877.00,0.3723
3876.00,0.3720
3875.00,0.3719
3874.00,0.3720
3873.00,0.3720
3872.00,0.3719
3871.00,0.3717
3870.00,0.3715
3869.00,0.3715
3868.00,0.3714
3867.00,0.3712
3866.00,0.3710
3865.00,0.3709
3864.00,0.3709
3863.00,0.3708
3862.00,0.3706
3861.00,0.3704
3860.00,0.3703
3859.00,0.3703
3858.00,0.3704
3857.00,0.3705
3856.00,0.3704
3855.00,0.3704
3854.00,0.3705
3853.00,0.3707
3852.00,0.3709
3851.00,0.3708
3850.00,0.3707
3849.00,0.3706
3848.00,0.3705
3847.00,0.3705
3846.00,0.3703
3845.00,0.3701
3844.00,0.3699
3843.00,0.3698
3842.00,0.3697
3841.00,0.3696
3840.00,0.3695
3839.00,0.3693
3838.00,0.3692
3837.00,0.3691
3836.00,0.3690
3835.00,0.3689
3834.00,0.3687
3833.00,0.3684
3832.00,0.3680
3831.00,0.3678
3830.00,0.3676
3829.00,0.3674
3828.00,0.3673
3827.00,0.3671
3826.00,0.3670
3825.00,0.3670
3824.00,0.3669
3823.00,0.3667
3822.00,0.3666
3821.00,0.3666
3820.00,0.3667
3819.00,0.3666
3818.00,0.3665
3817.00,0.3662
3816.00,0.3662
3815.00,0.3661
3814.00,0.3659
3813.00,0.3656
3812.00,0.3653
3811.00,0.3651
3810.00,0.3650
3809.00,0.3648
3808.00,0.3645
3807.00,0.3643
3806.00,0.3643
3805.00,0.3642
3804.00,0.3641
3803.00,0.3638
3802.00,0.3635
3801.00,0.3635
3800.00,0.3634
3799.00,0.3631
3798.00,0.3627
3797.00,0.3624
3796.00,0.3622
3795.00,0.3621
3794.00,0.3619
3793.00,0.3616
3792.00,0.3613
3791.00,0.3610
3790.00,0.3609
3789.00,0.3607
3788.00,0.3606
3787.00,0.3605
3786.00,0.3604
3785.00,0.3603
3784.00,0.3603
3783.00,0.3604
3782.00,0.3605
3781.00,0.3606
3780.00,0.3607
3779.00,0.3608
3778.00,0.3608
3777.00,0.3607
3776.00,0.3607
3775.00,0.3608
3774.00,0.3610
3773.00,0.3611
3772.00,0.3611
3771.00,0.3610
3770.00,0.3610
3769.00,0.3609
3768.00,0.3609
3767.00,0.3607
3766.00,0.3605
3765.00,0.3605
3764.00,0.3604
3763.00,0.3603
3762.00,0.3602
3761.00,0.3600
3760.00,0.3598
3759.00,0.3597
3758.00,0.3595
3757.00,0.3592
3756.00,0.3590
3755.00,0.3588
3754.00,0.3587
3753.00,0.3587
3752.00,0.3587
3751.00,0.3586
3750.00,0.3586
3749.00,0.3586
3748.00,0.3587
3747.00,0.3587
3746.00,0.3586
3745.00,0.3585
3744.00,0.3586
3743.00,0.3586
3742.00,0.3584
3741.00,0.3582
3740.00,0.3582
3739.00,0.3583
3738.00,0.3583
3737.00,0.3581
3736.00,0.3581
3735.00,0.3581
3734.00,0.3580
3733.00,0.3579
3732.00,0.3578
3731.00,0.3577
3730.00,0.3575
3729.00,0.3572
3728.00,0.3570
3727.00,0.3567
3726.00,0.3566
3725.00,0.3564
3724.00,0.3563
3723.00,0.3561
3722.00,0.3561
3721.00,0.3560
3720.00,0.3558
3719.00,0.3556
3718.00,0.3554
3717.00,0.3553
3716.00,0.3553
3715.00,0.3553
3714.00,0.3554
3713.00,0.3555
3712.00,0.3556
3711.00,0.3557
3710.00,0.3559
3709.00,0.3561
3708.00,0.3562
3707.00,0.3564
3706.00,0.3565
3705.00,0.3566
3704.00,0.3567
3703.00,0.3568
3702.00,0.3569
3701.00,0.3570
3700.00,0.3571
3699.00,0.3572
3698.00,0.3572
3697.00,0.3572
3696.00,0.3574
3695.00,0.3575
3694.00,0.3576
3693.00,0.3577
3692.00,0.3579
3691.00,0.3579
3690.00,0.3579
3689.00,0.3579
3688.00,0.3580
3687.00,0.3580
3686.00,0.3580
3685.00,0.3579
3684.00,0.3579
3683.00,0.3579
3682.00,0.3580
3681.00,0.3580
3680.00,0.3580
3679.00,0.3580
3678.00,0.3580
3677.00,0.3579
3676.00,0.3578
3675.00,0.3580
3674.00,0.3582
3673.00,0.3584
3672.00,0.3585
3671.00,0.3587
3670.00,0.3589
3669.00,0.3591
3668.00,0.3591
3667.00,0.3591
3666.00,0.3591
3665.00,0.3593
3664.00,0.3595
3663.00,0.3597
3662.00,0.3599
3661.00,0.3601
3660.00,0.3603
3659.00,0.3605
3658.00,0.3607
3657.00,0.3609
3656.00,0.3612
3655.00,0.3616
3654.00,0.3620
3653.00,0.3623
3652.00,0.3627
3651.00,0.3631
3650.00,0.3636
3649.00,0.3641
3648.00,0.3645
3647.00,0.3648
3646.00,0.3652
3645.00,0.3656
3644.00,0.3661
3643.00,0.3665
3642.00,0.3671
3641.00,0.3678
3640.00,0.3686
3639.00,0.3694
3638.00,0.3704
3637.00,0.3715
3636.00,0.3725
3635.00,0.3736
3634.00,0.3747
3633.00,0.3760
3632.00,0.3774
3631.00,0.3793
3630.00,0.3819
3629.00,0.3852
3628.00,0.3887
3627.00,0.3916
3626.00,0.3937
3625.00,0.3949
3624.00,0.3952
3623.00,0.3945
3622.00,0.3929
3621.00,0.3905
3620.00,0.3875
3619.00,0.3844
3618.00,0.3816
3617.00,0.3792
3616.00,0.3774
3615.00,0.3760
3614.00,0.3750
3613.00,0.3744
3612.00,0.3741
3611.00,0.3739
3610.00,0.3740
3609.00,0.3741
3608.00,0.3743
3607.00,0.3744
3606.00,0.3745
3605.00,0.3744
3604.00,0.3742
3603.00,0.3739
3602.00,0.3734
3601.00,0.3727
3600.00,0.3720
3599.00,0.3711
3598.00,0.3702
3597.00,0.3693
3596.00,0.3684
3595.00,0.3674
3594.00,0.3665
3593.00,0.3657
3592.00,0.3650
3591.00,0.3644
3590.00,0.3638
3589.00,0.3633
3588.00,0.3628
3587.00,0.3623
3586.00,0.3619
3585.00,0.3614
3584.00,0.3610
3583.00,0.3606
3582.00,0.3602
3581.00,0.3598
3580.00,0.3593
3579.00,0.3588
3578.00,0.3583
3577.00,0.3579
3576.00,0.3576
3575.00,0.3574
3574.00,0.3573
3573.00,0.3572
3572.00,0.3571
3571.00,0.3570
3570.00,0.3571
3569.00,0.3572
3568.00,0.3574
3567.00,0.3576
3566.00,0.3578
3565.00,0.3579
3564.00,0.3581
3563.00,0.3582
3562.00,0.3585
3561.00,0.3587
3560.00,0.3589
3559.00,0.3591
3558.00,0.3593
3557.00,0.3595
3556.00,0.3597
3555.00,0.3600
3554.00,0.3603
3553.00,0.3606
3552.00,0.3609
3551.00,0.3612
3550.00,0.3616
3549.00,0.3620
3548.00,0.3624
3547.00,0.3630
3546.00,0.3636
3545.00,0.3641
3544.00,0.3647
3543.00,0.3652
3542.00,0.3657
3541.00,0.3662
3540.00,0.3668
3539.00,0.3673
3538.00,0.3680
3537.00,0.3686
3536.00,0.3692
3535.00,0.3698
3534.00,0.3704
3533.00,0.3711
3532.00,0.3717
3531.00,0.3725
3530.00,0.3732
3529.00,0.3740
3528.00,0.3747
3527.00,0.3755
3526.00,0.3763
3525.00,0.3770
3524.00,0.3778
3523.00,0.3785
3522.00,0.3792
3521.00,0.3800
3520.00,0.3809
3519.00,0.3818
3518.00,0.3827
3517.00,0.3835
3516.00,0.3843
3515.00,0.3851
3514.00,0.3858
3513.00,0.3867
3512.00,0.3876
3511.00,0.3885
3510.00,0.3894
3509.00,0.3903
3508.00,0.3912
3507.00,0.3921
3506.00,0.3931
3505.00,0.3941
3504.00,0.3951
3503.00,0.3962
3502.00,0.3974
3501.00,0.3985
3500.00,0.3997
3499.00,0.4008
3498.00,0.4018
3497.00,0.4029
3496.00,0.4041
3495.00,0.4053
3494.00,0.4065
3493.00,0.4078
3492.00,0.4090
3491.00,0.4102
3490.00,0.4114
3489.00,0.4127
3488.00,0.4140
3487.00,0.4153
3486.00,0.4166
3485.00,0.4179
3484.00,0.4192
3483.00,0.4205
3482.00,0.4218
3481.00,0.4231
3480.00,0.4245
3479.00,0.4258
3478.00,0.4272
3477.00,0.4285
3476.00,0.4299
3475.00,0.4313
3474.00,0.4327
3473.00,0.4342
3472.00,0.4358
3471.00,0.4373
3470.00,0.4387
3469.00,0.4402
3468.00,0.4418
3467.00,0.4434
3466.00,0.4450
3465.00,0.4467
3464.00,0.4485
3463.00,0.4502
3462.00,0.4520
3461.00,0.4538
3460.00,0.4556
3459.00,0.4575
3458.00,0.4594
3457.00,0.4614
3456.00,0.4635
3455.00,0.4656
3454.00,0.4677
3453.00,0.4699
3452.00,0.4721
3451.00,0.4743
3450.00,0.4766
3449.00,0.4791
3448.00,0.4817
3447.00,0.4845
3446.00,0.4874
3445.00,0.4904
3444.00,0.4934
3443.00,0.4965
3442.00,0.4995
3441.00,0.5026
3440.00,0.5055
3439.00,0.5083
3438.00,0.5111
3437.00,0.5137
3436.00,0.5162
3435.00,0.5185
3434.00,0.5207
3433.00,0.5228
3432.00,0.5247
3431.00,0.5265
3430.00,0.5282
3429.00,0.5299
3428.00,0.5315
3427.00,0.5332
3426.00,0.5349
3425.00,0.5366
3424.00,0.5384
3423.00,0.5401
3422.00,0.5419
3421.00,0.5437
3420.00,0.5454
3419.00,0.5472
3418.00,0.5490
3417.00,0.5509
3416.00,0.5528
3415.00,0.5546
3414.00,0.5565
3413.00,0.5583
3412.00,0.5601
3411.00,0.5619
3410.00,0.5638
3409.00,0.5657
3408.00,0.5676
3407.00,0.5695
3406.00,0.5715
3405.00,0.5734
3404.00,0.5754
3403.00,0.5773
3402.00,0.5792
3401.00,0.5810
3400.00,0.5828
3399.00,0.5846
3398.00,0.5863
3397.00,0.5882
3396.00,0.5900
3395.00,0.5918
3394.00,0.5936
3393.00,0.5953
3392.00,0.5971
3391.00,0.5988
3390.00,0.6005
3389.00,0.6022
3388.00,0.6040
3387.00,0.6057
3386.00,0.6073
3385.00,0.6090
3384.00,0.6107
3383.00,0.6125
3382.00,0.6141
3381.00,0.6158
3380.00,0.6174
3379.00,0.6190
3378.00,0.6206
3377.00,0.6223
3376.00,0.6240
3375.00,0.6256
3374.00,0.6272
3373.00,0.6288
3372.00,0.6304
3371.00,0.6321
3370.00,0.6337
3369.00,0.6354
3368.00,0.6371
3367.00,0.6387
3366.00,0.6402
3365.00,0.6418
3364.00,0.6433
3363.00,0.6448
3362.00,0.6463
3361.00,0.6480
3360.00,0.6496
3359.00,0.6513
3358.00,0.6529
3357.00,0.6545
3356.00,0.6561
3355.00,0.6576
3354.00,0.6591
3353.00,0.6605
3352.00,0.6619
3351.00,0.6632
3350.00,0.6644
3349.00,0.6657
3348.00,0.6670
3347.00,0.6682
3346.00,0.6694
3345.00,0.6704
3344.00,0.6713
3343.00,0.6721
3342.00,0.6729
3341.00,0.6735
3340.00,0.6741
3339.00,0.6745
3338.00,0.6749
3337.00,0.6752
3336.00,0.6754
3335.00,0.6754
3334.00,0.6754
3333.00,0.6753
3332.00,0.6752
3331.00,0.6751
3330.00,0.6749
3329.00,0.6746
3328.00,0.6741
3327.00,0.6733
3326.00,0.6725
3325.00,0.6718
3324.00,0.6710
3323.00,0.6703
3322.00,0.6696
3321.00,0.6687
3320.00,0.6679
3319.00,0.6669
3318.00,0.6661
3317.00,0.6652
3316.00,0.6644
3315.00,0.6635
3314.00,0.6626
3313.00,0.6616
3312.00,0.6606
3311.00,0.6596
3310.00,0.6587
3309.00,0.6578
3308.00,0.6570
3307.00,0.6562
3306.00,0.6555
3305.00,0.6547
3304.00,0.6541
3303.00,0.6534
3302.00,0.6528
3301.00,0.6523
3300.00,0.6517
3299.00,0.6511
3298.00,0.6506
3297.00,0.6501
3296.00,0.6498
3295.00,0.6494
3294.00,0.6492
3293.00,0.6490
3292.00,0.6488
3291.00,0.6486
3290.00,0.6485
3289.00,0.6484
3288.00,0.6483
3287.00,0.6482
3286.00,0.6482
3285.00,0.6482
3284.00,0.6483
3283.00,0.6485
3282.00,0.6487
3281.00,0.6489
3280.00,0.6492
3279.00,0.6495
3278.00,0.6499
3277.00,0.6502
3276.00,0.6504
3275.00,0.6507
3274.00,0.6510
3273.00,0.6513
3272.00,0.6516
3271.00,0.6518
3270.00,0.6519
3269.00,0.6520
3268.00,0.6520
3267.00,0.6521
3266.00,0.6523
3265.00,0.6524
3264.00,0.6526
3263.00,0.6526
3262.00,0.6526
3261.00,0.6525
3260.00,0.6523
3259.00,0.6521
3258.00,0.6520
3257.00,0.6519
3256.00,0.6516
3255.00,0.6512
3254.00,0.6506
3253.00,0.6501
3252.00,0.6497
3251.00,0.6493
3250.00,0.6489
3249.00,0.6483
3248.00,0.6476
3247.00,0.6468
3246.00,0.6460
3245.00,0.6452
3244.00,0.6444
3243.00,0.6435
3242.00,0.6425
3241.00,0.6414
3240.00,0.6402
3239.00,0.6390
3238.00,0.6377
3237.00,0.6364
3236.00,0.6351
3235.00,0.6339
3234.00,0.6327
3233.00,0.6313
3232.00,0.6299
3231.00,0.6284
3230.00,0.6269
3229.00,0.6255
3228.00,0.6240
3227.00,0.6224
3226.00,0.6207
3225.00,0.6189
3224.00,0.6171
3223.00,0.6154
3222.00,0.6137
3221.00,0.6120
3220.00,0.6103
3219.00,0.6086
3218.00,0.6069
3217.00,0.6053
3216.00,0.6037
3215.00,0.6021
3214.00,0.6005
3213.00,0.5989
3212.00,0.5973
3211.00,0.5956
3210.00,0.5941
3209.00,0.5926
3208.00,0.5911
3207.00,0.5896
3206.00,0.5881
3205.00,0.5865
3204.00,0.5849
3203.00,0.5833
3202.00,0.5818
3201.00,0.5803
3200.00,0.5789
3199.00,0.5774
3198.00,0.5758
3197.00,0.5742
3196.00,0.5726
3195.00,0.5710
3194.00,0.5694
3193.00,0.5678
3192.00,0.5661
3191.00,0.5644
3190.00,0.5626
3189.00,0.5608
3188.00,0.5591
3187.00,0.5573
3186.00,0.5555
3185.00,0.5537
3184.00,0.5520
3183.00,0.5503
3182.00,0.5486
3181.00,0.5470
3180.00,0.5454
3179.00,0.5438
3178.00,0.5422
3177.00,0.5405
3176.00,0.5390
3175.00,0.5374
3174.00,0.5358
3173.00,0.5342
3172.00,0.5327
3171.00,0.5312
3170.00,0.5297
3169.00,0.5284
3168.00,0.5270
3167.00,0.5257
3166.00,0.5243
3165.00,0.5229
3164.00,0.5216
3163.00,0.5202
3162.00,0.5189
3161.00,0.5176
3160.00,0.5163
3159.00,0.5151
3158.00,0.5138
3157.00,0.5126
3156.00,0.5114
3155.00,0.5102
3154.00,0.5090
3153.00,0.5078
3152.00,0.5067
3151.00,0.5055
3150.00,0.5044
3149.00,0.5033
3148.00,0.5023
3147.00,0.5013
3146.00,0.5004
3145.00,0.4996
3144.00,0.4987
3143.00,0.4979
3142.00,0.4970
3141.00,0.4962
3140.00,0.4954
3139.00,0.4947
3138.00,0.4941
3137.00,0.4935
3136.00,0.4928
3135.00,0.4922
3134.00,0.4916
3133.00,0.4910
3132.00,0.4904
3131.00,0.4898
3130.00,0.4893
3129.00,0.4888
3128.00,0.4884
3127.00,0.4879
3126.00,0.4874
3125.00,0.4869
3124.00,0.4865
3123.00,0.4861
3122.00,0.4858
3121.00,0.4855
3120.00,0.4851
3119.00,0.4849
3118.00,0.4847
3117.00,0.4847
3116.00,0.4847
3115.00,0.4848
3114.00,0.4850
3113.00,0.4852
3112.00,0.4856
3111.00,0.4860
3110.00,0.4864
3109.00,0.4870
3108.00,0.4876
3107.00,0.4883
3106.00,0.4890
3105.00,0.4898
3104.00,0.4906
3103.00,0.4914
3102.00,0.4922
3101.00,0.4930
3100.00,0.4938
3099.00,0.4947
3098.00,0.4955
3097.00,0.4964
3096.00,0.4972
3095.00,0.4980
3094.00,0.4987
3093.00,0.4995
3092.00,0.5002
3091.00,0.5011
3090.00,0.5019
3089.00,0.5029
3088.00,0.5039
3087.00,0.5049
3086.00,0.5061
3085.00,0.5074
3084.00,0.5088
3083.00,0.5102
3082.00,0.5117
3081.00,0.5132
3080.00,0.5149
3079.00,0.5168
3078.00,0.5190
3077.00,0.5212
3076.00,0.5235
3075.00,0.5259
3074.00,0.5284
3073.00,0.5310
3072.00,0.5338
3071.00,0.5366
3070.00,0.5394
3069.00,0.5425
3068.00,0.5456
3067.00,0.5489
3066.00,0.5523
3065.00,0.5558
3064.00,0.5592
3063.00,0.5627
3062.00,0.5662
3061.00,0.5698
3060.00,0.5734
3059.00,0.5771
3058.00,0.5806
3057.00,0.5841
3056.00,0.5874
3055.00,0.5906
3054.00,0.5936
3053.00,0.5966
3052.00,0.5995
3051.00,0.6023
3050.00,0.6052
3049.00,0.6080
3048.00,0.6109
3047.00,0.6138
3046.00,0.6170
3045.00,0.6203
3044.00,0.6237
3043.00,0.6274
3042.00,0.6313
3041.00,0.6354
3040.00,0.6397
3039.00,0.6442
3038.00,0.6489
3037.00,0.6538
3036.00,0.6591
3035.00,0.6647
3034.00,0.6705
3033.00,0.6764
3032.00,0.6824
3031.00,0.6883
3030.00,0.6942
3029.00,0.7001
3028.00,0.7061
3027.00,0.7121
3026.00,0.7182
3025.00,0.7244
3024.00,0.7307
3023.00,0.7373
3022.00,0.7440
3021.00,0.7510
3020.00,0.7582
3019.00,0.7656
3018.00,0.7733
3017.00,0.7815
3016.00,0.7901
3015.00,0.7993
3014.00,0.8089
3013.00,0.8192
3012.00,0.8299
3011.00,0.8412
3010.00,0.8530
3009.00,0.8654
3008.00,0.8785
3007.00,0.8924
3006.00,0.9074
3005.00,0.9232
3004.00,0.9399
3003.00,0.9573
3002.00,0.9756
3001.00,0.9950
3000.00,1.0156
2999.00,1.0376
2998.00,1.0610
2997.00,1.0860
2996.00,1.1126
2995.00,1.1409
2994.00,1.1709
2993.00,1.2032
2992.00,1.2379
2991.00,1.2755
2990.00,1.3160
2989.00,1.3600
2988.00,1.4078
2987.00,1.4602
2986.00,1.5178
2985.00,1.5809
2984.00,1.6502
2983.00,1.7265
2982.00,1.8110
2981.00,1.9049
2980.00,2.0088
2979.00,2.1239
2978.00,2.2522
2977.00,2.3958
2976.00,2.5569
2975.00,2.7374
2974.00,2.9365
2973.00,3.1450
2972.00,3.3462
2971.00,3.5361
2970.00,3.7156
2969.00,3.8502
2968.00,3.8807
2967.00,3.8340
2966.00,3.8002
2965.00,3.8580
2964.00,4.1485
2963.00,4.3327
2962.00,4.0142
2961.00,3.7790
2960.00,3.7511
2959.00,3.9307
2958.00,4.2155
2957.00,4.4850
2956.00,4.3083
2955.00,4.1243
2954.00,4.0952
2953.00,3.9986
2952.00,3.8694
2951.00,3.8107
2950.00,3.8672
2949.00,3.9159
2948.00,3.8707
2947.00,3.8174
2946.00,3.8193
2945.00,3.8546
2944.00,3.8474
2943.00,3.7603
2942.00,3.6712
2941.00,3.6627
2940.00,3.7623
2939.00,3.9894
2938.00,4.2467
2937.00,4.0318
2936.00,3.8265
2935.00,3.7662
2934.00,3.8508
2933.00,3.8299
2932.00,3.7644
2931.00,3.7729
2930.00,3.9120
2929.00,4.1013
2928.00,4.1117
2927.00,3.9712
2926.00,3.8494
2925.00,3.8413
2924.00,3.9530
2923.00,4.1612
2922.00,4.4182
2921.00,4.5232
2920.00,4.1924
2919.00,3.9512
2918.00,3.8273
2917.00,3.8088
2916.00,3.8251
2915.00,3.8663
2914.00,3.9958
2913.00,4.1119
2912.00,4.0534
2911.00,4.0292
2910.00,4.2008
2909.00,4.4891
2908.00,4.3409
2907.00,4.1350
2906.00,4.1115
2905.00,4.2771
2904.00,4.5093
2903.00,4.4297
2902.00,4.4611
2901.00,4.3138
2900.00,4.0176
2899.00,3.8015
2898.00,3.7816
2897.00,4.0088
2896.00,4.4044
2895.00,4.1251
2894.00,3.8604
2893.00,3.7298
2892.00,3.8169
2891.00,4.0359
2890.00,4.5508
2889.00,4.4830
2888.00,4.2280
2887.00,4.0113
2886.00,3.9588
2885.00,3.8673
2884.00,3.8603
2883.00,3.9388
2882.00,4.0454
2881.00,4.1959
2880.00,4.4225
2879.00,4.2548
2878.00,4.0084
2877.00,3.8799
2876.00,3.9794
2875.00,4.3157
2874.00,4.6005
2873.00,4.3949
2872.00,4.0751
2871.00,3.9198
2870.00,3.8395
2869.00,3.8136
2868.00,3.8361
2867.00,3.8647
2866.00,3.9187
2865.00,4.0687
2864.00,4.4053
2863.00,4.5676
2862.00,4.2458
2861.00,4.0027
2860.00,3.9470
2859.00,4.0493
2858.00,4.4363
2857.00,4.2849
2856.00,3.9658
2855.00,3.7942
2854.00,3.9175
2853.00,3.9953
2852.00,3.8376
2851.00,3.7268
2850.00,3.7290
2849.00,3.7955
2848.00,3.8655
2847.00,4.0378
2846.00,4.3367
2845.00,4.3780
2844.00,4.2389
2843.00,4.1716
2842.00,4.2323
2841.00,4.3283
2840.00,3.9484
2839.00,3.5513
2838.00,3.2271
2837.00,2.9760
2836.00,2.7559
2835.00,2.5643
2834.00,2.3988
2833.00,2.2548
2832.00,2.1288
2831.00,2.0173
2830.00,1.9169
2829.00,1.8260
2828.00,1.7446
2827.00,1.6723
2826.00,1.6081
2825.00,1.5501
2824.00,1.4968
2823.00,1.4476
2822.00,1.4020
2821.00,1.3597
2820.00,1.3205
2819.00,1.2844
2818.00,1.2513
2817.00,1.2206
2816.00,1.1919
2815.00,1.1649
2814.00,1.1393
2813.00,1.1149
2812.00,1.0916
2811.00,1.0693
2810.00,1.0481
2809.00,1.0277
2808.00,1.0081
2807.00,0.9890
2806.00,0.9705
2805.00,0.9526
2804.00,0.9352
2803.00,0.9183
2802.00,0.9020
2801.00,0.8861
2800.00,0.8706
2799.00,0.8558
2798.00,0.8417
2797.00,0.8282
2796.00,0.8155
2795.00,0.8033
2794.00,0.7917
2793.00,0.7807
2792.00,0.7703
2791.00,0.7605
2790.00,0.7511
2789.00,0.7421
2788.00,0.7332
2787.00,0.7244
2786.00,0.7158
2785.00,0.7073
2784.00,0.6989
2783.00,0.6905
2782.00,0.6823
2781.00,0.6743
2780.00,0.6664
2779.00,0.6588
2778.00,0.6514
2777.00,0.6443
2776.00,0.6375
2775.00,0.6310
2774.00,0.6250
2773.00,0.6194
2772.00,0.6142
2771.00,0.6093
2770.00,0.6049
2769.00,0.6010
2768.00,0.5974
2767.00,0.5943
2766.00,0.5915
2765.00,0.5890
2764.00,0.5868
2763.00,0.5847
2762.00,0.5829
2761.00,0.5814
2760.00,0.5801
2759.00,0.5792
2758.00,0.5784
2757.00,0.5779
2756.00,0.5775
2755.00,0.5773
2754.00,0.5773
2753.00,0.5774
2752.00,0.5778
2751.00,0.5784
2750.00,0.5793
2749.00,0.5804
2748.00,0.5816
2747.00,0.5828
2746.00,0.5841
2745.00,0.5856
2744.00,0.5873
2743.00,0.5892
2742.00,0.5913
2741.00,0.5936
2740.00,0.5963
2739.00,0.5995
2738.00,0.6031
2737.00,0.6071
2736.00,0.6116
2735.00,0.6165
2734.00,0.6215
2733.00,0.6261
2732.00,0.6296
2731.00,0.6316
2730.00,0.6315
2729.00,0.6292
2728.00,0.6252
2727.00,0.6200
2726.00,0.6141
2725.00,0.6082
2724.00,0.6027
2723.00,0.5979
2722.00,0.5938
2721.00,0.5904
2720.00,0.5877
2719.00,0.5855
2718.00,0.5836
2717.00,0.5820
2716.00,0.5802
2715.00,0.5782
2714.00,0.5759
2713.00,0.5734
2712.00,0.5708
2711.00,0.5682
2710.00,0.5657
2709.00,0.5633
2708.00,0.5612
2707.00,0.5593
2706.00,0.5576
2705.00,0.5561
2704.00,0.5549
2703.00,0.5538
2702.00,0.5530
2701.00,0.5524
2700.00,0.5521
2699.00,0.5521
2698.00,0.5524
2697.00,0.5530
2696.00,0.5538
2695.00,0.5549
2694.00,0.5562
2693.00,0.5577
2692.00,0.5593
2691.00,0.5610
2690.00,0.5627
2689.00,0.5643
2688.00,0.5657
2687.00,0.5669
2686.00,0.5678
2685.00,0.5686
2684.00,0.5693
2683.00,0.5698
2682.00,0.5703
2681.00,0.5708
2680.00,0.5713
2679.00,0.5717
2678.00,0.5720
2677.00,0.5724
2676.00,0.5727
2675.00,0.5729
2674.00,0.5731
2673.00,0.5730
2672.00,0.5729
2671.00,0.5724
2670.00,0.5717
2669.00,0.5705
2668.00,0.5690
2667.00,0.5669
2666.00,0.5645
2665.00,0.5619
2664.00,0.5591
2663.00,0.5561
2662.00,0.5532
2661.00,0.5504
2660.00,0.5477
2659.00,0.5452
2658.00,0.5429
2657.00,0.5406
2656.00,0.5383
2655.00,0.5360
2654.00,0.5337
2653.00,0.5316
2652.00,0.5295
2651.00,0.5276
2650.00,0.5258
2649.00,0.5240
2648.00,0.5223
2647.00,0.5207
2646.00,0.5191
2645.00,0.5176
2644.00,0.5162
2643.00,0.5149
2642.00,0.5136
2641.00,0.5123
2640.00,0.5111
2639.00,0.5099
2638.00,0.5086
2637.00,0.5074
2636.00,0.5062
2635.00,0.5049
2634.00,0.5036
2633.00,0.5022
2632.00,0.5007
2631.00,0.4992
2630.00,0.4978
2629.00,0.4963
2628.00,0.4949
2627.00,0.4935
2626.00,0.4921
2625.00,0.4907
2624.00,0.4894
2623.00,0.4882
2622.00,0.4871
2621.00,0.4860
2620.00,0.4851
2619.00,0.4841
2618.00,0.4831
2617.00,0.4821
2616.00,0.4811
2615.00,0.4801
2614.00,0.4792
2613.00,0.4782
2612.00,0.4771
2611.00,0.4761
2610.00,0.4750
2609.00,0.4740
2608.00,0.4731
2607.00,0.4721
2606.00,0.4712
2605.00,0.4703
2604.00,0.4693
2603.00,0.4683
2602.00,0.4673
2601.00,0.4662
2600.00,0.4652
2599.00,0.4640
2598.00,0.4629
2597.00,0.4617
2596.00,0.4604
2595.00,0.4592
2594.00,0.4579
2593.00,0.4567
2592.00,0.4554
2591.00,0.4541
2590.00,0.4529
2589.00,0.4517
2588.00,0.4506
2587.00,0.4495
2586.00,0.4484
2585.00,0.4473
2584.00,0.4461
2583.00,0.4448
2582.00,0.4434
2581.00,0.4420
2580.00,0.4406
2579.00,0.4391
2578.00,0.4376
2577.00,0.4361
2576.00,0.4347
2575.00,0.4332
2574.00,0.4319
2573.00,0.4305
2572.00,0.4292
2571.00,0.4279
2570.00,0.4265
2569.00,0.4253
2568.00,0.4240
2567.00,0.4228
2566.00,0.4215
2565.00,0.4202
2564.00,0.4189
2563.00,0.4176
2562.00,0.4164
2561.00,0.4151
2560.00,0.4139
2559.00,0.4126
2558.00,0.4113
2557.00,0.4101
2556.00,0.4090
2555.00,0.4079
2554.00,0.4068
2553.00,0.4058
2552.00,0.4049
2551.00,0.4040
2550.00,0.4033
2549.00,0.4026
2548.00,0.4020
2547.00,0.4014
2546.00,0.4008
2545.00,0.4003
2544.00,0.3998
2543.00,0.3993
2542.00,0.3988
2541.00,0.3984
2540.00,0.3979
2539.00,0.3975
2538.00,0.3971
2537.00,0.3966
2536.00,0.3961
2535.00,0.3955
2534.00,0.3947
2533.00,0.3938
2532.00,0.3928
2531.00,0.3917
2530.00,0.3905
2529.00,0.3892
2528.00,0.3879
2527.00,0.3865
2526.00,0.3851
2525.00,0.3837
2524.00,0.3823
2523.00,0.3809
2522.00,0.3797
2521.00,0.3784
2520.00,0.3773
2519.00,0.3761
2518.00,0.3750
2517.00,0.3740
2516.00,0.3730
2515.00,0.3720
2514.00,0.3710
2513.00,0.3700
2512.00,0.3691
2511.00,0.3682
2510.00,0.3674
2509.00,0.3666
2508.00,0.3659
2507.00,0.3652
2506.00,0.3646
2505.00,0.3640
2504.00,0.3635
2503.00,0.3631
2502.00,0.3626
2501.00,0.3622
2500.00,0.3619
2499.00,0.3615
2498.00,0.3611
2497.00,0.3606
2496.00,0.3601
2495.00,0.3596
2494.00,0.3590
2493.00,0.3585
2492.00,0.3579
2491.00,0.3573
2490.00,0.3566
2489.00,0.3560
2488.00,0.3554
2487.00,0.3548
2486.00,0.3542
2485.00,0.3537
2484.00,0.3532
2483.00,0.3527
2482.00,0.3522
2481.00,0.3517
2480.00,0.3512
2479.00,0.3506
2478.00,0.3501
2477.00,0.3496
2476.00,0.3490
2475.00,0.3485
2474.00,0.3479
2473.00,0.3473
2472.00,0.3468
2471.00,0.3463
2470.00,0.3458
2469.00,0.3454
2468.00,0.3450
2467.00,0.3447
2466.00,0.3443
2465.00,0.3440
2464.00,0.3436
2463.00,0.3433
2462.00,0.3430
2461.00,0.3428
2460.00,0.3426
2459.00,0.3424
2458.00,0.3422
2457.00,0.3421
2456.00,0.3420
2455.00,0.3418
2454.00,0.3417
2453.00,0.3417
2452.00,0.3417
2451.00,0.3417
2450.00,0.3417
2449.00,0.3417
2448.00,0.3417
2447.00,0.3417
2446.00,0.3417
2445.00,0.3418
2444.00,0.3418
2443.00,0.3419
2442.00,0.3421
2441.00,0.3422
2440.00,0.3423
2439.00,0.3424
2438.00,0.3425
2437.00,0.3426
2436.00,0.3426
2435.00,0.3427
2434.00,0.3427
2433.00,0.3428
2432.00,0.3428
2431.00,0.3429
2430.00,0.3429
2429.00,0.3430
2428.00,0.3430
2427.00,0.3431
2426.00,0.3431
2425.00,0.3432
2424.00,0.3433
2423.00,0.3434
2422.00,0.3434
2421.00,0.3435
2420.00,0.3436
2419.00,0.3436
2418.00,0.3436
2417.00,0.3436
2416.00,0.3436
2415.00,0.3436
2414.00,0.3437
2413.00,0.3437
2412.00,0.3437
2411.00,0.3437
2410.00,0.3437
2409.00,0.3437
2408.00,0.3437
2407.00,0.3437
2406.00,0.3437
2405.00,0.3437
2404.00,0.3438
2403.00,0.3439
2402.00,0.3439
2401.00,0.3440
2400.00,0.3441
2399.00,0.3441
2398.00,0.3441
2397.00,0.3442
2396.00,0.3443
2395.00,0.3445
2394.00,0.3447
2393.00,0.3450
2392.00,0.3452
2391.00,0.3455
2390.00,0.3458
2389.00,0.3461
2388.00,0.3465
2387.00,0.3468
2386.00,0.3472
2385.00,0.3475
2384.00,0.3480
2383.00,0.3485
2382.00,0.3490
2381.00,0.3496
2380.00,0.3503
2379.00,0.3509
2378.00,0.3515
2377.00,0.3520
2376.00,0.3523
2375.00,0.3524
2374.00,0.3523
2373.00,0.3523
2372.00,0.3522
2371.00,0.3522
2370.00,0.3523
2369.00,0.3524
2368.00,0.3526
2367.00,0.3528
2366.00,0.3529
2365.00,0.3530
2364.00,0.3531
2363.00,0.3534
2362.00,0.3536
2361.00,0.3537
2360.00,0.3538
2359.00,0.3538
2358.00,0.3538
2357.00,0.3537
2356.00,0.3537
2355.00,0.3537
2354.00,0.3537
2353.00,0.3539
2352.00,0.3540
2351.00,0.3541
2350.00,0.3541
2349.00,0.3538
2348.00,0.3535
2347.00,0.3534
2346.00,0.3535
2345.00,0.3538
2344.00,0.3538
2343.00,0.3536
2342.00,0.3533
2341.00,0.3531
2340.00,0.3529
2339.00,0.3527
2338.00,0.3525
2337.00,0.3523
2336.00,0.3521
2335.00,0.3519
2334.00,0.3517
2333.00,0.3516
2332.00,0.3516
2331.00,0.3515
2330.00,0.3513
2329.00,0.3509
2328.00,0.3504
2327.00,0.3498
2326.00,0.3494
2325.00,0.3492
2324.00,0.3490
2323.00,0.3488
2322.00,0.3484
2321.00,0.3480
2320.00,0.3475
2319.00,0.3469
2318.00,0.3463
2317.00,0.3458
2316.00,0.3453
2315.00,0.3450
2314.00,0.3447
2313.00,0.3445
2312.00,0.3442
2311.00,0.3437
2310.00,0.3431
2309.00,0.3425
2308.00,0.3419
2307.00,0.3414
2306.00,0.3407
2305.00,0.3401
2304.00,0.3395
2303.00,0.3389
2302.00,0.3383
2301.00,0.3378
2300.00,0.3373
2299.00,0.3368
2298.00,0.3363
2297.00,0.3358
2296.00,0.3353
2295.00,0.3348
2294.00,0.3343
2293.00,0.3338
2292.00,0.3332
2291.00,0.3326
2290.00,0.3319
2289.00,0.3313
2288.00,0.3306
2287.00,0.3300
2286.00,0.3295
2285.00,0.3290
2284.00,0.3286
2283.00,0.3282
2282.00,0.3278
2281.00,0.3275
2280.00,0.3271
2279.00,0.3268
2278.00,0.3266
2277.00,0.3264
2276.00,0.3263
2275.00,0.3261
2274.00,0.3260
2273.00,0.3259
2272.00,0.3259
2271.00,0.3259
2270.00,0.3259
2269.00,0.3260
2268.00,0.3260
2267.00,0.3260
2266.00,0.3259
2265.00,0.3259
2264.00,0.3259
2263.00,0.3258
2262.00,0.3257
2261.00,0.3255
2260.00,0.3252
2259.00,0.3249
2258.00,0.3246
2257.00,0.3243
2256.00,0.3240
2255.00,0.3236
2254.00,0.3232
2253.00,0.3228
2252.00,0.3224
2251.00,0.3220
2250.00,0.3216
2249.00,0.3211
2248.00,0.3207
2247.00,0.3203
2246.00,0.3199
2245.00,0.3195
2244.00,0.3192
2243.00,0.3189
2242.00,0.3187
2241.00,0.3184
2240.00,0.3182
2239.00,0.3180
2238.00,0.3178
2237.00,0.3176
2236.00,0.3175
2235.00,0.3174
2234.00,0.3174
2233.00,0.3173
2232.00,0.3173
2231.00,0.3172
2230.00,0.3172
2229.00,0.3172
2228.00,0.3172
2227.00,0.3172
2226.00,0.3172
2225.00,0.3172
2224.00,0.3171
2223.00,0.3171
2222.00,0.3170
2221.00,0.3169
2220.00,0.3167
2219.00,0.3165
2218.00,0.3163
2217.00,0.3161
2216.00,0.3159
2215.00,0.3158
2214.00,0.3156
2213.00,0.3155
2212.00,0.3153
2211.00,0.3151
2210.00,0.3149
2209.00,0.3148
2208.00,0.3147
2207.00,0.3147
2206.00,0.3147
2205.00,0.3147
2204.00,0.3147
2203.00,0.3147
2202.00,0.3148
2201.00,0.3149
2200.00,0.3150
2199.00,0.3152
2198.00,0.3153
2197.00,0.3155
2196.00,0.3156
2195.00,0.3158
2194.00,0.3160
2193.00,0.3162
2192.00,0.3165
2191.00,0.3167
2190.00,0.3169
2189.00,0.3172
2188.00,0.3173
2187.00,0.3175
2186.00,0.3176
2185.00,0.3177
2184.00,0.3178
2183.00,0.3178
2182.00,0.3178
2181.00,0.3178
2180.00,0.3178
2179.00,0.3177
2178.00,0.3177
2177.00,0.3176
2176.00,0.3175
2175.00,0.3174
2174.00,0.3172
2173.00,0.3171
2172.00,0.3170
2171.00,0.3170
2170.00,0.3170
2169.00,0.3170
2168.00,0.3170
2167.00,0.3169
2166.00,0.3169
2165.00,0.3169
2164.00,0.3169
2163.00,0.3170
2162.00,0.3171
2161.00,0.3172
2160.00,0.3173
2159.00,0.3173
2158.00,0.3174
2157.00,0.3175
2156.00,0.3176
2155.00,0.3176
2154.00,0.3177
2153.00,0.3177
2152.00,0.3177
2151.00,0.3177
2150.00,0.3175
2149.00,0.3173
2148.00,0.3170
2147.00,0.3165
2146.00,0.3159
2145.00,0.3153
2144.00,0.3145
2143.00,0.3138
2142.00,0.3130
2141.00,0.3123
2140.00,0.3117
2139.00,0.3110
2138.00,0.3103
2137.00,0.3097
2136.00,0.3091
2135.00,0.3086
2134.00,0.3082
2133.00,0.3078
2132.00,0.3075
2131.00,0.3072
2130.00,0.3069
2129.00,0.3066
2128.00,0.3064
2127.00,0.3063
2126.00,0.3061
2125.00,0.3060
2124.00,0.3060
2123.00,0.3059
2122.00,0.3058
2121.00,0.3058
2120.00,0.3058
2119.00,0.3058
2118.00,0.3058
2117.00,0.3058
2116.00,0.3057
2115.00,0.3056
2114.00,0.3056
2113.00,0.3055
2112.00,0.3054
2111.00,0.3053
2110.00,0.3052
2109.00,0.3051
2108.00,0.3051
2107.00,0.3050
2106.00,0.3050
2105.00,0.3049
2104.00,0.3049
2103.00,0.3048
2102.00,0.3046
2101.00,0.3045
2100.00,0.3044
2099.00,0.3042
2098.00,0.3041
2097.00,0.3040
2096.00,0.3039
2095.00,0.3038
2094.00,0.3037
2093.00,0.3036
2092.00,0.3036
2091.00,0.3034
2090.00,0.3033
2089.00,0.3032
2088.00,0.3031
2087.00,0.3031
2086.00,0.3030
2085.00,0.3031
2084.00,0.3031
2083.00,0.3031
2082.00,0.3031
2081.00,0.3032
2080.00,0.3033
2079.00,0.3034
2078.00,0.3035
2077.00,0.3037
2076.00,0.3038
2075.00,0.3040
2074.00,0.3040
2073.00,0.3041
2072.00,0.3042
2071.00,0.3043
2070.00,0.3044
2069.00,0.3046
2068.00,0.3047
2067.00,0.3049
2066.00,0.3051
2065.00,0.3053
2064.00,0.3054
2063.00,0.3056
2062.00,0.3057
2061.00,0.3059
2060.00,0.3061
2059.00,0.3064
2058.00,0.3066
2057.00,0.3068
2056.00,0.3071
2055.00,0.3074
2054.00,0.3077
2053.00,0.3081
2052.00,0.3085
2051.00,0.3089
2050.00,0.3093
2049.00,0.3097
2048.00,0.3102
2047.00,0.3107
2046.00,0.3111
2045.00,0.3115
2044.00,0.3118
2043.00,0.3122
2042.00,0.3125
2041.00,0.3127
2040.00,0.3129
2039.00,0.3130
2038.00,0.3131
2037.00,0.3132
2036.00,0.3133
2035.00,0.3135
2034.00,0.3138
2033.00,0.3141
2032.00,0.3144
2031.00,0.3147
2030.00,0.3150
2029.00,0.3153
2028.00,0.3157
2027.00,0.3160
2026.00,0.3163
2025.00,0.3164
2024.00,0.3164
2023.00,0.3161
2022.00,0.3157
2021.00,0.3151
2020.00,0.3143
2019.00,0.3134
2018.00,0.3124
2017.00,0.3113
2016.00,0.3102
2015.00,0.3090
2014.00,0.3078
2013.00,0.3066
2012.00,0.3055
2011.00,0.3045
2010.00,0.3035
2009.00,0.3027
2008.00,0.3020
2007.00,0.3014
2006.00,0.3008
2005.00,0.3004
2004.00,0.3000
2003.00,0.2997
2002.00,0.2994
2001.00,0.2992
2000.00,0.2991
1999.00,0.2989
1998.00,0.2988
1997.00,0.2985
1996.00,0.2983
1995.00,0.2980
1994.00,0.2979
1993.00,0.2979
1992.00,0.2980
1991.00,0.2980
1990.00,0.2979
1989.00,0.2979
1988.00,0.2978
1987.00,0.2977
1986.00,0.2977
1985.00,0.2976
1984.00,0.2976
1983.00,0.2975
1982.00,0.2974
1981.00,0.2972
1980.00,0.2971
1979.00,0.2971
1978.00,0.2970
1977.00,0.2970
1976.00,0.2969
1975.00,0.2968
1974.00,0.2967
1973.00,0.2966
1972.00,0.2964
1971.00,0.2962
1970.00,0.2960
1969.00,0.2959
1968.00,0.2960
1967.00,0.2960
1966.00,0.2961
1965.00,0.2962
1964.00,0.2963
1963.00,0.2963
1962.00,0.2963
1961.00,0.2964
1960.00,0.2964
1959.00,0.2965
1958.00,0.2966
1957.00,0.2968
1956.00,0.2970
1955.00,0.2971
1954.00,0.2972
1953.00,0.2974
1952.00,0.2975
1951.00,0.2976
1950.00,0.2977
1949.00,0.2978
1948.00,0.2979
1947.00,0.2979
1946.00,0.2979
1945.00,0.2979
1944.00,0.2982
1943.00,0.2986
1942.00,0.2990
1941.00,0.2993
1940.00,0.2995
1939.00,0.2996
1938.00,0.2996
1937.00,0.2997
1936.00,0.2997
1935.00,0.2996
1934.00,0.2996
1933.00,0.2996
1932.00,0.2997
1931.00,0.2997
1930.00,0.2998
1929.00,0.2999
1928.00,0.2999
1927.00,0.2998
1926.00,0.2998
1925.00,0.2999
1924.00,0.3002
1923.00,0.3005
1922.00,0.3007
1921.00,0.3009
1920.00,0.3012
1919.00,0.3016
1918.00,0.3021
1917.00,0.3025
1916.00,0.3028
1915.00,0.3029
1914.00,0.3029
1913.00,0.3029
1912.00,0.3028
1911.00,0.3029
1910.00,0.3029
1909.00,0.3030
1908.00,0.3031
1907.00,0.3031
1906.00,0.3031
1905.00,0.3031
1904.00,0.3031
1903.00,0.3030
1902.00,0.3030
1901.00,0.3029
1900.00,0.3028
1899.00,0.3027
1898.00,0.3027
1897.00,0.3027
1896.00,0.3028
1895.00,0.3028
1894.00,0.3026
1893.00,0.3024
1892.00,0.3023
1891.00,0.3023
1890.00,0.3025
1889.00,0.3028
1888.00,0.3030
1887.00,0.3031
1886.00,0.3031
1885.00,0.3032
1884.00,0.3034
1883.00,0.3034
1882.00,0.3035
1881.00,0.3036
1880.00,0.3037
1879.00,0.3037
1878.00,0.3037
1877.00,0.3037
1876.00,0.3038
1875.00,0.3038
1874.00,0.3039
1873.00,0.3039
1872.00,0.3040
1871.00,0.3041
1870.00,0.3042
1869.00,0.3043
1868.00,0.3044
1867.00,0.3043
1866.00,0.3042
1865.00,0.3040
1864.00,0.3037
1863.00,0.3035
1862.00,0.3033
1861.00,0.3031
1860.00,0.3029
1859.00,0.3027
1858.00,0.3025
1857.00,0.3024
1856.00,0.3022
1855.00,0.3020
1854.00,0.3018
1853.00,0.3016
1852.00,0.3014
1851.00,0.3011
1850.00,0.3007
1849.00,0.3002
1848.00,0.2997
1847.00,0.2993
1846.00,0.2994
1845.00,0.2999
1844.00,0.3005
1843.00,0.3007
1842.00,0.3009
1841.00,0.3013
1840.00,0.3013
1839.00,0.3013
1838.00,0.3013
1837.00,0.3013
1836.00,0.3013
1835.00,0.3013
1834.00,0.3013
1833.00,0.3014
1832.00,0.3015
1831.00,0.3017
1830.00,0.3018
1829.00,0.3019
1828.00,0.3020
1827.00,0.3021
1826.00,0.3022
1825.00,0.3024
1824.00,0.3024
1823.00,0.3021
1822.00,0.3023
1821.00,0.3023
1820.00,0.3024
1819.00,0.3024
1818.00,0.3025
1817.00,0.3026
1816.00,0.3026
1815.00,0.3025
1814.00,0.3022
1813.00,0.3024
1812.00,0.3033
1811.00,0.3033
1810.00,0.3035
1809.00,0.3036
1808.00,0.3038
1807.00,0.3039
1806.00,0.3040
1805.00,0.3042
1804.00,0.3045
1803.00,0.3047
1802.00,0.3053
1801.00,0.3051
1800.00,0.3044
1799.00,0.3053
1798.00,0.3055
1797.00,0.3057
1796.00,0.3058
1795.00,0.3059
1794.00,0.3062
1793.00,0.3071
1792.00,0.3082
1791.00,0.3093
1790.00,0.3100
1789.00,0.3107
1788.00,0.3112
1787.00,0.3117
1786.00,0.3122
1785.00,0.3128
1784.00,0.3132
1783.00,0.3137
1782.00,0.3142
1781.00,0.3150
1780.00,0.3157
1779.00,0.3162
1778.00,0.3164
1777.00,0.3165
1776.00,0.3166
1775.00,0.3167
1774.00,0.3168
1773.00,0.3171
1772.00,0.3176
1771.00,0.3182
1770.00,0.3190
1769.00,0.3199
1768.00,0.3207
1767.00,0.3211
1766.00,0.3212
1765.00,0.3212
1764.00,0.3215
1763.00,0.3221
1762.00,0.3230
1761.00,0.3239
1760.00,0.3246
1759.00,0.3254
1758.00,0.3265
1757.00,0.3278
1756.00,0.3290
1755.00,0.3302
1754.00,0.3312
1753.00,0.3322
1752.00,0.3332
1751.00,0.3342
1750.00,0.3354
1749.00,0.3370
1748.00,0.3386
1747.00,0.3400
1746.00,0.3410
1745.00,0.3418
1744.00,0.3423
1743.00,0.3427
1742.00,0.3430
1741.00,0.3435
1740.00,0.3440
1739.00,0.3441
1738.00,0.3440
1737.00,0.3441
1736.00,0.3445
1735.00,0.3451
1734.00,0.3455
1733.00,0.3453
1732.00,0.3450
1731.00,0.3451
1730.00,0.3457
1729.00,0.3465
1728.00,0.3473
1727.00,0.3479
1726.00,0.3485
1725.00,0.3493
1724.00,0.3503
1723.00,0.3510
1722.00,0.3514
1721.00,0.3521
1720.00,0.3534
1719.00,0.3553
1718.00,0.3577
1717.00,0.3600
1716.00,0.3622
1715.00,0.3643
1714.00,0.3666
1713.00,0.3688
1712.00,0.3709
1711.00,0.3727
1710.00,0.3742
1709.00,0.3757
1708.00,0.3772
1707.00,0.3792
1706.00,0.3813
1705.00,0.3833
1704.00,0.3846
1703.00,0.3852
1702.00,0.3855
1701.00,0.3861
1700.00,0.3866
1699.00,0.3869
1698.00,0.3875
1697.00,0.3886
1696.00,0.3894
1695.00,0.3893
1694.00,0.3890
1693.00,0.3892
1692.00,0.3899
1691.00,0.3907
1690.00,0.3916
1689.00,0.3929
1688.00,0.3943
1687.00,0.3952
1686.00,0.3959
1685.00,0.3971
1684.00,0.3988
1683.00,0.4003
1682.00,0.4016
1681.00,0.4029
1680.00,0.4039
1679.00,0.4045
1678.00,0.4051
1677.00,0.4060
1676.00,0.4076
1675.00,0.4091
1674.00,0.4104
1673.00,0.4109
1672.00,0.4128
1671.00,0.4180
1670.00,0.4191
1669.00,0.4210
1668.00,0.4228
1667.00,0.4241
1666.00,0.4241
1665.00,0.4256
1664.00,0.4273
1663.00,0.4296
1662.00,0.4321
1661.00,0.4344
1660.00,0.4365
1659.00,0.4381
1658.00,0.4394
1657.00,0.4408
1656.00,0.4426
1655.00,0.4453
1654.00,0.4499
1653.00,0.4554
1652.00,0.4585
1651.00,0.4593
1650.00,0.4601
1649.00,0.4624
1648.00,0.4665
1647.00,0.4719
1646.00,0.4774
1645.00,0.4823
1644.00,0.4864
1643.00,0.4902
1642.00,0.4940
1641.00,0.4979
1640.00,0.5019
1639.00,0.5058
1638.00,0.5102
1637.00,0.5161
1636.00,0.5238
1635.00,0.5319
1634.00,0.5388
1633.00,0.5451
1632.00,0.5510
1631.00,0.5568
1630.00,0.5629
1629.00,0.5700
1628.00,0.5778
1627.00,0.5856
1626.00,0.5933
1625.00,0.6018
1624.00,0.6120
1623.00,0.6234
1622.00,0.6352
1621.00,0.6471
1620.00,0.6593
1619.00,0.6721
1618.00,0.6868
1617.00,0.7045
1616.00,0.7240
1615.00,0.7433
1614.00,0.7623
1613.00,0.7830
1612.00,0.8063
1611.00,0.8317
1610.00,0.8580
1609.00,0.8848
1608.00,0.9114
1607.00,0.9371
1606.00,0.9627
1605.00,0.9908
1604.00,1.0238
1603.00,1.0617
1602.00,1.1041
1601.00,1.1513
1600.00,1.2017
1599.00,1.2520
1598.00,1.3009
1597.00,1.3527
1596.00,1.4119
1595.00,1.4798
1594.00,1.5582
1593.00,1.6533
1592.00,1.7707
1591.00,1.9091
1590.00,2.0667
1589.00,2.2590
1588.00,2.5130
1587.00,2.8333
1586.00,3.1693
1585.00,3.5790
1584.00,4.2747
1583.00,3.9998
1582.00,4.1951
1581.00,3.8783
1580.00,4.1990
1579.00,4.2326
1578.00,3.8495
1577.00,3.7793
1576.00,4.3674
1575.00,4.6232
1574.00,3.8761
1573.00,3.6905
1572.00,3.7804
1571.00,3.4839
1570.00,3.1093
1569.00,2.9330
1568.00,2.8899
1567.00,2.8773
1566.00,2.8727
1565.00,2.9535
1564.00,3.1905
1563.00,3.5280
1562.00,3.6177
1561.00,3.6548
1560.00,3.9731
1559.00,4.0224
1558.00,3.4967
1557.00,3.0483
1556.00,2.7672
1555.00,2.4749
1554.00,2.2095
1553.00,1.9999
1552.00,1.8306
1551.00,1.6818
1550.00,1.5510
1549.00,1.4438
1548.00,1.3585
1547.00,1.2865
1546.00,1.2219
1545.00,1.1647
1544.00,1.1152
1543.00,1.0712
1542.00,1.0305
1541.00,0.9925
1540.00,0.9567
1539.00,0.9240
1538.00,0.8968
1537.00,0.8763
1536.00,0.8605
1535.00,0.8471
1534.00,0.8364
1533.00,0.8305
1532.00,0.8302
1531.00,0.8341
1530.00,0.8413
1529.00,0.8520
1528.00,0.8649
1527.00,0.8776
1526.00,0.8887
1525.00,0.8986
1524.00,0.9090
1523.00,0.9218
1522.00,0.9396
1521.00,0.9623
1520.00,0.9856
1519.00,1.0044
1518.00,1.0162
1517.00,1.0187
1516.00,1.0089
1515.00,0.9862
1514.00,0.9541
1513.00,0.9170
1512.00,0.8792
1511.00,0.8446
1510.00,0.8154
1509.00,0.7923
1508.00,0.7746
1507.00,0.7618
1506.00,0.7541
1505.00,0.7517
1504.00,0.7536
1503.00,0.7581
1502.00,0.7637
1501.00,0.7697
1500.00,0.7749
1499.00,0.7782
1498.00,0.7791
1497.00,0.7784
1496.00,0.7772
1495.00,0.7763
1494.00,0.7768
1493.00,0.7802
1492.00,0.7875
1491.00,0.7988
1490.00,0.8141
1489.00,0.8337
1488.00,0.8567
1487.00,0.8823
1486.00,0.9098
1485.00,0.9393
1484.00,0.9704
1483.00,1.0029
1482.00,1.0377
1481.00,1.0759
1480.00,1.1180
1479.00,1.1652
1478.00,1.2214
1477.00,1.2925
1476.00,1.3824
1475.00,1.4946
1474.00,1.6393
1473.00,1.8367
1472.00,2.1060
1471.00,2.4526
1470.00,2.8783
1469.00,3.4500
1468.00,4.1139
1467.00,3.9044
1466.00,3.9186
1465.00,3.8459
1464.00,3.8032
1463.00,3.9005
1462.00,4.0062
1461.00,4.0674
1460.00,4.2974
1459.00,4.1104
1458.00,3.9106
1457.00,4.0149
1456.00,3.9794
1455.00,3.9817
1454.00,4.2802
1453.00,4.5068
1452.00,4.4798
1451.00,4.4649
1450.00,4.1036
1449.00,4.3014
1448.00,4.1459
1447.00,4.0222
1446.00,4.1991
1445.00,4.1136
1444.00,3.7798
1443.00,3.4863
1442.00,3.3158
1441.00,3.2483
1440.00,3.1974
1439.00,3.0918
1438.00,2.9549
1437.00,2.8126
1436.00,2.6518
1435.00,2.4762
1434.00,2.3061
1433.00,2.1458
1432.00,1.9928
1431.00,1.8511
1430.00,1.7278
1429.00,1.6261
1428.00,1.5451
1427.00,1.4827
1426.00,1.4371
1425.00,1.4076
1424.00,1.3939
1423.00,1.3942
1422.00,1.4053
1421.00,1.4245
1420.00,1.4505
1419.00,1.4817
1418.00,1.5182
1417.00,1.5638
1416.00,1.6220
1415.00,1.6882
1414.00,1.7459
1413.00,1.7702
1412.00,1.7455
1411.00,1.6813
1410.00,1.6026
1409.00,1.5263
1408.00,1.4567
1407.00,1.3920
1406.00,1.3300
1405.00,1.2706
1404.00,1.2153
1403.00,1.1666
1402.00,1.1258
1401.00,1.0929
1400.00,1.0675
1399.00,1.0498
1398.00,1.0385
1397.00,1.0304
1396.00,1.0205
1395.00,1.0049
1394.00,0.9828
1393.00,0.9572
1392.00,0.9328
1391.00,0.9131
1390.00,0.9007
1389.00,0.8978
1388.00,0.9066
1387.00,0.9285
1386.00,0.9638
1385.00,1.0133
1384.00,1.0805
1383.00,1.1709
1382.00,1.2890
1381.00,1.4357
1380.00,1.6033
1379.00,1.7590
1378.00,1.8357
1377.00,1.7935
1376.00,1.6778
1375.00,1.5497
1374.00,1.4409
1373.00,1.3616
1372.00,1.3099
1371.00,1.2778
1370.00,1.2566
1369.00,1.2400
1368.00,1.2239
1367.00,1.2056
1366.00,1.1837
1365.00,1.1570
1364.00,1.1255
1363.00,1.0905
1362.00,1.0557
1361.00,1.0244
1360.00,0.9986
1359.00,0.9784
1358.00,0.9632
1357.00,0.9529
1356.00,0.9471
1355.00,0.9451
1354.00,0.9457
1353.00,0.9471
1352.00,0.9478
1351.00,0.9466
1350.00,0.9438
1349.00,0.9406
1348.00,0.9393
1347.00,0.9420
1346.00,0.9504
1345.00,0.9648
1344.00,0.9835
1343.00,1.0026
1342.00,1.0163
1341.00,1.0194
1340.00,1.0093
1339.00,0.9871
1338.00,0.9568
1337.00,0.9224
1336.00,0.8871
1335.00,0.8536
1334.00,0.8237
1333.00,0.7989
1332.00,0.7796
1331.00,0.7663
1330.00,0.7595
1329.00,0.7605
1328.00,0.7710
1327.00,0.7931
1326.00,0.8264
1325.00,0.8656
1324.00,0.8984
1323.00,0.9111
1322.00,0.9001
1321.00,0.8746
1320.00,0.8476
1319.00,0.8269
1318.00,0.8140
1317.00,0.8079
1316.00,0.8066
1315.00,0.8091
1314.00,0.8143
1313.00,0.8215
1312.00,0.8302
1311.00,0.8395
1310.00,0.8486
1309.00,0.8574
1308.00,0.8665
1307.00,0.8772
1306.00,0.8910
1305.00,0.9082
1304.00,0.9256
1303.00,0.9367
1302.00,0.9362
1301.00,0.9254
1300.00,0.9121
1299.00,0.9047
1298.00,0.9066
1297.00,0.9138
1296.00,0.9168
1295.00,0.9069
1294.00,0.8834
1293.00,0.8532
1292.00,0.8245
1291.00,0.8011
1290.00,0.7828
1289.00,0.7679
1288.00,0.7548
1287.00,0.7423
1286.00,0.7294
1285.00,0.7158
1284.00,0.7016
1283.00,0.6878
1282.00,0.6748
1281.00,0.6635
1280.00,0.6543
1279.00,0.6472
1278.00,0.6417
1277.00,0.6375
1276.00,0.6345
1275.00,0.6330
1274.00,0.6331
1273.00,0.6349
1272.00,0.6382
1271.00,0.6422
1270.00,0.6458
1269.00,0.6473
1268.00,0.6454
1267.00,0.6398
1266.00,0.6312
1265.00,0.6214
1264.00,0.6122
1263.00,0.6051
1262.00,0.6003
1261.00,0.5978
1260.00,0.5971
1259.00,0.5978
1258.00,0.5991
1257.00,0.6002
1256.00,0.6005
1255.00,0.5996
1254.00,0.5976
1253.00,0.5945
1252.00,0.5909
1251.00,0.5869
1250.00,0.5827
1249.00,0.5782
1248.00,0.5738
1247.00,0.5696
1246.00,0.5655
1245.00,0.5612
1244.00,0.5563
1243.00,0.5508
1242.00,0.5445
1241.00,0.5377
1240.00,0.5310
1239.00,0.5249
1238.00,0.5198
1237.00,0.5161
1236.00,0.5137
1235.00,0.5128
1234.00,0.5135
1233.00,0.5159
1232.00,0.5203
1231.00,0.5267
1230.00,0.5346
1229.00,0.5429
1228.00,0.5508
1227.00,0.5580
1226.00,0.5646
1225.00,0.5706
1224.00,0.5768
1223.00,0.5834
1222.00,0.5900
1221.00,0.5948
1220.00,0.5951
1219.00,0.5896
1218.00,0.5794
1217.00,0.5680
1216.00,0.5587
1215.00,0.5531
1214.00,0.5504
1213.00,0.5482
1212.00,0.5440
1211.00,0.5363
1210.00,0.5259
1209.00,0.5150
1208.00,0.5063
1207.00,0.5010
1206.00,0.4987
1205.00,0.4983
1204.00,0.4980
1203.00,0.4971
1202.00,0.4956
1201.00,0.4943
1200.00,0.4941
1199.00,0.4956
1198.00,0.4986
1197.00,0.5028
1196.00,0.5080
1195.00,0.5144
1194.00,0.5220
1193.00,0.5306
1192.00,0.5392
1191.00,0.5462
1190.00,0.5501
1189.00,0.5495
1188.00,0.5449
1187.00,0.5379
1186.00,0.5305
1185.00,0.5237
1184.00,0.5183
1183.00,0.5139
1182.00,0.5103
1181.00,0.5071
1180.00,0.5039
1179.00,0.5005
1178.00,0.4967
1177.00,0.4921
1176.00,0.4869
1175.00,0.4811
1174.00,0.4750
1173.00,0.4689
1172.00,0.4632
1171.00,0.4581
1170.00,0.4537
1169.00,0.4498
1168.00,0.4464
1167.00,0.4433
1166.00,0.4408
1165.00,0.4387
1164.00,0.4374
1163.00,0.4369
1162.00,0.4374
1161.00,0.4392
1160.00,0.4426
1159.00,0.4482
1158.00,0.4571
1157.00,0.4706
1156.00,0.4915
1155.00,0.5234
1154.00,0.5680
1153.00,0.6196
1152.00,0.6622
1151.00,0.6767
1150.00,0.6594
1149.00,0.6259
1148.00,0.5941
1147.00,0.5725
1146.00,0.5614
1145.00,0.5580
1144.00,0.5602
1143.00,0.5673
1142.00,0.5791
1141.00,0.5962
1140.00,0.6189
1139.00,0.6459
1138.00,0.6735
1137.00,0.6964
1136.00,0.7096
1135.00,0.7113
1134.00,0.7026
1133.00,0.6862
1132.00,0.6647
1131.00,0.6404
1130.00,0.6155
1129.00,0.5927
1128.00,0.5737
1127.00,0.5597
1126.00,0.5504
1125.00,0.5453
1124.00,0.5436
1123.00,0.5442
1122.00,0.5461
1121.00,0.5489
1120.00,0.5530
1119.00,0.5589
1118.00,0.5672
1117.00,0.5782
1116.00,0.5911
1115.00,0.6031
1114.00,0.6098
1113.00,0.6078
1112.00,0.5968
1111.00,0.5795
1110.00,0.5601
1109.00,0.5418
1108.00,0.5267
1107.00,0.5155
1106.00,0.5079
1105.00,0.5032
1104.00,0.5008
1103.00,0.5000
1102.00,0.5004
1101.00,0.5012
1100.00,0.5022
1099.00,0.5028
1098.00,0.5027
1097.00,0.5015
1096.00,0.4996
1095.00,0.4973
1094.00,0.4950
1093.00,0.4931
1092.00,0.4923
1091.00,0.4928
1090.00,0.4950
1089.00,0.4988
1088.00,0.5044
1087.00,0.5119
1086.00,0.5211
1085.00,0.5320
1084.00,0.5444
1083.00,0.5584
1082.00,0.5735
1081.00,0.5888
1080.00,0.6032
1079.00,0.6156
1078.00,0.6242
1077.00,0.6281
1076.00,0.6271
1075.00,0.6219
1074.00,0.6136
1073.00,0.6037
1072.00,0.5937
1071.00,0.5843
1070.00,0.5759
1069.00,0.5687
1068.00,0.5628
1067.00,0.5583
1066.00,0.5550
1065.00,0.5529
1064.00,0.5518
1063.00,0.5517
1062.00,0.5522
1061.00,0.5531
1060.00,0.5539
1059.00,0.5544
1058.00,0.5542
1057.00,0.5533
1056.00,0.5518
1055.00,0.5502
1054.00,0.5489
1053.00,0.5479
1052.00,0.5479
1051.00,0.5490
1050.00,0.5512
1049.00,0.5544
1048.00,0.5582
1047.00,0.5621
1046.00,0.5654
1045.00,0.5677
1044.00,0.5692
1043.00,0.5704
1042.00,0.5716
1041.00,0.5733
1040.00,0.5754
1039.00,0.5776
1038.00,0.5798
1037.00,0.5818
1036.00,0.5841
1035.00,0.5873
1034.00,0.5921
1033.00,0.5987
1032.00,0.6074
1031.00,0.6178
1030.00,0.6289
1029.00,0.6393
1028.00,0.6473
1027.00,0.6518
1026.00,0.6521
1025.00,0.6490
1024.00,0.6439
1023.00,0.6383
1022.00,0.6334
1021.00,0.6301
1020.00,0.6289
1019.00,0.6298
1018.00,0.6324
1017.00,0.6362
1016.00,0.6408
1015.00,0.6459
1014.00,0.6510
1013.00,0.6561
1012.00,0.6612
1011.00,0.6664
1010.00,0.6723
1009.00,0.6789
1008.00,0.6864
1007.00,0.6945
1006.00,0.7024
1005.00,0.7096
1004.00,0.7162
1003.00,0.7219
1002.00,0.7266
1001.00,0.7298
1000.00,0.7308
999.00,0.7290
998.00,0.7239
997.00,0.7160
996.00,0.7061
995.00,0.6948
994.00,0.6825
993.00,0.6694
992.00,0.6557
991.00,0.6416
990.00,0.6275
989.00,0.6135
988.00,0.6002
987.00,0.5877
986.00,0.5760
985.00,0.5651
984.00,0.5548
983.00,0.5448
982.00,0.5351
981.00,0.5258
980.00,0.5167
979.00,0.5078
978.00,0.4990
977.00,0.4905
976.00,0.4826
975.00,0.4756
974.00,0.4696
973.00,0.4646
972.00,0.4605
971.00,0.4574
970.00,0.4553
969.00,0.4542
968.00,0.4540
967.00,0.4544
966.00,0.4547
965.00,0.4541
964.00,0.4523
963.00,0.4491
962.00,0.4450
961.00,0.4403
960.00,0.4358
959.00,0.4320
958.00,0.4293
957.00,0.4277
956.00,0.4271
955.00,0.4269
954.00,0.4269
953.00,0.4268
952.00,0.4270
951.00,0.4280
950.00,0.4302
949.00,0.4339
948.00,0.4391
947.00,0.4458
946.00,0.4532
945.00,0.4603
944.00,0.4660
943.00,0.4695
942.00,0.4703
941.00,0.4687
940.00,0.4654
939.00,0.4615
938.00,0.4573
937.00,0.4534
936.00,0.4500
935.00,0.4475
934.00,0.4460
933.00,0.4459
932.00,0.4475
931.00,0.4512
930.00,0.4577
929.00,0.4671
928.00,0.4800
927.00,0.4963
926.00,0.5148
925.00,0.5332
924.00,0.5489
923.00,0.5601
922.00,0.5668
921.00,0.5697
920.00,0.5694
919.00,0.5658
918.00,0.5582
917.00,0.5458
916.00,0.5284
915.00,0.5069
914.00,0.4841
913.00,0.4630
912.00,0.4457
911.00,0.4329
910.00,0.4237
909.00,0.4171
908.00,0.4120
907.00,0.4080
906.00,0.4048
905.00,0.4023
904.00,0.4006
903.00,0.3997
902.00,0.3997
901.00,0.4004
900.00,0.4019
899.00,0.4041
898.00,0.4069
897.00,0.4105
896.00,0.4151
895.00,0.4208
894.00,0.4277
893.00,0.4355
892.00,0.4436
891.00,0.4513
890.00,0.4571
889.00,0.4599
888.00,0.4593
887.00,0.4556
886.00,0.4498
885.00,0.4428
884.00,0.4362
883.00,0.4308
882.00,0.4273
881.00,0.4254
880.00,0.4248
879.00,0.4249
878.00,0.4254
877.00,0.4261
876.00,0.4269
875.00,0.4278
874.00,0.4289
873.00,0.4301
872.00,0.4317
871.00,0.4338
870.00,0.4367
869.00,0.4406
868.00,0.4460
867.00,0.4531
866.00,0.4622
865.00,0.4729
864.00,0.4846
863.00,0.4956
862.00,0.5040
861.00,0.5078
860.00,0.5061
859.00,0.4996
858.00,0.4900
857.00,0.4797
856.00,0.4704
855.00,0.4631
854.00,0.4579
853.00,0.4545
852.00,0.4527
851.00,0.4522
850.00,0.4526
849.00,0.4536
848.00,0.4550
847.00,0.4567
846.00,0.4590
845.00,0.4617
844.00,0.4651
843.00,0.4698
842.00,0.4765
841.00,0.4862
840.00,0.4993
839.00,0.5155
838.00,0.5327
837.00,0.5473
836.00,0.5556
835.00,0.5550
834.00,0.5458
833.00,0.5312
832.00,0.5153
831.00,0.5014
830.00,0.4912
829.00,0.4851
828.00,0.4831
827.00,0.4847
826.00,0.4892
825.00,0.4959
824.00,0.5038
823.00,0.5114
822.00,0.5166
821.00,0.5177
820.00,0.5146
819.00,0.5082
818.00,0.4996
817.00,0.4905
816.00,0.4820
815.00,0.4750
814.00,0.4695
813.00,0.4653
812.00,0.4621
811.00,0.4594
810.00,0.4570
809.00,0.4546
808.00,0.4521
807.00,0.4495
806.00,0.4470
805.00,0.4448
804.00,0.4433
803.00,0.4427
802.00,0.4432
801.00,0.4446
800.00,0.4471
799.00,0.4506
798.00,0.4546
797.00,0.4588
796.00,0.4629
795.00,0.4669
794.00,0.4711
793.00,0.4758
792.00,0.4809
791.00,0.4860
790.00,0.4908
789.00,0.4950
788.00,0.4989
787.00,0.5035
786.00,0.5099
785.00,0.5190
784.00,0.5311
783.00,0.5453
782.00,0.5596
781.00,0.5705
780.00,0.5748
779.00,0.5705
778.00,0.5587
777.00,0.5427
776.00,0.5262
775.00,0.5120
774.00,0.5014
773.00,0.4947
772.00,0.4915
771.00,0.4915
770.00,0.4941
769.00,0.4988
768.00,0.5052
767.00,0.5126
766.00,0.5206
765.00,0.5287
764.00,0.5365
763.00,0.5437
762.00,0.5504
761.00,0.5564
760.00,0.5611
759.00,0.5639
758.00,0.5649
757.00,0.5648
756.00,0.5652
755.00,0.5670
754.00,0.5703
753.00,0.5746
752.00,0.5796
751.00,0.5859
750.00,0.5944
749.00,0.6057
748.00,0.6198
747.00,0.6359
746.00,0.6522
745.00,0.6662
744.00,0.6759
743.00,0.6802
742.00,0.6799
741.00,0.6773
740.00,0.6752
739.00,0.6761
738.00,0.6809
737.00,0.6897
736.00,0.7026
735.00,0.7195
734.00,0.7405
733.00,0.7656
732.00,0.7950
731.00,0.8293
730.00,0.8701
729.00,0.9194
728.00,0.9791
727.00,1.0505
726.00,1.1333
725.00,1.2242
724.00,1.3139
723.00,1.3851
722.00,1.4144
721.00,1.3858
720.00,1.3077
719.00,1.2057
718.00,1.1027
717.00,1.0108
716.00,0.9337
715.00,0.8711
714.00,0.8204
713.00,0.7786
712.00,0.7432
711.00,0.7126
710.00,0.6859
709.00,0.6624
708.00,0.6417
707.00,0.6237
706.00,0.6080
705.00,0.5944
704.00,0.5826
703.00,0.5723
702.00,0.5631
701.00,0.5545
700.00,0.5464
699.00,0.5388
698.00,0.5319
697.00,0.5254
696.00,0.5195
695.00,0.5144
694.00,0.5102
693.00,0.5068
692.00,0.5042
691.00,0.5022
690.00,0.5005
689.00,0.4991
688.00,0.4981
687.00,0.4980
686.00,0.4988
685.00,0.5007
684.00,0.5036
683.00,0.5074
682.00,0.5121
681.00,0.5178
680.00,0.5245
679.00,0.5318
678.00,0.5393
677.00,0.5470
676.00,0.5548
675.00,0.5623
674.00,0.5690
673.00,0.5752
672.00,0.5811
671.00,0.5869
670.00,0.5928
669.00,0.5996
668.00,0.6068
667.00,0.6131
666.00,0.6192
665.00,0.6255
664.00,0.6310
663.00,0.6348
662.00,0.6359
661.00,0.6337
660.00,0.6286
659.00,0.6219
658.00,0.6148
657.00,0.6084
656.00,0.6028
655.00,0.5985
654.00,0.5956
653.00,0.5944
652.00,0.5947
651.00,0.5967
650.00,0.6002
649.00,0.6048
648.00,0.6104
647.00,0.6166
646.00,0.6231
645.00,0.6290
644.00,0.6335
643.00,0.6356
642.00,0.6351
641.00,0.6322
640.00,0.6271
639.00,0.6196
638.00,0.6099
637.00,0.5986
636.00,0.5870
635.00,0.5765
634.00,0.5676
633.00,0.5602
632.00,0.5544
631.00,0.5507
630.00,0.5492
629.00,0.5497
628.00,0.5520
627.00,0.5564
626.00,0.5630
625.00,0.5719
624.00,0.5826
623.00,0.5946
622.00,0.6078
621.00,0.6216
620.00,0.6354
619.00,0.6481
618.00,0.6581
617.00,0.6638
616.00,0.6640
615.00,0.6583
614.00,0.6472
613.00,0.6328
612.00,0.6171
611.00,0.6017
610.00,0.5871
609.00,0.5734
608.00,0.5612
607.00,0.5510
606.00,0.5430
605.00,0.5366
604.00,0.5315
603.00,0.5273
602.00,0.5241
601.00,0.5215
600.00,0.5193
599.00,0.5176
598.00,0.5166
597.00,0.5163
596.00,0.5164
595.00,0.5166
594.00,0.5168
593.00,0.5171
592.00,0.5179
591.00,0.5192
590.00,0.5210
589.00,0.5232
588.00,0.5259
587.00,0.5296
586.00,0.5337
585.00,0.5376
584.00,0.5405
583.00,0.5429
582.00,0.5455
581.00,0.5487
580.00,0.5525
579.00,0.5562
578.00,0.5598
577.00,0.5632
576.00,0.5672
575.00,0.5721
574.00,0.5780
573.00,0.5845
572.00,0.5915
571.00,0.5994
570.00,0.6081
569.00,0.6174
568.00,0.6268
567.00,0.6363
566.00,0.6460
565.00,0.6557
564.00,0.6654
563.00,0.6747
562.00,0.6837
561.00,0.6918
560.00,0.6984
559.00,0.7031
558.00,0.7062
557.00,0.7085
556.00,0.7101
555.00,0.7103
554.00,0.7093
553.00,0.7081
552.00,0.7083
551.00,0.7103
550.00,0.7142
