Created as New Dataset,
cm-1,A
4000.00,0.3580
3999.00,0.3581
3998.00,0.3581
3997.00,0.3581
3996.00,0.3580
3995.00,0.3579
3994.00,0.3578
3993.00,0.3576
3992.00,0.3573
3991.00,0.3570
3990.00,0.3566
3989.00,0.3562
3988.00,0.3557
3987.00,0.3553
3986.00,0.3548
3985.00,0.3543
3984.00,0.3539
3983.00,0.3534
3982.00,0.3530
3981.00,0.3525
3980.00,0.3521
3979.00,0.3516
3978.00,0.3512
3977.00,0.3508
3976.00,0.3505
3975.00,0.3501
3974.00,0.3497
3973.00,0.3493
3972.00,0.3490
3971.00,0.3487
3970.00,0.3483
3969.00,0.3480
3968.00,0.3476
3967.00,0.3472
3966.00,0.3468
3965.00,0.3463
3964.00,0.3458
3963.00,0.3453
3962.00,0.3448
3961.00,0.3442
3960.00,0.3437
3959.00,0.3431
3958.00,0.3427
3957.00,0.3423
3956.00,0.3420
3955.00,0.3416
3954.00,0.3413
3953.00,0.3410
3952.00,0.3406
3951.00,0.3402
3950.00,0.3398
3949.00,0.3394
3948.00,0.3390
3947.00,0.3387
3946.00,0.3385
3945.00,0.3382
3944.00,0.3379
3943.00,0.3377
3942.00,0.3374
3941.00,0.3372
3940.00,0.3370
3939.00,0.3369
3938.00,0.3368
3937.00,0.3368
3936.00,0.3368
3935.00,0.3367
3934.00,0.3367
3933.00,0.3366
3932.00,0.3366
3931.00,0.3366
3930.00,0.3367
3929.00,0.3368
3928.00,0.3368
3927.00,0.3368
3926.00,0.3368
3925.00,0.3368
3924.00,0.3369
3923.00,0.3370
3922.00,0.3371
3921.00,0.3372
3920.00,0.3372
3919.00,0.3371
3918.00,0.3370
3917.00,0.3369
3916.00,0.3368
3915.00,0.3367
3914.00,0.3366
3913.00,0.3364
3912.00,0.3362
3911.00,0.3360
3910.00,0.3358
3909.00,0.3357
3908.00,0.3356
3907.00,0.3354
3906.00,0.3353
3905.00,0.3353
3904.00,0.3353
3903.00,0.3354
3902.00,0.3354
3901.00,0.3354
3900.00,0.3353
3899.00,0.3352
3898.00,0.3350
3897.00,0.3348
3896.00,0.3346
3895.00,0.3344
3894.00,0.3343
3893.00,0.3342
3892.00,0.3341
3891.00,0.3341
3890.00,0.3341
3889.00,0.3340
3888.00,0.3338
3887.00,0.3336
3886.00,0.3335
3885.00,0.3334
3884.00,0.3334
3883.00,0.3333
3882.00,0.3332
3881.00,0.3331
3880.00,0.3330
3879.00,0.3329
3878.00,0.3327
3877.00,0.3326
3876.00,0.3325
3875.00,0.3324
3874.00,0.3325
3873.00,0.3325
3872.00,0.3323
3871.00,0.3322
3870.00,0.3322
3869.00,0.3322
3868.00,0.3321
3867.00,0.3320
3866.00,0.3318
3865.00,0.3317
3864.00,0.3316
3863.00,0.3315
3862.00,0.3314
3861.00,0.3313
3860.00,0.3312
3859.00,0.3312
3858.00,0.3312
3857.00,0.3312
3856.00,0.3311
3855.00,0.3310
3854.00,0.3311
3853.00,0.3313
3852.00,0.3316
3851.00,0.3316
3850.00,0.3315
3849.00,0.3313
3848.00,0.3312
3847.00,0.3310
3846.00,0.3309
3845.00,0.3308
3844.00,0.3307
3843.00,0.3306
3842.00,0.3306
3841.00,0.3306
3840.00,0.3306
3839.00,0.3306
3838.00,0.3306
3837.00,0.3306
3836.00,0.3305
3835.00,0.3303
3834.00,0.3300
3833.00,0.3297
3832.00,0.3294
3831.00,0.3291
3830.00,0.3288
3829.00,0.3285
3828.00,0.3282
3827.00,0.3280
3826.00,0.3279
3825.00,0.3278
3824.00,0.3277
3823.00,0.3275
3822.00,0.3275
3821.00,0.3275
3820.00,0.3276
3819.00,0.3276
3818.00,0.3275
3817.00,0.3273
3816.00,0.3272
3815.00,0.3270
3814.00,0.3268
3813.00,0.3265
3812.00,0.3263
3811.00,0.3261
3810.00,0.3260
3809.00,0.3258
3808.00,0.3256
3807.00,0.3255
3806.00,0.3255
3805.00,0.3255
3804.00,0.3255
3803.00,0.3253
3802.00,0.3252
3801.00,0.3251
3800.00,0.3248
3799.00,0.3245
3798.00,0.3242
3797.00,0.3239
3796.00,0.3237
3795.00,0.3234
3794.00,0.3231
3793.00,0.3228
3792.00,0.3226
3791.00,0.3224
3790.00,0.3222
3789.00,0.3220
3788.00,0.3218
3787.00,0.3217
3786.00,0.3217
3785.00,0.3217
3784.00,0.3218
3783.00,0.3219
3782.00,0.3220
3781.00,0.3221
3780.00,0.3221
3779.00,0.3222
3778.00,0.3222
3777.00,0.3223
3776.00,0.3223
3775.00,0.3225
3774.00,0.3226
3773.00,0.3228
3772.00,0.3228
3771.00,0.3228
3770.00,0.3229
3769.00,0.3229
3768.00,0.3229
3767.00,0.3228
3766.00,0.3227
3765.00,0.3226
3764.00,0.3225
3763.00,0.3224
3762.00,0.3222
3761.00,0.3220
3760.00,0.3218
3759.00,0.3216
3758.00,0.3215
3757.00,0.3214
3756.00,0.3213
3755.00,0.3213
3754.00,0.3213
3753.00,0.3213
3752.00,0.3213
3751.00,0.3213
3750.00,0.3213
3749.00,0.3214
3748.00,0.3214
3747.00,0.3214
3746.00,0.3213
3745.00,0.3213
3744.00,0.3213
3743.00,0.3211
3742.00,0.3208
3741.00,0.3206
3740.00,0.3204
3739.00,0.3204
3738.00,0.3205
3737.00,0.3205
3736.00,0.3206
3735.00,0.3207
3734.00,0.3206
3733.00,0.3205
3732.00,0.3204
3731.00,0.3202
3730.00,0.3200
3729.00,0.3197
3728.00,0.3195
3727.00,0.3192
3726.00,0.3190
3725.00,0.3188
3724.00,0.3186
3723.00,0.3184
3722.00,0.3182
3721.00,0.3180
3720.00,0.3179
3719.00,0.3178
3718.00,0.3178
3717.00,0.3178
3716.00,0.3178
3715.00,0.3178
3714.00,0.3179
3713.00,0.3180
3712.00,0.3182
3711.00,0.3184
3710.00,0.3185
3709.00,0.3186
3708.00,0.3188
3707.00,0.3190
3706.00,0.3191
3705.00,0.3193
3704.00,0.3194
3703.00,0.3195
3702.00,0.3196
3701.00,0.3198
3700.00,0.3200
3699.00,0.3201
3698.00,0.3203
3697.00,0.3205
3696.00,0.3207
3695.00,0.3208
3694.00,0.3209
3693.00,0.3210
3692.00,0.3212
3691.00,0.3213
3690.00,0.3215
3689.00,0.3217
3688.00,0.3219
3687.00,0.3220
3686.00,0.3220
3685.00,0.3219
3684.00,0.3218
3683.00,0.3217
3682.00,0.3215
3681.00,0.3215
3680.00,0.3215
3679.00,0.3216
3678.00,0.3216
3677.00,0.3216
3676.00,0.3217
3675.00,0.3219
3674.00,0.3220
3673.00,0.3221
3672.00,0.3221
3671.00,0.3222
3670.00,0.3223
3669.00,0.3224
3668.00,0.3224
3667.00,0.3224
3666.00,0.3224
3665.00,0.3225
3664.00,0.3226
3663.00,0.3228
3662.00,0.3230
3661.00,0.3233
3660.00,0.3237
3659.00,0.3240
3658.00,0.3243
3657.00,0.3246
3656.00,0.3250
3655.00,0.3255
3654.00,0.3259
3653.00,0.3263
3652.00,0.3267
3651.00,0.3272
3650.00,0.3276
3649.00,0.3280
3648.00,0.3284
3647.00,0.3287
3646.00,0.3289
3645.00,0.3291
3644.00,0.3293
3643.00,0.3295
3642.00,0.3297
3641.00,0.3299
3640.00,0.3302
3639.00,0.3307
3638.00,0.3312
3637.00,0.3318
3636.00,0.3323
3635.00,0.3329
3634.00,0.3335
3633.00,0.3342
3632.00,0.3350
3631.00,0.3358
3630.00,0.3369
3629.00,0.3382
3628.00,0.3397
3627.00,0.3411
3626.00,0.3422
3625.00,0.3431
3624.00,0.3436
3623.00,0.3438
3622.00,0.3435
3621.00,0.3426
3620.00,0.3415
3619.00,0.3402
3618.00,0.3391
3617.00,0.3382
3616.00,0.3375
3615.00,0.3371
3614.00,0.3368
3613.00,0.3367
3612.00,0.3368
3611.00,0.3369
3610.00,0.3372
3609.00,0.3375
3608.00,0.3377
3607.00,0.3379
3606.00,0.3379
3605.00,0.3378
3604.00,0.3376
3603.00,0.3373
3602.00,0.3367
3601.00,0.3361
3600.00,0.3352
3599.00,0.3343
3598.00,0.3334
3597.00,0.3324
3596.00,0.3315
3595.00,0.3306
3594.00,0.3297
3593.00,0.3289
3592.00,0.3284
3591.00,0.3279
3590.00,0.3275
3589.00,0.3272
3588.00,0.3268
3587.00,0.3263
3586.00,0.3258
3585.00,0.3254
3584.00,0.3250
3583.00,0.3247
3582.00,0.3244
3581.00,0.3240
3580.00,0.3236
3579.00,0.3233
3578.00,0.3230
3577.00,0.3227
3576.00,0.3226
3575.00,0.3225
3574.00,0.3225
3573.00,0.3226
3572.00,0.3227
3571.00,0.3228
3570.00,0.3230
3569.00,0.3231
3568.00,0.3233
3567.00,0.3235
3566.00,0.3237
3565.00,0.3239
3564.00,0.3240
3563.00,0.3242
3562.00,0.3244
3561.00,0.3246
3560.00,0.3248
3559.00,0.3250
3558.00,0.3252
3557.00,0.3255
3556.00,0.3258
3555.00,0.3262
3554.00,0.3267
3553.00,0.3271
3552.00,0.3276
3551.00,0.3280
3550.00,0.3284
3549.00,0.3289
3548.00,0.3294
3547.00,0.3299
3546.00,0.3304
3545.00,0.3310
3544.00,0.3315
3543.00,0.3320
3542.00,0.3325
3541.00,0.3330
3540.00,0.3335
3539.00,0.3340
3538.00,0.3346
3537.00,0.3352
3536.00,0.3358
3535.00,0.3364
3534.00,0.3370
3533.00,0.3376
3532.00,0.3382
3531.00,0.3389
3530.00,0.3396
3529.00,0.3403
3528.00,0.3411
3527.00,0.3419
3526.00,0.3428
3525.00,0.3435
3524.00,0.3443
3523.00,0.3450
3522.00,0.3458
3521.00,0.3465
3520.00,0.3473
3519.00,0.3480
3518.00,0.3488
3517.00,0.3497
3516.00,0.3506
3515.00,0.3514
3514.00,0.3523
3513.00,0.3532
3512.00,0.3540
3511.00,0.3549
3510.00,0.3557
3509.00,0.3565
3508.00,0.3574
3507.00,0.3583
3506.00,0.3592
3505.00,0.3601
3504.00,0.3610
3503.00,0.3619
3502.00,0.3628
3501.00,0.3637
3500.00,0.3646
3499.00,0.3655
3498.00,0.3664
3497.00,0.3674
3496.00,0.3685
3495.00,0.3695
3494.00,0.3706
3493.00,0.3716
3492.00,0.3726
3491.00,0.3735
3490.00,0.3746
3489.00,0.3757
3488.00,0.3769
3487.00,0.3782
3486.00,0.3793
3485.00,0.3805
3484.00,0.3816
3483.00,0.3828
3482.00,0.3840
3481.00,0.3853
3480.00,0.3865
3479.00,0.3876
3478.00,0.3888
3477.00,0.3900
3476.00,0.3913
3475.00,0.3925
3474.00,0.3938
3473.00,0.3951
3472.00,0.3965
3471.00,0.3978
3470.00,0.3992
3469.00,0.4007
3468.00,0.4021
3467.00,0.4036
3466.00,0.4050
3465.00,0.4064
3464.00,0.4079
3463.00,0.4094
3462.00,0.4110
3461.00,0.4126
3460.00,0.4142
3459.00,0.4158
3458.00,0.4175
3457.00,0.4193
3456.00,0.4212
3455.00,0.4230
3454.00,0.4249
3453.00,0.4267
3452.00,0.4287
3451.00,0.4307
3450.00,0.4329
3449.00,0.4353
3448.00,0.4378
3447.00,0.4403
3446.00,0.4430
3445.00,0.4457
3444.00,0.4486
3443.00,0.4516
3442.00,0.4546
3441.00,0.4576
3440.00,0.4605
3439.00,0.4632
3438.00,0.4658
3437.00,0.4683
3436.00,0.4706
3435.00,0.4728
3434.00,0.4748
3433.00,0.4768
3432.00,0.4786
3431.00,0.4804
3430.00,0.4822
3429.00,0.4839
3428.00,0.4856
3427.00,0.4873
3426.00,0.4891
3425.00,0.4908
3424.00,0.4926
3423.00,0.4943
3422.00,0.4961
3421.00,0.4979
3420.00,0.4998
3419.00,0.5018
3418.00,0.5037
3417.00,0.5057
3416.00,0.5077
3415.00,0.5097
3414.00,0.5117
3413.00,0.5139
3412.00,0.5161
3411.00,0.5183
3410.00,0.5205
3409.00,0.5228
3408.00,0.5251
3407.00,0.5274
3406.00,0.5297
3405.00,0.5321
3404.00,0.5344
3403.00,0.5367
3402.00,0.5391
3401.00,0.5415
3400.00,0.5438
3399.00,0.5461
3398.00,0.5484
3397.00,0.5507
3396.00,0.5531
3395.00,0.5556
3394.00,0.5581
3393.00,0.5607
3392.00,0.5632
3391.00,0.5657
3390.00,0.5681
3389.00,0.5706
3388.00,0.5731
3387.00,0.5756
3386.00,0.5781
3385.00,0.5807
3384.00,0.5834
3383.00,0.5862
3382.00,0.5890
3381.00,0.5919
3380.00,0.5947
3379.00,0.5974
3378.00,0.6003
3377.00,0.6032
3376.00,0.6061
3375.00,0.6091
3374.00,0.6120
3373.00,0.6149
3372.00,0.6178
3371.00,0.6208
3370.00,0.6238
3369.00,0.6269
3368.00,0.6300
3367.00,0.6332
3366.00,0.6363
3365.00,0.6394
3364.00,0.6425
3363.00,0.6455
3362.00,0.6485
3361.00,0.6516
3360.00,0.6548
3359.00,0.6579
3358.00,0.6611
3357.00,0.6642
3356.00,0.6672
3355.00,0.6701
3354.00,0.6730
3353.00,0.6758
3352.00,0.6785
3351.00,0.6812
3350.00,0.6838
3349.00,0.6865
3348.00,0.6891
3347.00,0.6916
3346.00,0.6940
3345.00,0.6962
3344.00,0.6982
3343.00,0.7000
3342.00,0.7018
3341.00,0.7035
3340.00,0.7051
3339.00,0.7064
3338.00,0.7075
3337.00,0.7084
3336.00,0.7091
3335.00,0.7097
3334.00,0.7102
3333.00,0.7105
3332.00,0.7107
3331.00,0.7107
3330.00,0.7106
3329.00,0.7105
3328.00,0.7102
3327.00,0.7098
3326.00,0.7091
3325.00,0.7082
3324.00,0.7073
3323.00,0.7062
3322.00,0.7051
3321.00,0.7038
3320.00,0.7023
3319.00,0.7008
3318.00,0.6992
3317.00,0.6976
3316.00,0.6960
3315.00,0.6943
3314.00,0.6926
3313.00,0.6909
3312.00,0.6892
3311.00,0.6875
3310.00,0.6859
3309.00,0.6843
3308.00,0.6826
3307.00,0.6809
3306.00,0.6793
3305.00,0.6777
3304.00,0.6762
3303.00,0.6746
3302.00,0.6730
3301.00,0.6715
3300.00,0.6700
3299.00,0.6688
3298.00,0.6677
3297.00,0.6667
3296.00,0.6657
3295.00,0.6648
3294.00,0.6638
3293.00,0.6630
3292.00,0.6623
3291.00,0.6616
3290.00,0.6610
3289.00,0.6605
3288.00,0.6600
3287.00,0.6597
3286.00,0.6594
3285.00,0.6593
3284.00,0.6592
3283.00,0.6592
3282.00,0.6593
3281.00,0.6592
3280.00,0.6591
3279.00,0.6591
3278.00,0.6591
3277.00,0.6593
3276.00,0.6596
3275.00,0.6598
3274.00,0.6601
3273.00,0.6604
3272.00,0.6607
3271.00,0.6610
3270.00,0.6614
3269.00,0.6618
3268.00,0.6622
3267.00,0.6625
3266.00,0.6628
3265.00,0.6631
3264.00,0.6634
3263.00,0.6636
3262.00,0.6637
3261.00,0.6638
3260.00,0.6640
3259.00,0.6641
3258.00,0.6642
3257.00,0.6642
3256.00,0.6641
3255.00,0.6639
3254.00,0.6637
3253.00,0.6634
3252.00,0.6631
3251.00,0.6627
3250.00,0.6622
3249.00,0.6617
3248.00,0.6612
3247.00,0.6606
3246.00,0.6599
3245.00,0.6590
3244.00,0.6581
3243.00,0.6571
3242.00,0.6562
3241.00,0.6552
3240.00,0.6540
3239.00,0.6528
3238.00,0.6515
3237.00,0.6503
3236.00,0.6490
3235.00,0.6477
3234.00,0.6463
3233.00,0.6448
3232.00,0.6431
3231.00,0.6414
3230.00,0.6397
3229.00,0.6378
3228.00,0.6359
3227.00,0.6339
3226.00,0.6320
3225.00,0.6301
3224.00,0.6281
3223.00,0.6262
3222.00,0.6241
3221.00,0.6221
3220.00,0.6200
3219.00,0.6179
3218.00,0.6158
3217.00,0.6137
3216.00,0.6114
3215.00,0.6091
3214.00,0.6069
3213.00,0.6047
3212.00,0.6025
3211.00,0.6004
3210.00,0.5983
3209.00,0.5961
3208.00,0.5940
3207.00,0.5920
3206.00,0.5899
3205.00,0.5878
3204.00,0.5857
3203.00,0.5836
3202.00,0.5816
3201.00,0.5796
3200.00,0.5776
3199.00,0.5755
3198.00,0.5733
3197.00,0.5712
3196.00,0.5690
3195.00,0.5668
3194.00,0.5647
3193.00,0.5625
3192.00,0.5603
3191.00,0.5580
3190.00,0.5557
3189.00,0.5534
3188.00,0.5510
3187.00,0.5488
3186.00,0.5466
3185.00,0.5445
3184.00,0.5424
3183.00,0.5401
3182.00,0.5378
3181.00,0.5355
3180.00,0.5333
3179.00,0.5310
3178.00,0.5289
3177.00,0.5267
3176.00,0.5246
3175.00,0.5226
3174.00,0.5206
3173.00,0.5186
3172.00,0.5166
3171.00,0.5147
3170.00,0.5128
3169.00,0.5110
3168.00,0.5092
3167.00,0.5074
3166.00,0.5056
3165.00,0.5039
3164.00,0.5021
3163.00,0.5005
3162.00,0.4989
3161.00,0.4973
3160.00,0.4957
3159.00,0.4941
3158.00,0.4925
3157.00,0.4909
3156.00,0.4894
3155.00,0.4879
3154.00,0.4864
3153.00,0.4849
3152.00,0.4834
3151.00,0.4820
3150.00,0.4806
3149.00,0.4794
3148.00,0.4781
3147.00,0.4769
3146.00,0.4757
3145.00,0.4745
3144.00,0.4733
3143.00,0.4721
3142.00,0.4710
3141.00,0.4699
3140.00,0.4689
3139.00,0.4679
3138.00,0.4669
3137.00,0.4660
3136.00,0.4651
3135.00,0.4643
3134.00,0.4635
3133.00,0.4627
3132.00,0.4619
3131.00,0.4612
3130.00,0.4605
3129.00,0.4599
3128.00,0.4592
3127.00,0.4585
3126.00,0.4578
3125.00,0.4572
3124.00,0.4566
3123.00,0.4560
3122.00,0.4555
3121.00,0.4550
3120.00,0.4546
3119.00,0.4542
3118.00,0.4539
3117.00,0.4537
3116.00,0.4536
3115.00,0.4535
3114.00,0.4534
3113.00,0.4535
3112.00,0.4535
3111.00,0.4536
3110.00,0.4538
3109.00,0.4541
3108.00,0.4545
3107.00,0.4550
3106.00,0.4556
3105.00,0.4563
3104.00,0.4569
3103.00,0.4576
3102.00,0.4583
3101.00,0.4589
3100.00,0.4596
3099.00,0.4603
3098.00,0.4611
3097.00,0.4618
3096.00,0.4625
3095.00,0.4631
3094.00,0.4637
3093.00,0.4643
3092.00,0.4650
3091.00,0.4657
3090.00,0.4666
3089.00,0.4674
3088.00,0.4684
3087.00,0.4694
3086.00,0.4704
3085.00,0.4715
3084.00,0.4727
3083.00,0.4740
3082.00,0.4754
3081.00,0.4769
3080.00,0.4785
3079.00,0.4803
3078.00,0.4822
3077.00,0.4842
3076.00,0.4863
3075.00,0.4885
3074.00,0.4909
3073.00,0.4933
3072.00,0.4959
3071.00,0.4986
3070.00,0.5015
3069.00,0.5046
3068.00,0.5078
3067.00,0.5110
3066.00,0.5143
3065.00,0.5176
3064.00,0.5210
3063.00,0.5245
3062.00,0.5279
3061.00,0.5314
3060.00,0.5349
3059.00,0.5383
3058.00,0.5417
3057.00,0.5451
3056.00,0.5483
3055.00,0.5514
3054.00,0.5544
3053.00,0.5573
3052.00,0.5600
3051.00,0.5626
3050.00,0.5652
3049.00,0.5679
3048.00,0.5706
3047.00,0.5734
3046.00,0.5763
3045.00,0.5794
3044.00,0.5827
3043.00,0.5861
3042.00,0.5898
3041.00,0.5936
3040.00,0.5978
3039.00,0.6022
3038.00,0.6069
3037.00,0.6118
3036.00,0.6168
3035.00,0.6220
3034.00,0.6274
3033.00,0.6328
3032.00,0.6385
3031.00,0.6442
3030.00,0.6499
3029.00,0.6556
3028.00,0.6614
3027.00,0.6672
3026.00,0.6731
3025.00,0.6790
3024.00,0.6851
3023.00,0.6913
3022.00,0.6977
3021.00,0.7045
3020.00,0.7114
3019.00,0.7186
3018.00,0.7260
3017.00,0.7336
3016.00,0.7417
3015.00,0.7503
3014.00,0.7595
3013.00,0.7692
3012.00,0.7795
3011.00,0.7901
3010.00,0.8014
3009.00,0.8134
3008.00,0.8261
3007.00,0.8398
3006.00,0.8542
3005.00,0.8695
3004.00,0.8856
3003.00,0.9025
3002.00,0.9202
3001.00,0.9390
3000.00,0.9590
2999.00,0.9801
2998.00,1.0025
2997.00,1.0261
2996.00,1.0512
2995.00,1.0781
2994.00,1.1070
2993.00,1.1381
2992.00,1.1714
2991.00,1.2074
2990.00,1.2464
2989.00,1.2885
2988.00,1.3338
2987.00,1.3828
2986.00,1.4367
2985.00,1.4965
2984.00,1.5631
2983.00,1.6369
2982.00,1.7178
2981.00,1.8061
2980.00,1.9032
2979.00,2.0114
2978.00,2.1336
2977.00,2.2705
2976.00,2.4209
2975.00,2.5828
2974.00,2.7554
2973.00,2.9387
2972.00,3.1342
2971.00,3.3490
2970.00,3.5771
2969.00,3.7713
2968.00,3.8754
2967.00,3.9611
2966.00,4.0471
2965.00,3.9493
2964.00,3.8077
2963.00,3.7544
2962.00,3.8077
2961.00,3.8539
2960.00,3.8350
2959.00,3.8561
2958.00,3.9105
2957.00,3.9275
2956.00,3.9092
2955.00,3.9254
2954.00,4.0212
2953.00,4.2471
2952.00,4.6072
2951.00,4.5535
2950.00,4.3636
2949.00,4.2493
2948.00,4.1514
2947.00,3.9615
2946.00,3.8502
2945.00,3.9280
2944.00,4.1731
2943.00,4.3780
2942.00,4.3536
2941.00,4.2683
2940.00,4.2898
2939.00,4.2919
2938.00,4.2569
2937.00,4.3232
2936.00,4.5804
2935.00,4.7314
2934.00,4.3771
2933.00,4.1359
2932.00,4.0516
2931.00,4.0948
2930.00,4.1272
2929.00,4.0709
2928.00,3.9546
2927.00,3.8349
2926.00,3.7886
2925.00,3.8197
2924.00,3.9279
2923.00,4.0873
2922.00,4.1322
2921.00,4.0016
2920.00,3.8718
2919.00,3.8328
2918.00,3.9100
2917.00,4.0578
2916.00,4.1159
2915.00,4.1221
2914.00,4.1900
2913.00,4.4127
2912.00,4.7804
2911.00,5.1513
2910.00,5.3738
2909.00,4.5973
2908.00,4.2510
2907.00,4.0923
2906.00,4.0168
2905.00,4.0391
2904.00,4.2370
2903.00,4.4319
2902.00,4.2247
2901.00,4.0542
2900.00,4.0490
2899.00,4.0162
2898.00,3.8415
2897.00,3.7096
2896.00,3.6747
2895.00,3.7254
2894.00,3.8494
2893.00,3.9984
2892.00,4.0988
2891.00,4.0799
2890.00,3.9867
2889.00,3.9255
2888.00,3.9658
2887.00,4.0955
2886.00,4.2150
2885.00,4.3997
2884.00,4.5299
2883.00,4.2277
2882.00,4.0917
2881.00,4.1261
2880.00,4.1303
2879.00,4.0221
2878.00,4.0040
2877.00,4.1112
2876.00,4.0610
2875.00,3.9161
2874.00,3.8327
2873.00,3.8170
2872.00,3.8567
2871.00,3.9517
2870.00,4.0834
2869.00,4.2437
2868.00,4.3536
2867.00,4.2727
2866.00,4.1414
2865.00,4.2039
2864.00,4.4571
2863.00,4.3879
2862.00,4.1769
2861.00,4.0496
2860.00,4.0662
2859.00,4.0911
2858.00,4.0914
2857.00,4.0871
2856.00,4.1090
2855.00,4.1984
2854.00,4.1468
2853.00,4.0517
2852.00,4.0651
2851.00,4.1952
2850.00,4.2008
2849.00,4.0519
2848.00,3.9628
2847.00,3.9542
2846.00,4.0156
2845.00,4.1561
2844.00,4.3115
2843.00,4.3806
2842.00,4.3789
2841.00,4.1666
2840.00,3.7924
2839.00,3.4618
2838.00,3.1948
2837.00,2.9614
2836.00,2.7499
2835.00,2.5626
2834.00,2.3984
2833.00,2.2530
2832.00,2.1232
2831.00,2.0067
2830.00,1.9018
2829.00,1.8071
2828.00,1.7223
2827.00,1.6471
2826.00,1.5804
2825.00,1.5205
2824.00,1.4660
2823.00,1.4164
2822.00,1.3712
2821.00,1.3297
2820.00,1.2913
2819.00,1.2554
2818.00,1.2220
2817.00,1.1909
2816.00,1.1619
2815.00,1.1348
2814.00,1.1093
2813.00,1.0851
2812.00,1.0620
2811.00,1.0398
2810.00,1.0184
2809.00,0.9979
2808.00,0.9782
2807.00,0.9592
2806.00,0.9408
2805.00,0.9229
2804.00,0.9053
2803.00,0.8883
2802.00,0.8717
2801.00,0.8558
2800.00,0.8405
2799.00,0.8258
2798.00,0.8118
2797.00,0.7983
2796.00,0.7855
2795.00,0.7733
2794.00,0.7617
2793.00,0.7507
2792.00,0.7402
2791.00,0.7303
2790.00,0.7208
2789.00,0.7118
2788.00,0.7030
2787.00,0.6943
2786.00,0.6859
2785.00,0.6775
2784.00,0.6691
2783.00,0.6608
2782.00,0.6526
2781.00,0.6446
2780.00,0.6367
2779.00,0.6291
2778.00,0.6218
2777.00,0.6147
2776.00,0.6079
2775.00,0.6015
2774.00,0.5954
2773.00,0.5897
2772.00,0.5845
2771.00,0.5797
2770.00,0.5753
2769.00,0.5714
2768.00,0.5678
2767.00,0.5647
2766.00,0.5618
2765.00,0.5592
2764.00,0.5570
2763.00,0.5550
2762.00,0.5533
2761.00,0.5518
2760.00,0.5505
2759.00,0.5494
2758.00,0.5485
2757.00,0.5478
2756.00,0.5473
2755.00,0.5470
2754.00,0.5470
2753.00,0.5472
2752.00,0.5475
2751.00,0.5479
2750.00,0.5485
2749.00,0.5494
2748.00,0.5506
2747.00,0.5519
2746.00,0.5534
2745.00,0.5550
2744.00,0.5567
2743.00,0.5585
2742.00,0.5604
2741.00,0.5627
2740.00,0.5653
2739.00,0.5684
2738.00,0.5719
2737.00,0.5759
2736.00,0.5803
2735.00,0.5849
2734.00,0.5896
2733.00,0.5939
2732.00,0.5973
2731.00,0.5991
2730.00,0.5991
2729.00,0.5970
2728.00,0.5931
2727.00,0.5879
2726.00,0.5822
2725.00,0.5765
2724.00,0.5712
2723.00,0.5666
2722.00,0.5628
2721.00,0.5597
2720.00,0.5572
2719.00,0.5551
2718.00,0.5534
2717.00,0.5517
2716.00,0.5500
2715.00,0.5481
2714.00,0.5460
2713.00,0.5436
2712.00,0.5410
2711.00,0.5384
2710.00,0.5360
2709.00,0.5336
2708.00,0.5314
2707.00,0.5295
2706.00,0.5279
2705.00,0.5264
2704.00,0.5252
2703.00,0.5241
2702.00,0.5233
2701.00,0.5227
2700.00,0.5224
2699.00,0.5222
2698.00,0.5224
2697.00,0.5228
2696.00,0.5235
2695.00,0.5244
2694.00,0.5256
2693.00,0.5269
2692.00,0.5283
2691.00,0.5297
2690.00,0.5311
2689.00,0.5326
2688.00,0.5339
2687.00,0.5350
2686.00,0.5359
2685.00,0.5367
2684.00,0.5373
2683.00,0.5378
2682.00,0.5383
2681.00,0.5387
2680.00,0.5392
2679.00,0.5396
2678.00,0.5400
2677.00,0.5404
2676.00,0.5407
2675.00,0.5409
2674.00,0.5411
2673.00,0.5413
2672.00,0.5412
2671.00,0.5409
2670.00,0.5401
2669.00,0.5389
2668.00,0.5373
2667.00,0.5353
2666.00,0.5329
2665.00,0.5304
2664.00,0.5276
2663.00,0.5246
2662.00,0.5216
2661.00,0.5187
2660.00,0.5159
2659.00,0.5133
2658.00,0.5107
2657.00,0.5083
2656.00,0.5060
2655.00,0.5038
2654.00,0.5016
2653.00,0.4995
2652.00,0.4974
2651.00,0.4954
2650.00,0.4936
2649.00,0.4918
2648.00,0.4901
2647.00,0.4884
2646.00,0.4868
2645.00,0.4852
2644.00,0.4838
2643.00,0.4824
2642.00,0.4811
2641.00,0.4799
2640.00,0.4787
2639.00,0.4775
2638.00,0.4764
2637.00,0.4753
2636.00,0.4741
2635.00,0.4729
2634.00,0.4717
2633.00,0.4703
2632.00,0.4689
2631.00,0.4674
2630.00,0.4659
2629.00,0.4644
2628.00,0.4629
2627.00,0.4614
2626.00,0.4599
2625.00,0.4585
2624.00,0.4572
2623.00,0.4559
2622.00,0.4546
2621.00,0.4535
2620.00,0.4523
2619.00,0.4513
2618.00,0.4502
2617.00,0.4492
2616.00,0.4482
2615.00,0.4473
2614.00,0.4464
2613.00,0.4455
2612.00,0.4446
2611.00,0.4436
2610.00,0.4427
2609.00,0.4417
2608.00,0.4408
2607.00,0.4399
2606.00,0.4390
2605.00,0.4381
2604.00,0.4373
2603.00,0.4364
2602.00,0.4355
2601.00,0.4346
2600.00,0.4336
2599.00,0.4325
2598.00,0.4314
2597.00,0.4302
2596.00,0.4289
2595.00,0.4276
2594.00,0.4263
2593.00,0.4250
2592.00,0.4237
2591.00,0.4225
2590.00,0.4212
2589.00,0.4200
2588.00,0.4189
2587.00,0.4177
2586.00,0.4165
2585.00,0.4153
2584.00,0.4140
2583.00,0.4128
2582.00,0.4115
2581.00,0.4101
2580.00,0.4087
2579.00,0.4072
2578.00,0.4058
2577.00,0.4044
2576.00,0.4029
2575.00,0.4015
2574.00,0.4002
2573.00,0.3990
2572.00,0.3978
2571.00,0.3965
2570.00,0.3953
2569.00,0.3941
2568.00,0.3929
2567.00,0.3917
2566.00,0.3905
2565.00,0.3894
2564.00,0.3882
2563.00,0.3871
2562.00,0.3859
2561.00,0.3848
2560.00,0.3836
2559.00,0.3824
2558.00,0.3813
2557.00,0.3801
2556.00,0.3790
2555.00,0.3779
2554.00,0.3769
2553.00,0.3760
2552.00,0.3751
2551.00,0.3743
2550.00,0.3735
2549.00,0.3728
2548.00,0.3721
2547.00,0.3715
2546.00,0.3709
2545.00,0.3704
2544.00,0.3699
2543.00,0.3694
2542.00,0.3689
2541.00,0.3685
2540.00,0.3680
2539.00,0.3676
2538.00,0.3671
2537.00,0.3666
2536.00,0.3661
2535.00,0.3656
2534.00,0.3649
2533.00,0.3642
2532.00,0.3633
2531.00,0.3622
2530.00,0.3610
2529.00,0.3597
2528.00,0.3583
2527.00,0.3569
2526.00,0.3555
2525.00,0.3541
2524.00,0.3527
2523.00,0.3513
2522.00,0.3500
2521.00,0.3486
2520.00,0.3473
2519.00,0.3461
2518.00,0.3450
2517.00,0.3438
2516.00,0.3428
2515.00,0.3417
2514.00,0.3407
2513.00,0.3397
2512.00,0.3388
2511.00,0.3379
2510.00,0.3370
2509.00,0.3363
2508.00,0.3355
2507.00,0.3349
2506.00,0.3342
2505.00,0.3337
2504.00,0.3332
2503.00,0.3328
2502.00,0.3325
2501.00,0.3321
2500.00,0.3318
2499.00,0.3315
2498.00,0.3311
2497.00,0.3307
2496.00,0.3302
2495.00,0.3298
2494.00,0.3293
2493.00,0.3289
2492.00,0.3284
2491.00,0.3278
2490.00,0.3272
2489.00,0.3267
2488.00,0.3261
2487.00,0.3256
2486.00,0.3250
2485.00,0.3244
2484.00,0.3239
2483.00,0.3233
2482.00,0.3228
2481.00,0.3223
2480.00,0.3217
2479.00,0.3211
2478.00,0.3205
2477.00,0.3199
2476.00,0.3193
2475.00,0.3186
2474.00,0.3180
2473.00,0.3173
2472.00,0.3167
2471.00,0.3160
2470.00,0.3154
2469.00,0.3149
2468.00,0.3145
2467.00,0.3140
2466.00,0.3136
2465.00,0.3132
2464.00,0.3129
2463.00,0.3126
2462.00,0.3123
2461.00,0.3120
2460.00,0.3117
2459.00,0.3114
2458.00,0.3112
2457.00,0.3110
2456.00,0.3108
2455.00,0.3107
2454.00,0.3106
2453.00,0.3106
2452.00,0.3106
2451.00,0.3107
2450.00,0.3107
2449.00,0.3106
2448.00,0.3106
2447.00,0.3105
2446.00,0.3105
2445.00,0.3105
2444.00,0.3107
2443.00,0.3108
2442.00,0.3110
2441.00,0.3111
2440.00,0.3112
2439.00,0.3113
2438.00,0.3114
2437.00,0.3115
2436.00,0.3116
2435.00,0.3116
2434.00,0.3116
2433.00,0.3116
2432.00,0.3117
2431.00,0.3118
2430.00,0.3119
2429.00,0.3119
2428.00,0.3120
2427.00,0.3121
2426.00,0.3121
2425.00,0.3122
2424.00,0.3123
2423.00,0.3123
2422.00,0.3124
2421.00,0.3124
2420.00,0.3124
2419.00,0.3125
2418.00,0.3125
2417.00,0.3125
2416.00,0.3125
2415.00,0.3125
2414.00,0.3125
2413.00,0.3125
2412.00,0.3125
2411.00,0.3125
2410.00,0.3126
2409.00,0.3127
2408.00,0.3127
2407.00,0.3127
2406.00,0.3127
2405.00,0.3128
2404.00,0.3129
2403.00,0.3130
2402.00,0.3130
2401.00,0.3131
2400.00,0.3132
2399.00,0.3133
2398.00,0.3133
2397.00,0.3134
2396.00,0.3135
2395.00,0.3137
2394.00,0.3139
2393.00,0.3141
2392.00,0.3143
2391.00,0.3146
2390.00,0.3149
2389.00,0.3152
2388.00,0.3155
2387.00,0.3158
2386.00,0.3161
2385.00,0.3164
2384.00,0.3168
2383.00,0.3172
2382.00,0.3177
2381.00,0.3183
2380.00,0.3188
2379.00,0.3193
2378.00,0.3197
2377.00,0.3200
2376.00,0.3202
2375.00,0.3202
2374.00,0.3201
2373.00,0.3201
2372.00,0.3200
2371.00,0.3201
2370.00,0.3202
2369.00,0.3203
2368.00,0.3205
2367.00,0.3206
2366.00,0.3206
2365.00,0.3208
2364.00,0.3210
2363.00,0.3212
2362.00,0.3213
2361.00,0.3213
2360.00,0.3213
2359.00,0.3212
2358.00,0.3211
2357.00,0.3210
2356.00,0.3210
2355.00,0.3211
2354.00,0.3213
2353.00,0.3215
2352.00,0.3217
2351.00,0.3216
2350.00,0.3214
2349.00,0.3211
2348.00,0.3210
2347.00,0.3211
2346.00,0.3213
2345.00,0.3213
2344.00,0.3211
2343.00,0.3208
2342.00,0.3205
2341.00,0.3204
2340.00,0.3203
2339.00,0.3201
2338.00,0.3199
2337.00,0.3198
2336.00,0.3196
2335.00,0.3195
2334.00,0.3194
2333.00,0.3193
2332.00,0.3193
2331.00,0.3192
2330.00,0.3190
2329.00,0.3187
2328.00,0.3183
2327.00,0.3178
2326.00,0.3174
2325.00,0.3171
2324.00,0.3169
2323.00,0.3167
2322.00,0.3163
2321.00,0.3158
2320.00,0.3152
2319.00,0.3145
2318.00,0.3140
2317.00,0.3136
2316.00,0.3132
2315.00,0.3130
2314.00,0.3128
2313.00,0.3125
2312.00,0.3121
2311.00,0.3117
2310.00,0.3112
2309.00,0.3106
2308.00,0.3101
2307.00,0.3095
2306.00,0.3090
2305.00,0.3085
2304.00,0.3080
2303.00,0.3075
2302.00,0.3071
2301.00,0.3066
2300.00,0.3062
2299.00,0.3057
2298.00,0.3053
2297.00,0.3049
2296.00,0.3045
2295.00,0.3041
2294.00,0.3036
2293.00,0.3032
2292.00,0.3028
2291.00,0.3023
2290.00,0.3018
2289.00,0.3013
2288.00,0.3008
2287.00,0.3002
2286.00,0.2997
2285.00,0.2992
2284.00,0.2988
2283.00,0.2983
2282.00,0.2979
2281.00,0.2975
2280.00,0.2972
2279.00,0.2969
2278.00,0.2967
2277.00,0.2964
2276.00,0.2962
2275.00,0.2961
2274.00,0.2959
2273.00,0.2958
2272.00,0.2957
2271.00,0.2957
2270.00,0.2956
2269.00,0.2955
2268.00,0.2955
2267.00,0.2956
2266.00,0.2956
2265.00,0.2956
2264.00,0.2956
2263.00,0.2955
2262.00,0.2954
2261.00,0.2953
2260.00,0.2951
2259.00,0.2949
2258.00,0.2947
2257.00,0.2944
2256.00,0.2941
2255.00,0.2938
2254.00,0.2934
2253.00,0.2931
2252.00,0.2928
2251.00,0.2924
2250.00,0.2921
2249.00,0.2917
2248.00,0.2914
2247.00,0.2910
2246.00,0.2905
2245.00,0.2902
2244.00,0.2898
2243.00,0.2895
2242.00,0.2892
2241.00,0.2890
2240.00,0.2887
2239.00,0.2884
2238.00,0.2882
2237.00,0.2879
2236.00,0.2877
2235.00,0.2875
2234.00,0.2874
2233.00,0.2872
2232.00,0.2871
2231.00,0.2871
2230.00,0.2870
2229.00,0.2870
2228.00,0.2870
2227.00,0.2870
2226.00,0.2870
2225.00,0.2870
2224.00,0.2869
2223.00,0.2869
2222.00,0.2868
2221.00,0.2868
2220.00,0.2868
2219.00,0.2867
2218.00,0.2866
2217.00,0.2866
2216.00,0.2865
2215.00,0.2864
2214.00,0.2863
2213.00,0.2862
2212.00,0.2861
2211.00,0.2859
2210.00,0.2858
2209.00,0.2857
2208.00,0.2857
2207.00,0.2857
2206.00,0.2856
2205.00,0.2856
2204.00,0.2856
2203.00,0.2856
2202.00,0.2856
2201.00,0.2856
2200.00,0.2857
2199.00,0.2858
2198.00,0.2860
2197.00,0.2861
2196.00,0.2862
2195.00,0.2864
2194.00,0.2865
2193.00,0.2868
2192.00,0.2870
2191.00,0.2872
2190.00,0.2874
2189.00,0.2876
2188.00,0.2878
2187.00,0.2879
2186.00,0.2881
2185.00,0.2882
2184.00,0.2883
2183.00,0.2884
2182.00,0.2884
2181.00,0.2885
2180.00,0.2885
2179.00,0.2885
2178.00,0.2885
2177.00,0.2885
2176.00,0.2885
2175.00,0.2885
2174.00,0.2885
2173.00,0.2884
2172.00,0.2884
2171.00,0.2884
2170.00,0.2884
2169.00,0.2884
2168.00,0.2884
2167.00,0.2884
2166.00,0.2883
2165.00,0.2883
2164.00,0.2884
2163.00,0.2884
2162.00,0.2884
2161.00,0.2885
2160.00,0.2885
2159.00,0.2885
2158.00,0.2886
2157.00,0.2886
2156.00,0.2887
2155.00,0.2887
2154.00,0.2888
2153.00,0.2888
2152.00,0.2888
2151.00,0.2888
2150.00,0.2887
2149.00,0.2885
2148.00,0.2882
2147.00,0.2877
2146.00,0.2872
2145.00,0.2866
2144.00,0.2859
2143.00,0.2851
2142.00,0.2843
2141.00,0.2836
2140.00,0.2829
2139.00,0.2823
2138.00,0.2817
2137.00,0.2812
2136.00,0.2807
2135.00,0.2802
2134.00,0.2798
2133.00,0.2795
2132.00,0.2792
2131.00,0.2790
2130.00,0.2788
2129.00,0.2785
2128.00,0.2783
2127.00,0.2781
2126.00,0.2779
2125.00,0.2778
2124.00,0.2778
2123.00,0.2777
2122.00,0.2777
2121.00,0.2777
2120.00,0.2776
2119.00,0.2776
2118.00,0.2774
2117.00,0.2773
2116.00,0.2772
2115.00,0.2771
2114.00,0.2770
2113.00,0.2769
2112.00,0.2767
2111.00,0.2766
2110.00,0.2765
2109.00,0.2763
2108.00,0.2762
2107.00,0.2761
2106.00,0.2761
2105.00,0.2761
2104.00,0.2761
2103.00,0.2761
2102.00,0.2760
2101.00,0.2759
2100.00,0.2758
2099.00,0.2757
2098.00,0.2756
2097.00,0.2756
2096.00,0.2755
2095.00,0.2754
2094.00,0.2753
2093.00,0.2752
2092.00,0.2752
2091.00,0.2751
2090.00,0.2750
2089.00,0.2749
2088.00,0.2749
2087.00,0.2749
2086.00,0.2749
2085.00,0.2749
2084.00,0.2749
2083.00,0.2750
2082.00,0.2750
2081.00,0.2750
2080.00,0.2750
2079.00,0.2750
2078.00,0.2750
2077.00,0.2751
2076.00,0.2753
2075.00,0.2754
2074.00,0.2754
2073.00,0.2755
2072.00,0.2756
2071.00,0.2758
2070.00,0.2759
2069.00,0.2760
2068.00,0.2762
2067.00,0.2763
2066.00,0.2764
2065.00,0.2766
2064.00,0.2768
2063.00,0.2771
2062.00,0.2773
2061.00,0.2776
2060.00,0.2778
2059.00,0.2781
2058.00,0.2783
2057.00,0.2787
2056.00,0.2790
2055.00,0.2794
2054.00,0.2798
2053.00,0.2802
2052.00,0.2806
2051.00,0.2811
2050.00,0.2815
2049.00,0.2820
2048.00,0.2825
2047.00,0.2829
2046.00,0.2833
2045.00,0.2837
2044.00,0.2840
2043.00,0.2842
2042.00,0.2844
2041.00,0.2845
2040.00,0.2847
2039.00,0.2848
2038.00,0.2848
2037.00,0.2849
2036.00,0.2850
2035.00,0.2852
2034.00,0.2853
2033.00,0.2856
2032.00,0.2859
2031.00,0.2863
2030.00,0.2866
2029.00,0.2870
2028.00,0.2874
2027.00,0.2877
2026.00,0.2880
2025.00,0.2882
2024.00,0.2882
2023.00,0.2881
2022.00,0.2877
2021.00,0.2872
2020.00,0.2864
2019.00,0.2854
2018.00,0.2843
2017.00,0.2832
2016.00,0.2821
2015.00,0.2809
2014.00,0.2798
2013.00,0.2787
2012.00,0.2776
2011.00,0.2766
2010.00,0.2757
2009.00,0.2749
2008.00,0.2742
2007.00,0.2737
2006.00,0.2731
2005.00,0.2727
2004.00,0.2722
2003.00,0.2719
2002.00,0.2715
2001.00,0.2713
2000.00,0.2711
1999.00,0.2709
1998.00,0.2708
1997.00,0.2707
1996.00,0.2705
1995.00,0.2703
1994.00,0.2700
1993.00,0.2698
1992.00,0.2697
1991.00,0.2697
1990.00,0.2697
1989.00,0.2696
1988.00,0.2696
1987.00,0.2695
1986.00,0.2694
1985.00,0.2694
1984.00,0.2693
1983.00,0.2693
1982.00,0.2692
1981.00,0.2692
1980.00,0.2691
1979.00,0.2690
1978.00,0.2690
1977.00,0.2689
1976.00,0.2689
1975.00,0.2688
1974.00,0.2688
1973.00,0.2687
1972.00,0.2687
1971.00,0.2687
1970.00,0.2686
1969.00,0.2685
1968.00,0.2684
1967.00,0.2684
1966.00,0.2684
1965.00,0.2685
1964.00,0.2686
1963.00,0.2687
1962.00,0.2687
1961.00,0.2688
1960.00,0.2689
1959.00,0.2689
1958.00,0.2690
1957.00,0.2690
1956.00,0.2691
1955.00,0.2693
1954.00,0.2694
1953.00,0.2697
1952.00,0.2699
1951.00,0.2701
1950.00,0.2702
1949.00,0.2703
1948.00,0.2704
1947.00,0.2705
1946.00,0.2705
1945.00,0.2705
1944.00,0.2706
1943.00,0.2707
1942.00,0.2710
1941.00,0.2714
1940.00,0.2716
1939.00,0.2718
1938.00,0.2719
1937.00,0.2719
1936.00,0.2718
1935.00,0.2718
1934.00,0.2717
1933.00,0.2717
1932.00,0.2717
1931.00,0.2717
1930.00,0.2718
1929.00,0.2719
1928.00,0.2720
1927.00,0.2720
1926.00,0.2720
1925.00,0.2720
1924.00,0.2721
1923.00,0.2723
1922.00,0.2727
1921.00,0.2730
1920.00,0.2734
1919.00,0.2736
1918.00,0.2739
1917.00,0.2741
1916.00,0.2743
1915.00,0.2744
1914.00,0.2744
1913.00,0.2744
1912.00,0.2743
1911.00,0.2741
1910.00,0.2741
1909.00,0.2741
1908.00,0.2741
1907.00,0.2741
1906.00,0.2741
1905.00,0.2740
1904.00,0.2739
1903.00,0.2738
1902.00,0.2737
1901.00,0.2737
1900.00,0.2736
1899.00,0.2736
1898.00,0.2735
1897.00,0.2735
1896.00,0.2735
1895.00,0.2736
1894.00,0.2736
1893.00,0.2736
1892.00,0.2735
1891.00,0.2734
1890.00,0.2734
1889.00,0.2736
1888.00,0.2738
1887.00,0.2741
1886.00,0.2742
1885.00,0.2744
1884.00,0.2745
1883.00,0.2746
1882.00,0.2747
1881.00,0.2748
1880.00,0.2748
1879.00,0.2749
1878.00,0.2749
1877.00,0.2749
1876.00,0.2750
1875.00,0.2750
1874.00,0.2749
1873.00,0.2747
1872.00,0.2745
1871.00,0.2741
1870.00,0.2738
1869.00,0.2737
1868.00,0.2739
1867.00,0.2742
1866.00,0.2744
1865.00,0.2745
1864.00,0.2744
1863.00,0.2743
1862.00,0.2740
1861.00,0.2738
1860.00,0.2735
1859.00,0.2732
1858.00,0.2729
1857.00,0.2726
1856.00,0.2724
1855.00,0.2723
1854.00,0.2720
1853.00,0.2719
1852.00,0.2717
1851.00,0.2714
1850.00,0.2711
1849.00,0.2708
1848.00,0.2706
1847.00,0.2704
1846.00,0.2704
1845.00,0.2706
1844.00,0.2709
1843.00,0.2711
1842.00,0.2712
1841.00,0.2712
1840.00,0.2712
1839.00,0.2711
1838.00,0.2710
1837.00,0.2709
1836.00,0.2710
1835.00,0.2709
1834.00,0.2707
1833.00,0.2703
1832.00,0.2700
1831.00,0.2697
1830.00,0.2697
1829.00,0.2699
1828.00,0.2700
1827.00,0.2700
1826.00,0.2700
1825.00,0.2702
1824.00,0.2705
1823.00,0.2707
1822.00,0.2708
1821.00,0.2709
1820.00,0.2710
1819.00,0.2710
1818.00,0.2710
1817.00,0.2711
1816.00,0.2713
1815.00,0.2713
1814.00,0.2713
1813.00,0.2712
1812.00,0.2712
1811.00,0.2713
1810.00,0.2715
1809.00,0.2718
1808.00,0.2722
1807.00,0.2724
1806.00,0.2726
1805.00,0.2726
1804.00,0.2726
1803.00,0.2725
1802.00,0.2726
1801.00,0.2729
1800.00,0.2734
1799.00,0.2740
1798.00,0.2745
1797.00,0.2748
1796.00,0.2749
1795.00,0.2751
1794.00,0.2753
1793.00,0.2757
1792.00,0.2763
1791.00,0.2769
1790.00,0.2776
1789.00,0.2782
1788.00,0.2788
1787.00,0.2792
1786.00,0.2797
1785.00,0.2801
1784.00,0.2806
1783.00,0.2810
1782.00,0.2814
1781.00,0.2820
1780.00,0.2826
1779.00,0.2831
1778.00,0.2835
1777.00,0.2838
1776.00,0.2840
1775.00,0.2842
1774.00,0.2845
1773.00,0.2850
1772.00,0.2854
1771.00,0.2858
1770.00,0.2862
1769.00,0.2868
1768.00,0.2875
1767.00,0.2880
1766.00,0.2883
1765.00,0.2886
1764.00,0.2889
1763.00,0.2894
1762.00,0.2901
1761.00,0.2909
1760.00,0.2918
1759.00,0.2927
1758.00,0.2938
1757.00,0.2953
1756.00,0.2969
1755.00,0.2986
1754.00,0.3003
1753.00,0.3021
1752.00,0.3039
1751.00,0.3057
1750.00,0.3074
1749.00,0.3092
1748.00,0.3110
1747.00,0.3126
1746.00,0.3138
1745.00,0.3146
1744.00,0.3150
1743.00,0.3152
1742.00,0.3152
1741.00,0.3152
1740.00,0.3149
1739.00,0.3144
1738.00,0.3136
1737.00,0.3130
1736.00,0.3126
1735.00,0.3122
1734.00,0.3116
1733.00,0.3108
1732.00,0.3099
1731.00,0.3090
1730.00,0.3086
1729.00,0.3086
1728.00,0.3086
1727.00,0.3086
1726.00,0.3085
1725.00,0.3086
1724.00,0.3088
1723.00,0.3090
1722.00,0.3091
1721.00,0.3093
1720.00,0.3096
1719.00,0.3102
1718.00,0.3111
1717.00,0.3122
1716.00,0.3133
1715.00,0.3143
1714.00,0.3155
1713.00,0.3169
1712.00,0.3183
1711.00,0.3196
1710.00,0.3210
1709.00,0.3224
1708.00,0.3239
1707.00,0.3254
1706.00,0.3269
1705.00,0.3282
1704.00,0.3289
1703.00,0.3293
1702.00,0.3293
1701.00,0.3288
1700.00,0.3278
1699.00,0.3266
1698.00,0.3259
1697.00,0.3261
1696.00,0.3265
1695.00,0.3264
1694.00,0.3258
1693.00,0.3253
1692.00,0.3250
1691.00,0.3248
1690.00,0.3247
1689.00,0.3248
1688.00,0.3254
1687.00,0.3261
1686.00,0.3268
1685.00,0.3272
1684.00,0.3279
1683.00,0.3284
1682.00,0.3288
1681.00,0.3294
1680.00,0.3301
1679.00,0.3308
1678.00,0.3314
1677.00,0.3322
1676.00,0.3331
1675.00,0.3340
1674.00,0.3347
1673.00,0.3353
1672.00,0.3359
1671.00,0.3367
1670.00,0.3380
1669.00,0.3397
1668.00,0.3414
1667.00,0.3427
1666.00,0.3438
1665.00,0.3448
1664.00,0.3460
1663.00,0.3474
1662.00,0.3489
1661.00,0.3504
1660.00,0.3519
1659.00,0.3531
1658.00,0.3541
1657.00,0.3552
1656.00,0.3566
1655.00,0.3586
1654.00,0.3616
1653.00,0.3658
1652.00,0.3692
1651.00,0.3701
1650.00,0.3703
1649.00,0.3714
1648.00,0.3740
1647.00,0.3779
1646.00,0.3825
1645.00,0.3870
1644.00,0.3907
1643.00,0.3940
1642.00,0.3974
1641.00,0.4012
1640.00,0.4051
1639.00,0.4088
1638.00,0.4128
1637.00,0.4177
1636.00,0.4238
1635.00,0.4301
1634.00,0.4355
1633.00,0.4401
1632.00,0.4444
1631.00,0.4487
1630.00,0.4533
1629.00,0.4585
1628.00,0.4644
1627.00,0.4706
1626.00,0.4769
1625.00,0.4842
1624.00,0.4927
1623.00,0.5025
1622.00,0.5130
1621.00,0.5239
1620.00,0.5353
1619.00,0.5477
1618.00,0.5624
1617.00,0.5802
1616.00,0.6002
1615.00,0.6202
1614.00,0.6404
1613.00,0.6630
1612.00,0.6891
1611.00,0.7180
1610.00,0.7485
1609.00,0.7803
1608.00,0.8130
1607.00,0.8460
1606.00,0.8800
1605.00,0.9181
1604.00,0.9630
1603.00,1.0153
1602.00,1.0750
1601.00,1.1426
1600.00,1.2174
1599.00,1.2961
1598.00,1.3773
1597.00,1.4669
1596.00,1.5719
1595.00,1.6930
1594.00,1.8301
1593.00,1.9939
1592.00,2.2008
1591.00,2.4464
1590.00,2.7008
1589.00,2.9881
1588.00,3.4269
1587.00,3.9675
1586.00,3.7301
1585.00,3.7700
1584.00,4.0382
1583.00,3.7894
1582.00,3.8926
1581.00,3.9218
1580.00,3.7446
1579.00,3.8026
1578.00,3.7937
1577.00,3.7459
1576.00,3.8285
1575.00,3.7686
1574.00,3.6089
1573.00,3.3392
1572.00,3.1976
1571.00,3.0250
1570.00,2.8314
1569.00,2.7573
1568.00,2.7914
1567.00,2.8693
1566.00,2.9390
1565.00,3.0950
1564.00,3.4307
1563.00,3.6514
1562.00,3.5998
1561.00,3.5634
1560.00,3.5772
1559.00,3.5310
1558.00,3.2434
1557.00,2.9494
1556.00,2.6708
1555.00,2.3546
1554.00,2.0703
1553.00,1.8475
1552.00,1.6677
1551.00,1.5112
1550.00,1.3753
1549.00,1.2653
1548.00,1.1790
1547.00,1.1078
1546.00,1.0457
1545.00,0.9919
1544.00,0.9464
1543.00,0.9070
1542.00,0.8708
1541.00,0.8366
1540.00,0.8050
1539.00,0.7772
1538.00,0.7550
1537.00,0.7389
1536.00,0.7272
1535.00,0.7180
1534.00,0.7117
1533.00,0.7102
1532.00,0.7140
1531.00,0.7218
1530.00,0.7327
1529.00,0.7466
1528.00,0.7623
1527.00,0.7782
1526.00,0.7930
1525.00,0.8070
1524.00,0.8212
1523.00,0.8377
1522.00,0.8588
1521.00,0.8851
1520.00,0.9115
1519.00,0.9324
1518.00,0.9456
1517.00,0.9493
1516.00,0.9411
1515.00,0.9202
1514.00,0.8900
1513.00,0.8550
1512.00,0.8193
1511.00,0.7866
1510.00,0.7593
1509.00,0.7377
1508.00,0.7215
1507.00,0.7104
1506.00,0.7053
1505.00,0.7054
1504.00,0.7092
1503.00,0.7154
1502.00,0.7229
1501.00,0.7309
1500.00,0.7378
1499.00,0.7421
1498.00,0.7435
1497.00,0.7434
1496.00,0.7430
1495.00,0.7431
1494.00,0.7445
1493.00,0.7487
1492.00,0.7563
1491.00,0.7675
1490.00,0.7825
1489.00,0.8022
1488.00,0.8260
1487.00,0.8527
1486.00,0.8815
1485.00,0.9124
1484.00,0.9449
1483.00,0.9785
1482.00,1.0142
1481.00,1.0535
1480.00,1.0971
1479.00,1.1456
1478.00,1.2030
1477.00,1.2748
1476.00,1.3654
1475.00,1.4786
1474.00,1.6250
1473.00,1.8255
1472.00,2.0998
1471.00,2.4507
1470.00,2.8604
1469.00,3.3496
1468.00,4.0971
1467.00,4.2964
1466.00,4.2707
1465.00,4.3118
1464.00,3.9988
1463.00,3.9224
1462.00,3.9960
1461.00,3.9617
1460.00,3.8360
1459.00,3.7715
1458.00,3.7418
1457.00,3.7830
1456.00,3.8338
1455.00,3.7474
1454.00,3.7264
1453.00,3.8252
1452.00,3.7743
1451.00,3.8199
1450.00,4.1599
1449.00,4.1689
1448.00,4.0963
1447.00,3.9273
1446.00,3.8805
1445.00,4.3361
1444.00,3.9760
1443.00,3.6933
1442.00,3.7838
1441.00,4.2482
1440.00,4.0849
1439.00,3.4755
1438.00,3.2134
1437.00,3.0726
1436.00,2.9462
1435.00,2.7768
1434.00,2.5836
1433.00,2.3939
1432.00,2.2097
1431.00,2.0369
1430.00,1.8855
1429.00,1.7604
1428.00,1.6609
1427.00,1.5844
1426.00,1.5292
1425.00,1.4948
1424.00,1.4801
1423.00,1.4816
1422.00,1.4933
1421.00,1.5100
1420.00,1.5285
1419.00,1.5477
1418.00,1.5702
1417.00,1.6010
1416.00,1.6424
1415.00,1.6882
1414.00,1.7226
1413.00,1.7245
1412.00,1.6830
1411.00,1.6097
1410.00,1.5279
1409.00,1.4532
1408.00,1.3891
1407.00,1.3325
1406.00,1.2799
1405.00,1.2298
1404.00,1.1838
1403.00,1.1444
1402.00,1.1133
1401.00,1.0912
1400.00,1.0781
1399.00,1.0734
1398.00,1.0738
1397.00,1.0722
1396.00,1.0604
1395.00,1.0337
1394.00,0.9949
1393.00,0.9521
1392.00,0.9125
1391.00,0.8803
1390.00,0.8576
1389.00,0.8457
1388.00,0.8463
1387.00,0.8603
1386.00,0.8880
1385.00,0.9299
1384.00,0.9892
1383.00,1.0710
1382.00,1.1802
1381.00,1.3183
1380.00,1.4785
1379.00,1.6303
1378.00,1.7111
1377.00,1.6803
1376.00,1.5767
1375.00,1.4593
1374.00,1.3600
1373.00,1.2889
1372.00,1.2439
1371.00,1.2169
1370.00,1.2000
1369.00,1.1870
1368.00,1.1738
1367.00,1.1580
1366.00,1.1381
1365.00,1.1135
1364.00,1.0845
1363.00,1.0528
1362.00,1.0216
1361.00,0.9941
1360.00,0.9715
1359.00,0.9541
1358.00,0.9415
1357.00,0.9335
1356.00,0.9298
1355.00,0.9297
1354.00,0.9323
1353.00,0.9365
1352.00,0.9411
1351.00,0.9451
1350.00,0.9486
1349.00,0.9533
1348.00,0.9616
1347.00,0.9760
1346.00,0.9986
1345.00,1.0300
1344.00,1.0671
1343.00,1.1018
1342.00,1.1227
1341.00,1.1197
1340.00,1.0915
1339.00,1.0458
1338.00,0.9928
1337.00,0.9400
1336.00,0.8907
1335.00,0.8466
1334.00,0.8089
1333.00,0.7778
1332.00,0.7536
1331.00,0.7362
1330.00,0.7262
1329.00,0.7244
1328.00,0.7325
1327.00,0.7519
1326.00,0.7823
1325.00,0.8178
1324.00,0.8467
1323.00,0.8565
1322.00,0.8445
1321.00,0.8199
1320.00,0.7946
1319.00,0.7757
1318.00,0.7649
1317.00,0.7606
1316.00,0.7611
1315.00,0.7653
1314.00,0.7724
1313.00,0.7820
1312.00,0.7932
1311.00,0.8051
1310.00,0.8167
1309.00,0.8282
1308.00,0.8404
1307.00,0.8542
1306.00,0.8704
1305.00,0.8881
1304.00,0.9035
1303.00,0.9105
1302.00,0.9051
1301.00,0.8900
1300.00,0.8731
1299.00,0.8617
1298.00,0.8581
1297.00,0.8583
1296.00,0.8548
1295.00,0.8417
1294.00,0.8195
1293.00,0.7943
1292.00,0.7717
1291.00,0.7539
1290.00,0.7401
1289.00,0.7289
1288.00,0.7189
1287.00,0.7090
1286.00,0.6981
1285.00,0.6858
1284.00,0.6725
1283.00,0.6592
1282.00,0.6467
1281.00,0.6360
1280.00,0.6274
1279.00,0.6212
1278.00,0.6170
1277.00,0.6144
1276.00,0.6134
1275.00,0.6143
1274.00,0.6174
1273.00,0.6230
1272.00,0.6313
1271.00,0.6423
1270.00,0.6549
1269.00,0.6677
1268.00,0.6792
1267.00,0.6883
1266.00,0.6951
1265.00,0.7003
1264.00,0.7048
1263.00,0.7084
1262.00,0.7100
1261.00,0.7087
1260.00,0.7038
1259.00,0.6956
1258.00,0.6841
1257.00,0.6696
1256.00,0.6532
1255.00,0.6363
1254.00,0.6201
1253.00,0.6057
1252.00,0.5931
1251.00,0.5823
1250.00,0.5727
1249.00,0.5641
1248.00,0.5565
1247.00,0.5499
1246.00,0.5440
1245.00,0.5383
1244.00,0.5324
1243.00,0.5260
1242.00,0.5190
1241.00,0.5117
1240.00,0.5046
1239.00,0.4982
1238.00,0.4930
1237.00,0.4890
1236.00,0.4866
1235.00,0.4858
1234.00,0.4868
1233.00,0.4897
1232.00,0.4948
1231.00,0.5019
1230.00,0.5102
1229.00,0.5185
1228.00,0.5257
1227.00,0.5318
1226.00,0.5369
1225.00,0.5415
1224.00,0.5460
1223.00,0.5506
1222.00,0.5550
1221.00,0.5577
1220.00,0.5574
1219.00,0.5533
1218.00,0.5468
1217.00,0.5410
1216.00,0.5391
1215.00,0.5422
1214.00,0.5486
1213.00,0.5539
1212.00,0.5530
1211.00,0.5435
1210.00,0.5273
1209.00,0.5092
1208.00,0.4935
1207.00,0.4826
1206.00,0.4762
1205.00,0.4729
1204.00,0.4708
1203.00,0.4691
1202.00,0.4675
1201.00,0.4667
1200.00,0.4673
1199.00,0.4695
1198.00,0.4730
1197.00,0.4773
1196.00,0.4823
1195.00,0.4885
1194.00,0.4962
1193.00,0.5050
1192.00,0.5141
1191.00,0.5220
1190.00,0.5267
1189.00,0.5270
1188.00,0.5230
1187.00,0.5164
1186.00,0.5092
1185.00,0.5027
1184.00,0.4976
1183.00,0.4938
1182.00,0.4909
1181.00,0.4884
1180.00,0.4860
1179.00,0.4834
1178.00,0.4801
1177.00,0.4760
1176.00,0.4708
1175.00,0.4650
1174.00,0.4591
1173.00,0.4532
1172.00,0.4477
1171.00,0.4428
1170.00,0.4388
1169.00,0.4354
1168.00,0.4325
1167.00,0.4301
1166.00,0.4282
1165.00,0.4267
1164.00,0.4258
1163.00,0.4256
1162.00,0.4262
1161.00,0.4279
1160.00,0.4310
1159.00,0.4360
1158.00,0.4438
1157.00,0.4554
1156.00,0.4733
1155.00,0.5006
1154.00,0.5384
1153.00,0.5809
1152.00,0.6148
1151.00,0.6258
1150.00,0.6125
1149.00,0.5876
1148.00,0.5644
1147.00,0.5491
1146.00,0.5415
1145.00,0.5397
1144.00,0.5427
1143.00,0.5501
1142.00,0.5621
1141.00,0.5791
1140.00,0.6015
1139.00,0.6279
1138.00,0.6547
1137.00,0.6774
1136.00,0.6928
1135.00,0.7001
1134.00,0.6997
1133.00,0.6919
1132.00,0.6772
1131.00,0.6567
1130.00,0.6332
1129.00,0.6108
1128.00,0.5926
1127.00,0.5803
1126.00,0.5739
1125.00,0.5724
1124.00,0.5745
1123.00,0.5786
1122.00,0.5834
1121.00,0.5886
1120.00,0.5945
1119.00,0.6019
1118.00,0.6116
1117.00,0.6240
1116.00,0.6384
1115.00,0.6523
1114.00,0.6616
1113.00,0.6630
1112.00,0.6560
1111.00,0.6432
1110.00,0.6283
1109.00,0.6145
1108.00,0.6036
1107.00,0.5962
1106.00,0.5921
1105.00,0.5909
1104.00,0.5918
1103.00,0.5942
1102.00,0.5972
1101.00,0.6002
1100.00,0.6029
1099.00,0.6051
1098.00,0.6061
1097.00,0.6058
1096.00,0.6041
1095.00,0.6016
1094.00,0.5988
1093.00,0.5960
1092.00,0.5938
1091.00,0.5926
1090.00,0.5927
1089.00,0.5945
1088.00,0.5983
1087.00,0.6043
1086.00,0.6126
1085.00,0.6229
1084.00,0.6352
1083.00,0.6496
1082.00,0.6657
1081.00,0.6829
1080.00,0.6999
1079.00,0.7148
1078.00,0.7257
1077.00,0.7308
1076.00,0.7297
1075.00,0.7229
1074.00,0.7119
1073.00,0.6988
1072.00,0.6852
1071.00,0.6724
1070.00,0.6611
1069.00,0.6514
1068.00,0.6436
1067.00,0.6378
1066.00,0.6340
1065.00,0.6316
1064.00,0.6306
1063.00,0.6304
1062.00,0.6311
1061.00,0.6322
1060.00,0.6332
1059.00,0.6336
1058.00,0.6333
1057.00,0.6322
1056.00,0.6310
1055.00,0.6298
1054.00,0.6290
1053.00,0.6287
1052.00,0.6294
1051.00,0.6314
1050.00,0.6348
1049.00,0.6393
1048.00,0.6447
1047.00,0.6504
1046.00,0.6555
1045.00,0.6597
1044.00,0.6629
1043.00,0.6655
1042.00,0.6679
1041.00,0.6707
1040.00,0.6742
1039.00,0.6779
1038.00,0.6816
1037.00,0.6851
1036.00,0.6887
1035.00,0.6931
1034.00,0.6990
1033.00,0.7070
1032.00,0.7176
1031.00,0.7304
1030.00,0.7443
1029.00,0.7575
1028.00,0.7681
1027.00,0.7745
1026.00,0.7759
1025.00,0.7728
1024.00,0.7671
1023.00,0.7606
1022.00,0.7550
1021.00,0.7509
1020.00,0.7485
1019.00,0.7475
1018.00,0.7479
1017.00,0.7496
1016.00,0.7521
1015.00,0.7545
1014.00,0.7560
1013.00,0.7564
1012.00,0.7558
1011.00,0.7549
1010.00,0.7539
1009.00,0.7533
1008.00,0.7534
1007.00,0.7540
1006.00,0.7548
1005.00,0.7555
1004.00,0.7561
1003.00,0.7564
1002.00,0.7560
1001.00,0.7542
1000.00,0.7505
999.00,0.7444
998.00,0.7354
997.00,0.7238
996.00,0.7102
995.00,0.6954
994.00,0.6799
993.00,0.6641
992.00,0.6480
991.00,0.6317
990.00,0.6155
989.00,0.5999
988.00,0.5852
987.00,0.5718
986.00,0.5598
985.00,0.5489
984.00,0.5390
983.00,0.5295
982.00,0.5203
981.00,0.5112
980.00,0.5022
979.00,0.4931
978.00,0.4840
977.00,0.4750
976.00,0.4663
975.00,0.4584
974.00,0.4513
973.00,0.4453
972.00,0.4404
971.00,0.4369
970.00,0.4346
969.00,0.4335
968.00,0.4333
967.00,0.4335
966.00,0.4335
965.00,0.4329
964.00,0.4313
963.00,0.4285
962.00,0.4246
961.00,0.4201
960.00,0.4155
959.00,0.4117
958.00,0.4090
957.00,0.4073
956.00,0.4062
955.00,0.4054
954.00,0.4046
953.00,0.4037
952.00,0.4031
951.00,0.4031
950.00,0.4043
949.00,0.4066
948.00,0.4103
947.00,0.4155
946.00,0.4216
945.00,0.4279
944.00,0.4334
943.00,0.4373
942.00,0.4392
941.00,0.4391
940.00,0.4376
939.00,0.4353
938.00,0.4329
937.00,0.4306
936.00,0.4287
935.00,0.4275
934.00,0.4270
933.00,0.4275
932.00,0.4296
931.00,0.4340
930.00,0.4414
929.00,0.4528
928.00,0.4683
927.00,0.4872
926.00,0.5076
925.00,0.5264
924.00,0.5413
923.00,0.5514
922.00,0.5569
921.00,0.5590
920.00,0.5587
919.00,0.5573
918.00,0.5552
917.00,0.5507
916.00,0.5402
915.00,0.5207
914.00,0.4939
913.00,0.4652
912.00,0.4403
911.00,0.4216
910.00,0.4086
909.00,0.3994
908.00,0.3928
907.00,0.3879
906.00,0.3842
905.00,0.3813
904.00,0.3794
903.00,0.3784
902.00,0.3785
901.00,0.3796
900.00,0.3814
899.00,0.3840
898.00,0.3872
897.00,0.3913
896.00,0.3964
895.00,0.4029
894.00,0.4103
893.00,0.4186
892.00,0.4270
891.00,0.4349
890.00,0.4411
889.00,0.4444
888.00,0.4443
887.00,0.4409
886.00,0.4350
885.00,0.4283
884.00,0.4222
883.00,0.4178
882.00,0.4153
881.00,0.4144
880.00,0.4146
879.00,0.4157
878.00,0.4171
877.00,0.4187
876.00,0.4203
875.00,0.4222
874.00,0.4242
873.00,0.4263
872.00,0.4286
871.00,0.4315
870.00,0.4353
869.00,0.4403
868.00,0.4471
867.00,0.4559
866.00,0.4669
865.00,0.4797
864.00,0.4934
863.00,0.5063
862.00,0.5157
861.00,0.5191
860.00,0.5154
859.00,0.5060
858.00,0.4940
857.00,0.4823
856.00,0.4728
855.00,0.4661
854.00,0.4620
853.00,0.4598
852.00,0.4592
851.00,0.4598
850.00,0.4612
849.00,0.4632
848.00,0.4658
847.00,0.4689
846.00,0.4725
845.00,0.4768
844.00,0.4820
843.00,0.4886
842.00,0.4977
841.00,0.5104
840.00,0.5273
839.00,0.5476
838.00,0.5686
837.00,0.5857
836.00,0.5943
835.00,0.5919
834.00,0.5800
833.00,0.5634
832.00,0.5471
831.00,0.5344
830.00,0.5269
829.00,0.5247
828.00,0.5275
827.00,0.5347
826.00,0.5455
825.00,0.5588
824.00,0.5735
823.00,0.5877
822.00,0.5992
821.00,0.6065
820.00,0.6089
819.00,0.6069
818.00,0.6019
817.00,0.5958
816.00,0.5903
815.00,0.5863
814.00,0.5842
813.00,0.5835
812.00,0.5842
811.00,0.5857
810.00,0.5880
809.00,0.5906
808.00,0.5930
807.00,0.5947
806.00,0.5954
805.00,0.5955
804.00,0.5956
803.00,0.5959
802.00,0.5961
801.00,0.5957
800.00,0.5949
799.00,0.5936
798.00,0.5921
797.00,0.5901
796.00,0.5876
795.00,0.5845
794.00,0.5809
793.00,0.5770
792.00,0.5730
791.00,0.5689
790.00,0.5644
789.00,0.5589
788.00,0.5530
787.00,0.5474
786.00,0.5437
785.00,0.5429
784.00,0.5458
783.00,0.5522
782.00,0.5602
781.00,0.5665
780.00,0.5676
779.00,0.5615
778.00,0.5483
777.00,0.5309
776.00,0.5128
775.00,0.4971
774.00,0.4853
773.00,0.4778
772.00,0.4745
771.00,0.4749
770.00,0.4783
769.00,0.4840
768.00,0.4918
767.00,0.5010
766.00,0.5111
765.00,0.5211
764.00,0.5306
763.00,0.5394
762.00,0.5477
761.00,0.5551
760.00,0.5614
759.00,0.5660
758.00,0.5691
757.00,0.5718
756.00,0.5753
755.00,0.5800
754.00,0.5850
753.00,0.5894
752.00,0.5933
751.00,0.5984
750.00,0.6069
749.00,0.6202
748.00,0.6386
747.00,0.6610
746.00,0.6847
745.00,0.7051
744.00,0.7173
743.00,0.7186
742.00,0.7108
741.00,0.6988
740.00,0.6880
739.00,0.6816
738.00,0.6805
737.00,0.6850
736.00,0.6945
735.00,0.7087
734.00,0.7272
733.00,0.7501
732.00,0.7778
731.00,0.8113
730.00,0.8518
729.00,0.9008
728.00,0.9598
727.00,1.0306
726.00,1.1143
725.00,1.2092
724.00,1.3076
723.00,1.3921
722.00,1.4368
721.00,1.4201
720.00,1.3456
719.00,1.2408
718.00,1.1332
717.00,1.0375
716.00,0.9583
715.00,0.8947
714.00,0.8435
713.00,0.8015
712.00,0.7662
711.00,0.7358
710.00,0.7094
709.00,0.6866
708.00,0.6672
707.00,0.6506
706.00,0.6360
705.00,0.6230
704.00,0.6116
703.00,0.6018
702.00,0.5933
701.00,0.5857
700.00,0.5787
699.00,0.5721
698.00,0.5658
697.00,0.5600
696.00,0.5547
695.00,0.5502
694.00,0.5464
693.00,0.5437
692.00,0.5420
691.00,0.5412
690.00,0.5407
689.00,0.5403
688.00,0.5403
687.00,0.5411
686.00,0.5428
685.00,0.5452
684.00,0.5483
683.00,0.5519
682.00,0.5561
681.00,0.5613
680.00,0.5675
679.00,0.5750
678.00,0.5831
677.00,0.5912
676.00,0.5985
675.00,0.6046
674.00,0.6093
673.00,0.6128
672.00,0.6153
671.00,0.6170
670.00,0.6179
669.00,0.6179
668.00,0.6168
667.00,0.6152
666.00,0.6156
665.00,0.6175
664.00,0.6196
663.00,0.6207
662.00,0.6201
661.00,0.6174
660.00,0.6123
659.00,0.6053
658.00,0.5972
657.00,0.5892
656.00,0.5820
655.00,0.5764
654.00,0.5723
653.00,0.5694
652.00,0.5677
651.00,0.5676
650.00,0.5691
649.00,0.5721
648.00,0.5762
647.00,0.5810
646.00,0.5858
645.00,0.5902
644.00,0.5937
643.00,0.5959
642.00,0.5965
641.00,0.5951
640.00,0.5913
639.00,0.5852
638.00,0.5770
637.00,0.5675
636.00,0.5576
635.00,0.5481
634.00,0.5396
633.00,0.5327
632.00,0.5277
631.00,0.5245
630.00,0.5232
629.00,0.5233
628.00,0.5252
627.00,0.5289
626.00,0.5344
625.00,0.5414
624.00,0.5497
623.00,0.5595
622.00,0.5706
621.00,0.5826
620.00,0.5949
619.00,0.6064
618.00,0.6157
617.00,0.6214
616.00,0.6229
615.00,0.6201
614.00,0.6136
613.00,0.6040
612.00,0.5926
611.00,0.5808
610.00,0.5698
609.00,0.5602
608.00,0.5525
607.00,0.5470
606.00,0.5436
605.00,0.5420
604.00,0.5420
603.00,0.5435
602.00,0.5460
601.00,0.5484
600.00,0.5499
599.00,0.5504
598.00,0.5499
597.00,0.5486
596.00,0.5469
595.00,0.5453
594.00,0.5438
593.00,0.5426
592.00,0.5415
591.00,0.5406
590.00,0.5401
589.00,0.5403
588.00,0.5420
587.00,0.5449
586.00,0.5484
585.00,0.5517
584.00,0.5547
583.00,0.5577
582.00,0.5610
581.00,0.5644
580.00,0.5679
579.00,0.5718
578.00,0.5765
577.00,0.5821
576.00,0.5891
575.00,0.5977
574.00,0.6077
573.00,0.6187
572.00,0.6307
571.00,0.6439
570.00,0.6582
569.00,0.6733
568.00,0.6887
567.00,0.7046
566.00,0.7210
565.00,0.7375
564.00,0.7531
563.00,0.7666
562.00,0.7769
561.00,0.7844
560.00,0.7896
559.00,0.7927
558.00,0.7933
557.00,0.7911
556.00,0.7862
555.00,0.7786
554.00,0.7695
553.00,0.7607
552.00,0.7537
551.00,0.7487
550.00,0.7453
