Created as New Dataset,
cm-1,A
4000.00,0.3842
3999.00,0.3841
3998.00,0.3841
3997.00,0.3840
3996.00,0.3839
3995.00,0.3838
3994.00,0.3837
3993.00,0.3834
3992.00,0.3831
3991.00,0.3827
3990.00,0.3823
3989.00,0.3819
3988.00,0.3814
3987.00,0.3810
3986.00,0.3806
3985.00,0.3802
3984.00,0.3798
3983.00,0.3793
3982.00,0.3788
3981.00,0.3783
3980.00,0.3778
3979.00,0.3772
3978.00,0.3767
3977.00,0.3763
3976.00,0.3760
3975.00,0.3757
3974.00,0.3754
3973.00,0.3751
3972.00,0.3748
3971.00,0.3744
3970.00,0.3741
3969.00,0.3737
3968.00,0.3734
3967.00,0.3731
3966.00,0.3727
3965.00,0.3724
3964.00,0.3720
3963.00,0.3715
3962.00,0.3710
3961.00,0.3705
3960.00,0.3699
3959.00,0.3694
3958.00,0.3689
3957.00,0.3685
3956.00,0.3681
3955.00,0.3678
3954.00,0.3675
3953.00,0.3672
3952.00,0.3670
3951.00,0.3667
3950.00,0.3664
3949.00,0.3661
3948.00,0.3657
3947.00,0.3655
3946.00,0.3653
3945.00,0.3650
3944.00,0.3648
3943.00,0.3645
3942.00,0.3643
3941.00,0.3641
3940.00,0.3639
3939.00,0.3637
3938.00,0.3635
3937.00,0.3633
3936.00,0.3632
3935.00,0.3631
3934.00,0.3630
3933.00,0.3630
3932.00,0.3629
3931.00,0.3628
3930.00,0.3627
3929.00,0.3626
3928.00,0.3625
3927.00,0.3625
3926.00,0.3625
3925.00,0.3625
3924.00,0.3625
3923.00,0.3625
3922.00,0.3625
3921.00,0.3625
3920.00,0.3625
3919.00,0.3625
3918.00,0.3624
3917.00,0.3622
3916.00,0.3622
3915.00,0.3622
3914.00,0.3621
3913.00,0.3620
3912.00,0.3618
3911.00,0.3617
3910.00,0.3616
3909.00,0.3615
3908.00,0.3614
3907.00,0.3614
3906.00,0.3613
3905.00,0.3612
3904.00,0.3612
3903.00,0.3613
3902.00,0.3612
3901.00,0.3611
3900.00,0.3609
3899.00,0.3608
3898.00,0.3607
3897.00,0.3605
3896.00,0.3604
3895.00,0.3602
3894.00,0.3600
3893.00,0.3597
3892.00,0.3594
3891.00,0.3592
3890.00,0.3590
3889.00,0.3590
3888.00,0.3589
3887.00,0.3588
3886.00,0.3587
3885.00,0.3587
3884.00,0.3587
3883.00,0.3586
3882.00,0.3585
3881.00,0.3585
3880.00,0.3585
3879.00,0.3585
3878.00,0.3585
3877.00,0.3584
3876.00,0.3584
3875.00,0.3584
3874.00,0.3584
3873.00,0.3585
3872.00,0.3583
3871.00,0.3582
3870.00,0.3581
3869.00,0.3582
3868.00,0.3582
3867.00,0.3581
3866.00,0.3579
3865.00,0.3578
3864.00,0.3577
3863.00,0.3575
3862.00,0.3572
3861.00,0.3569
3860.00,0.3568
3859.00,0.3567
3858.00,0.3567
3857.00,0.3567
3856.00,0.3566
3855.00,0.3564
3854.00,0.3564
3853.00,0.3565
3852.00,0.3565
3851.00,0.3564
3850.00,0.3563
3849.00,0.3562
3848.00,0.3562
3847.00,0.3561
3846.00,0.3560
3845.00,0.3560
3844.00,0.3560
3843.00,0.3560
3842.00,0.3560
3841.00,0.3560
3840.00,0.3559
3839.00,0.3558
3838.00,0.3558
3837.00,0.3559
3836.00,0.3558
3835.00,0.3556
3834.00,0.3553
3833.00,0.3551
3832.00,0.3549
3831.00,0.3547
3830.00,0.3546
3829.00,0.3544
3828.00,0.3542
3827.00,0.3540
3826.00,0.3539
3825.00,0.3539
3824.00,0.3538
3823.00,0.3536
3822.00,0.3535
3821.00,0.3535
3820.00,0.3535
3819.00,0.3533
3818.00,0.3528
3817.00,0.3524
3816.00,0.3520
3815.00,0.3518
3814.00,0.3515
3813.00,0.3512
3812.00,0.3510
3811.00,0.3509
3810.00,0.3509
3809.00,0.3508
3808.00,0.3506
3807.00,0.3505
3806.00,0.3505
3805.00,0.3505
3804.00,0.3504
3803.00,0.3502
3802.00,0.3500
3801.00,0.3500
3800.00,0.3499
3799.00,0.3497
3798.00,0.3495
3797.00,0.3492
3796.00,0.3491
3795.00,0.3489
3794.00,0.3486
3793.00,0.3484
3792.00,0.3481
3791.00,0.3479
3790.00,0.3477
3789.00,0.3476
3788.00,0.3474
3787.00,0.3473
3786.00,0.3472
3785.00,0.3471
3784.00,0.3470
3783.00,0.3470
3782.00,0.3470
3781.00,0.3470
3780.00,0.3469
3779.00,0.3469
3778.00,0.3468
3777.00,0.3468
3776.00,0.3468
3775.00,0.3469
3774.00,0.3470
3773.00,0.3472
3772.00,0.3473
3771.00,0.3473
3770.00,0.3472
3769.00,0.3472
3768.00,0.3471
3767.00,0.3470
3766.00,0.3469
3765.00,0.3468
3764.00,0.3468
3763.00,0.3468
3762.00,0.3468
3761.00,0.3468
3760.00,0.3467
3759.00,0.3466
3758.00,0.3464
3757.00,0.3463
3756.00,0.3461
3755.00,0.3461
3754.00,0.3460
3753.00,0.3459
3752.00,0.3459
3751.00,0.3458
3750.00,0.3457
3749.00,0.3457
3748.00,0.3458
3747.00,0.3457
3746.00,0.3455
3745.00,0.3454
3744.00,0.3453
3743.00,0.3452
3742.00,0.3450
3741.00,0.3447
3740.00,0.3446
3739.00,0.3446
3738.00,0.3445
3737.00,0.3444
3736.00,0.3444
3735.00,0.3444
3734.00,0.3444
3733.00,0.3443
3732.00,0.3442
3731.00,0.3441
3730.00,0.3439
3729.00,0.3436
3728.00,0.3434
3727.00,0.3432
3726.00,0.3431
3725.00,0.3431
3724.00,0.3430
3723.00,0.3429
3722.00,0.3428
3721.00,0.3426
3720.00,0.3425
3719.00,0.3423
3718.00,0.3422
3717.00,0.3422
3716.00,0.3422
3715.00,0.3422
3714.00,0.3422
3713.00,0.3423
3712.00,0.3424
3711.00,0.3426
3710.00,0.3427
3709.00,0.3427
3708.00,0.3427
3707.00,0.3427
3706.00,0.3427
3705.00,0.3427
3704.00,0.3428
3703.00,0.3428
3702.00,0.3428
3701.00,0.3430
3700.00,0.3431
3699.00,0.3432
3698.00,0.3432
3697.00,0.3433
3696.00,0.3435
3695.00,0.3436
3694.00,0.3437
3693.00,0.3439
3692.00,0.3441
3691.00,0.3442
3690.00,0.3443
3689.00,0.3444
3688.00,0.3446
3687.00,0.3446
3686.00,0.3446
3685.00,0.3446
3684.00,0.3446
3683.00,0.3445
3682.00,0.3445
3681.00,0.3445
3680.00,0.3445
3679.00,0.3445
3678.00,0.3445
3677.00,0.3444
3676.00,0.3444
3675.00,0.3444
3674.00,0.3445
3673.00,0.3444
3672.00,0.3443
3671.00,0.3443
3670.00,0.3443
3669.00,0.3444
3668.00,0.3443
3667.00,0.3443
3666.00,0.3442
3665.00,0.3443
3664.00,0.3444
3663.00,0.3445
3662.00,0.3447
3661.00,0.3449
3660.00,0.3452
3659.00,0.3455
3658.00,0.3457
3657.00,0.3460
3656.00,0.3463
3655.00,0.3467
3654.00,0.3472
3653.00,0.3476
3652.00,0.3480
3651.00,0.3484
3650.00,0.3488
3649.00,0.3492
3648.00,0.3496
3647.00,0.3498
3646.00,0.3500
3645.00,0.3501
3644.00,0.3503
3643.00,0.3505
3642.00,0.3508
3641.00,0.3511
3640.00,0.3515
3639.00,0.3520
3638.00,0.3525
3637.00,0.3531
3636.00,0.3537
3635.00,0.3543
3634.00,0.3549
3633.00,0.3556
3632.00,0.3564
3631.00,0.3574
3630.00,0.3588
3629.00,0.3606
3628.00,0.3626
3627.00,0.3642
3626.00,0.3653
3625.00,0.3660
3624.00,0.3661
3623.00,0.3658
3622.00,0.3650
3621.00,0.3637
3620.00,0.3621
3619.00,0.3605
3618.00,0.3590
3617.00,0.3578
3616.00,0.3568
3615.00,0.3561
3614.00,0.3556
3613.00,0.3555
3612.00,0.3555
3611.00,0.3556
3610.00,0.3558
3609.00,0.3560
3608.00,0.3561
3607.00,0.3561
3606.00,0.3561
3605.00,0.3559
3604.00,0.3556
3603.00,0.3551
3602.00,0.3544
3601.00,0.3536
3600.00,0.3527
3599.00,0.3517
3598.00,0.3506
3597.00,0.3496
3596.00,0.3485
3595.00,0.3475
3594.00,0.3465
3593.00,0.3456
3592.00,0.3450
3591.00,0.3444
3590.00,0.3440
3589.00,0.3436
3588.00,0.3432
3587.00,0.3428
3586.00,0.3424
3585.00,0.3420
3584.00,0.3416
3583.00,0.3412
3582.00,0.3409
3581.00,0.3406
3580.00,0.3404
3579.00,0.3401
3578.00,0.3398
3577.00,0.3396
3576.00,0.3394
3575.00,0.3392
3574.00,0.3392
3573.00,0.3392
3572.00,0.3392
3571.00,0.3392
3570.00,0.3392
3569.00,0.3393
3568.00,0.3394
3567.00,0.3395
3566.00,0.3396
3565.00,0.3397
3564.00,0.3397
3563.00,0.3398
3562.00,0.3400
3561.00,0.3401
3560.00,0.3403
3559.00,0.3404
3558.00,0.3406
3557.00,0.3409
3556.00,0.3412
3555.00,0.3415
3554.00,0.3418
3553.00,0.3421
3552.00,0.3425
3551.00,0.3429
3550.00,0.3434
3549.00,0.3439
3548.00,0.3444
3547.00,0.3449
3546.00,0.3455
3545.00,0.3460
3544.00,0.3465
3543.00,0.3470
3542.00,0.3475
3541.00,0.3480
3540.00,0.3484
3539.00,0.3489
3538.00,0.3495
3537.00,0.3500
3536.00,0.3506
3535.00,0.3511
3534.00,0.3517
3533.00,0.3524
3532.00,0.3530
3531.00,0.3537
3530.00,0.3544
3529.00,0.3550
3528.00,0.3556
3527.00,0.3562
3526.00,0.3569
3525.00,0.3575
3524.00,0.3582
3523.00,0.3589
3522.00,0.3596
3521.00,0.3603
3520.00,0.3611
3519.00,0.3619
3518.00,0.3628
3517.00,0.3637
3516.00,0.3645
3515.00,0.3653
3514.00,0.3662
3513.00,0.3671
3512.00,0.3680
3511.00,0.3689
3510.00,0.3697
3509.00,0.3706
3508.00,0.3715
3507.00,0.3724
3506.00,0.3734
3505.00,0.3742
3504.00,0.3751
3503.00,0.3760
3502.00,0.3769
3501.00,0.3778
3500.00,0.3787
3499.00,0.3796
3498.00,0.3805
3497.00,0.3815
3496.00,0.3824
3495.00,0.3834
3494.00,0.3844
3493.00,0.3854
3492.00,0.3865
3491.00,0.3876
3490.00,0.3887
3489.00,0.3899
3488.00,0.3911
3487.00,0.3923
3486.00,0.3936
3485.00,0.3948
3484.00,0.3960
3483.00,0.3973
3482.00,0.3986
3481.00,0.3999
3480.00,0.4013
3479.00,0.4026
3478.00,0.4039
3477.00,0.4052
3476.00,0.4065
3475.00,0.4079
3474.00,0.4093
3473.00,0.4109
3472.00,0.4124
3471.00,0.4139
3470.00,0.4154
3469.00,0.4169
3468.00,0.4184
3467.00,0.4199
3466.00,0.4214
3465.00,0.4229
3464.00,0.4245
3463.00,0.4261
3462.00,0.4277
3461.00,0.4294
3460.00,0.4311
3459.00,0.4329
3458.00,0.4346
3457.00,0.4365
3456.00,0.4384
3455.00,0.4403
3454.00,0.4424
3453.00,0.4444
3452.00,0.4466
3451.00,0.4489
3450.00,0.4512
3449.00,0.4537
3448.00,0.4563
3447.00,0.4591
3446.00,0.4620
3445.00,0.4651
3444.00,0.4682
3443.00,0.4713
3442.00,0.4745
3441.00,0.4776
3440.00,0.4806
3439.00,0.4835
3438.00,0.4862
3437.00,0.4888
3436.00,0.4913
3435.00,0.4936
3434.00,0.4958
3433.00,0.4979
3432.00,0.4998
3431.00,0.5016
3430.00,0.5034
3429.00,0.5051
3428.00,0.5068
3427.00,0.5085
3426.00,0.5103
3425.00,0.5121
3424.00,0.5140
3423.00,0.5160
3422.00,0.5179
3421.00,0.5198
3420.00,0.5216
3419.00,0.5235
3418.00,0.5255
3417.00,0.5276
3416.00,0.5298
3415.00,0.5320
3414.00,0.5343
3413.00,0.5367
3412.00,0.5392
3411.00,0.5416
3410.00,0.5441
3409.00,0.5466
3408.00,0.5491
3407.00,0.5516
3406.00,0.5542
3405.00,0.5569
3404.00,0.5595
3403.00,0.5621
3402.00,0.5647
3401.00,0.5673
3400.00,0.5700
3399.00,0.5727
3398.00,0.5754
3397.00,0.5781
3396.00,0.5809
3395.00,0.5836
3394.00,0.5863
3393.00,0.5891
3392.00,0.5920
3391.00,0.5948
3390.00,0.5977
3389.00,0.6005
3388.00,0.6033
3387.00,0.6062
3386.00,0.6092
3385.00,0.6124
3384.00,0.6156
3383.00,0.6187
3382.00,0.6218
3381.00,0.6249
3380.00,0.6281
3379.00,0.6312
3378.00,0.6345
3377.00,0.6378
3376.00,0.6412
3375.00,0.6445
3374.00,0.6477
3373.00,0.6510
3372.00,0.6543
3371.00,0.6576
3370.00,0.6609
3369.00,0.6642
3368.00,0.6675
3367.00,0.6707
3366.00,0.6739
3365.00,0.6772
3364.00,0.6804
3363.00,0.6836
3362.00,0.6867
3361.00,0.6898
3360.00,0.6927
3359.00,0.6956
3358.00,0.6984
3357.00,0.7012
3356.00,0.7038
3355.00,0.7064
3354.00,0.7088
3353.00,0.7111
3352.00,0.7133
3351.00,0.7153
3350.00,0.7173
3349.00,0.7192
3348.00,0.7210
3347.00,0.7227
3346.00,0.7241
3345.00,0.7254
3344.00,0.7265
3343.00,0.7275
3342.00,0.7284
3341.00,0.7290
3340.00,0.7294
3339.00,0.7297
3338.00,0.7298
3337.00,0.7299
3336.00,0.7297
3335.00,0.7293
3334.00,0.7288
3333.00,0.7282
3332.00,0.7275
3331.00,0.7267
3330.00,0.7257
3329.00,0.7246
3328.00,0.7234
3327.00,0.7222
3326.00,0.7210
3325.00,0.7197
3324.00,0.7183
3323.00,0.7167
3322.00,0.7151
3321.00,0.7136
3320.00,0.7120
3319.00,0.7103
3318.00,0.7087
3317.00,0.7071
3316.00,0.7055
3315.00,0.7040
3314.00,0.7024
3313.00,0.7009
3312.00,0.6995
3311.00,0.6982
3310.00,0.6970
3309.00,0.6958
3308.00,0.6947
3307.00,0.6937
3306.00,0.6926
3305.00,0.6916
3304.00,0.6907
3303.00,0.6898
3302.00,0.6889
3301.00,0.6882
3300.00,0.6876
3299.00,0.6872
3298.00,0.6868
3297.00,0.6865
3296.00,0.6862
3295.00,0.6859
3294.00,0.6857
3293.00,0.6857
3292.00,0.6857
3291.00,0.6859
3290.00,0.6861
3289.00,0.6863
3288.00,0.6863
3287.00,0.6863
3286.00,0.6863
3285.00,0.6864
3284.00,0.6867
3283.00,0.6870
3282.00,0.6874
3281.00,0.6878
3280.00,0.6882
3279.00,0.6886
3278.00,0.6890
3277.00,0.6895
3276.00,0.6899
3275.00,0.6904
3274.00,0.6909
3273.00,0.6914
3272.00,0.6918
3271.00,0.6921
3270.00,0.6922
3269.00,0.6923
3268.00,0.6924
3267.00,0.6925
3266.00,0.6928
3265.00,0.6930
3264.00,0.6931
3263.00,0.6930
3262.00,0.6928
3261.00,0.6925
3260.00,0.6923
3259.00,0.6920
3258.00,0.6916
3257.00,0.6912
3256.00,0.6907
3255.00,0.6900
3254.00,0.6892
3253.00,0.6884
3252.00,0.6876
3251.00,0.6867
3250.00,0.6856
3249.00,0.6844
3248.00,0.6832
3247.00,0.6818
3246.00,0.6804
3245.00,0.6789
3244.00,0.6774
3243.00,0.6757
3242.00,0.6738
3241.00,0.6719
3240.00,0.6700
3239.00,0.6681
3238.00,0.6662
3237.00,0.6643
3236.00,0.6624
3235.00,0.6604
3234.00,0.6583
3233.00,0.6562
3232.00,0.6540
3231.00,0.6517
3230.00,0.6494
3229.00,0.6471
3228.00,0.6448
3227.00,0.6426
3226.00,0.6403
3225.00,0.6379
3224.00,0.6356
3223.00,0.6332
3222.00,0.6309
3221.00,0.6286
3220.00,0.6264
3219.00,0.6242
3218.00,0.6220
3217.00,0.6198
3216.00,0.6175
3215.00,0.6151
3214.00,0.6127
3213.00,0.6103
3212.00,0.6081
3211.00,0.6059
3210.00,0.6038
3209.00,0.6018
3208.00,0.5996
3207.00,0.5975
3206.00,0.5954
3205.00,0.5932
3204.00,0.5912
3203.00,0.5891
3202.00,0.5870
3201.00,0.5848
3200.00,0.5827
3199.00,0.5807
3198.00,0.5788
3197.00,0.5769
3196.00,0.5750
3195.00,0.5730
3194.00,0.5711
3193.00,0.5691
3192.00,0.5670
3191.00,0.5650
3190.00,0.5630
3189.00,0.5609
3188.00,0.5589
3187.00,0.5569
3186.00,0.5550
3185.00,0.5531
3184.00,0.5511
3183.00,0.5491
3182.00,0.5471
3181.00,0.5452
3180.00,0.5433
3179.00,0.5413
3178.00,0.5393
3177.00,0.5374
3176.00,0.5355
3175.00,0.5336
3174.00,0.5318
3173.00,0.5299
3172.00,0.5281
3171.00,0.5262
3170.00,0.5244
3169.00,0.5226
3168.00,0.5208
3167.00,0.5191
3166.00,0.5174
3165.00,0.5158
3164.00,0.5143
3163.00,0.5126
3162.00,0.5110
3161.00,0.5095
3160.00,0.5080
3159.00,0.5066
3158.00,0.5053
3157.00,0.5040
3156.00,0.5027
3155.00,0.5014
3154.00,0.5001
3153.00,0.4989
3152.00,0.4977
3151.00,0.4964
3150.00,0.4952
3149.00,0.4941
3148.00,0.4929
3147.00,0.4918
3146.00,0.4907
3145.00,0.4896
3144.00,0.4886
3143.00,0.4874
3142.00,0.4863
3141.00,0.4853
3140.00,0.4843
3139.00,0.4833
3138.00,0.4824
3137.00,0.4815
3136.00,0.4806
3135.00,0.4797
3134.00,0.4788
3133.00,0.4780
3132.00,0.4772
3131.00,0.4765
3130.00,0.4758
3129.00,0.4751
3128.00,0.4744
3127.00,0.4738
3126.00,0.4732
3125.00,0.4726
3124.00,0.4722
3123.00,0.4718
3122.00,0.4714
3121.00,0.4711
3120.00,0.4709
3119.00,0.4707
3118.00,0.4705
3117.00,0.4705
3116.00,0.4704
3115.00,0.4704
3114.00,0.4705
3113.00,0.4707
3112.00,0.4709
3111.00,0.4712
3110.00,0.4715
3109.00,0.4719
3108.00,0.4723
3107.00,0.4728
3106.00,0.4733
3105.00,0.4738
3104.00,0.4744
3103.00,0.4750
3102.00,0.4757
3101.00,0.4764
3100.00,0.4770
3099.00,0.4777
3098.00,0.4783
3097.00,0.4790
3096.00,0.4798
3095.00,0.4806
3094.00,0.4814
3093.00,0.4822
3092.00,0.4830
3091.00,0.4839
3090.00,0.4848
3089.00,0.4858
3088.00,0.4869
3087.00,0.4881
3086.00,0.4893
3085.00,0.4905
3084.00,0.4918
3083.00,0.4932
3082.00,0.4946
3081.00,0.4961
3080.00,0.4977
3079.00,0.4995
3078.00,0.5014
3077.00,0.5034
3076.00,0.5055
3075.00,0.5076
3074.00,0.5099
3073.00,0.5123
3072.00,0.5149
3071.00,0.5178
3070.00,0.5207
3069.00,0.5238
3068.00,0.5269
3067.00,0.5302
3066.00,0.5335
3065.00,0.5370
3064.00,0.5406
3063.00,0.5441
3062.00,0.5477
3061.00,0.5513
3060.00,0.5550
3059.00,0.5586
3058.00,0.5621
3057.00,0.5656
3056.00,0.5690
3055.00,0.5723
3054.00,0.5755
3053.00,0.5785
3052.00,0.5814
3051.00,0.5842
3050.00,0.5870
3049.00,0.5898
3048.00,0.5927
3047.00,0.5956
3046.00,0.5987
3045.00,0.6018
3044.00,0.6051
3043.00,0.6086
3042.00,0.6124
3041.00,0.6164
3040.00,0.6207
3039.00,0.6253
3038.00,0.6301
3037.00,0.6352
3036.00,0.6404
3035.00,0.6459
3034.00,0.6516
3033.00,0.6575
3032.00,0.6635
3031.00,0.6695
3030.00,0.6753
3029.00,0.6812
3028.00,0.6871
3027.00,0.6930
3026.00,0.6989
3025.00,0.7050
3024.00,0.7113
3023.00,0.7177
3022.00,0.7244
3021.00,0.7312
3020.00,0.7384
3019.00,0.7459
3018.00,0.7537
3017.00,0.7618
3016.00,0.7703
3015.00,0.7793
3014.00,0.7889
3013.00,0.7990
3012.00,0.8097
3011.00,0.8208
3010.00,0.8326
3009.00,0.8451
3008.00,0.8583
3007.00,0.8722
3006.00,0.8867
3005.00,0.9021
3004.00,0.9184
3003.00,0.9357
3002.00,0.9540
3001.00,0.9734
3000.00,0.9940
2999.00,1.0158
2998.00,1.0390
2997.00,1.0638
2996.00,1.0902
2995.00,1.1184
2994.00,1.1485
2993.00,1.1805
2992.00,1.2147
2991.00,1.2517
2990.00,1.2920
2989.00,1.3360
2988.00,1.3840
2987.00,1.4362
2986.00,1.4935
2985.00,1.5567
2984.00,1.6265
2983.00,1.7038
2982.00,1.7892
2981.00,1.8836
2980.00,1.9877
2979.00,2.1037
2978.00,2.2338
2977.00,2.3799
2976.00,2.5428
2975.00,2.7220
2974.00,2.9144
2973.00,3.1123
2972.00,3.3039
2971.00,3.4895
2970.00,3.6816
2969.00,3.8382
2968.00,3.8994
2967.00,3.9309
2966.00,3.9210
2965.00,3.8370
2964.00,3.7224
2963.00,3.6645
2962.00,3.6932
2961.00,3.7826
2960.00,3.8846
2959.00,3.9791
2958.00,4.1080
2957.00,4.2931
2956.00,4.4290
2955.00,4.2818
2954.00,4.0840
2953.00,3.9292
2952.00,3.8402
2951.00,3.8252
2950.00,3.8231
2949.00,3.8379
2948.00,3.9092
2947.00,4.0288
2946.00,4.0329
2945.00,3.8832
2944.00,3.7456
2943.00,3.6839
2942.00,3.6806
2941.00,3.7110
2940.00,3.7732
2939.00,3.8881
2938.00,4.0518
2937.00,4.1806
2936.00,4.1854
2935.00,4.0713
2934.00,3.9599
2933.00,3.9216
2932.00,3.9459
2931.00,3.9242
2930.00,3.8490
2929.00,3.8371
2928.00,4.0062
2927.00,4.1321
2926.00,3.9465
2925.00,3.8101
2924.00,3.8433
2923.00,4.0505
2922.00,3.9878
2921.00,3.8645
2920.00,3.8252
2919.00,3.9437
2918.00,4.1562
2917.00,4.4075
2916.00,4.3547
2915.00,4.2607
2914.00,4.3332
2913.00,4.5980
2912.00,4.6230
2911.00,4.3876
2910.00,4.2072
2909.00,4.1013
2908.00,4.0857
2907.00,4.1821
2906.00,4.1552
2905.00,4.0893
2904.00,4.0824
2903.00,4.0673
2902.00,4.0011
2901.00,3.9850
2900.00,3.9998
2899.00,3.9509
2898.00,3.8998
2897.00,3.9736
2896.00,4.0961
2895.00,4.0170
2894.00,3.9587
2893.00,4.0250
2892.00,4.1330
2891.00,4.0882
2890.00,4.1004
2889.00,4.4387
2888.00,4.4632
2887.00,4.0925
2886.00,3.8576
2885.00,3.8255
2884.00,3.9018
2883.00,4.0487
2882.00,4.0288
2881.00,3.8825
2880.00,3.8281
2879.00,3.9964
2878.00,4.2939
2877.00,4.4994
2876.00,4.7386
2875.00,4.7817
2874.00,4.7660
2873.00,4.5837
2872.00,4.6616
2871.00,4.5429
2870.00,4.3222
2869.00,4.2122
2868.00,4.2960
2867.00,4.3344
2866.00,4.1213
2865.00,3.9674
2864.00,3.9872
2863.00,4.1902
2862.00,4.4279
2861.00,4.7737
2860.00,4.8850
2859.00,4.4550
2858.00,4.3067
2857.00,4.5008
2856.00,4.4761
2855.00,4.2648
2854.00,4.1023
2853.00,4.0706
2852.00,3.9707
2851.00,3.9184
2850.00,4.0357
2849.00,4.1105
2848.00,3.9733
2847.00,3.8710
2846.00,3.9525
2845.00,4.2068
2844.00,4.1567
2843.00,3.9146
2842.00,3.6938
2841.00,3.5465
2840.00,3.4169
2839.00,3.2860
2838.00,3.1288
2837.00,2.9374
2836.00,2.7404
2835.00,2.5607
2834.00,2.4031
2833.00,2.2641
2832.00,2.1396
2831.00,2.0269
2830.00,1.9249
2829.00,1.8330
2828.00,1.7504
2827.00,1.6761
2826.00,1.6091
2825.00,1.5484
2824.00,1.4932
2823.00,1.4429
2822.00,1.3967
2821.00,1.3542
2820.00,1.3151
2819.00,1.2793
2818.00,1.2463
2817.00,1.2157
2816.00,1.1870
2815.00,1.1599
2814.00,1.1339
2813.00,1.1092
2812.00,1.0858
2811.00,1.0637
2810.00,1.0425
2809.00,1.0221
2808.00,1.0023
2807.00,0.9831
2806.00,0.9645
2805.00,0.9464
2804.00,0.9286
2803.00,0.9113
2802.00,0.8945
2801.00,0.8782
2800.00,0.8627
2799.00,0.8479
2798.00,0.8338
2797.00,0.8202
2796.00,0.8073
2795.00,0.7950
2794.00,0.7833
2793.00,0.7722
2792.00,0.7618
2791.00,0.7519
2790.00,0.7425
2789.00,0.7334
2788.00,0.7247
2787.00,0.7161
2786.00,0.7077
2785.00,0.6993
2784.00,0.6908
2783.00,0.6824
2782.00,0.6741
2781.00,0.6660
2780.00,0.6581
2779.00,0.6506
2778.00,0.6433
2777.00,0.6362
2776.00,0.6294
2775.00,0.6229
2774.00,0.6168
2773.00,0.6113
2772.00,0.6061
2771.00,0.6014
2770.00,0.5971
2769.00,0.5932
2768.00,0.5897
2767.00,0.5866
2766.00,0.5838
2765.00,0.5813
2764.00,0.5791
2763.00,0.5772
2762.00,0.5755
2761.00,0.5740
2760.00,0.5727
2759.00,0.5716
2758.00,0.5707
2757.00,0.5701
2756.00,0.5697
2755.00,0.5695
2754.00,0.5695
2753.00,0.5698
2752.00,0.5702
2751.00,0.5707
2750.00,0.5715
2749.00,0.5725
2748.00,0.5737
2747.00,0.5750
2746.00,0.5765
2745.00,0.5781
2744.00,0.5797
2743.00,0.5817
2742.00,0.5839
2741.00,0.5864
2740.00,0.5893
2739.00,0.5927
2738.00,0.5964
2737.00,0.6006
2736.00,0.6053
2735.00,0.6102
2734.00,0.6152
2733.00,0.6198
2732.00,0.6233
2731.00,0.6252
2730.00,0.6252
2729.00,0.6231
2728.00,0.6194
2727.00,0.6144
2726.00,0.6087
2725.00,0.6029
2724.00,0.5974
2723.00,0.5926
2722.00,0.5886
2721.00,0.5853
2720.00,0.5827
2719.00,0.5805
2718.00,0.5785
2717.00,0.5766
2716.00,0.5746
2715.00,0.5725
2714.00,0.5701
2713.00,0.5676
2712.00,0.5650
2711.00,0.5624
2710.00,0.5598
2709.00,0.5573
2708.00,0.5551
2707.00,0.5532
2706.00,0.5516
2705.00,0.5501
2704.00,0.5487
2703.00,0.5475
2702.00,0.5466
2701.00,0.5460
2700.00,0.5455
2699.00,0.5453
2698.00,0.5452
2697.00,0.5456
2696.00,0.5462
2695.00,0.5471
2694.00,0.5482
2693.00,0.5493
2692.00,0.5506
2691.00,0.5518
2690.00,0.5531
2689.00,0.5542
2688.00,0.5553
2687.00,0.5561
2686.00,0.5569
2685.00,0.5576
2684.00,0.5582
2683.00,0.5587
2682.00,0.5591
2681.00,0.5593
2680.00,0.5597
2679.00,0.5600
2678.00,0.5605
2677.00,0.5609
2676.00,0.5614
2675.00,0.5619
2674.00,0.5623
2673.00,0.5625
2672.00,0.5626
2671.00,0.5625
2670.00,0.5620
2669.00,0.5612
2668.00,0.5598
2667.00,0.5581
2666.00,0.5560
2665.00,0.5535
2664.00,0.5508
2663.00,0.5479
2662.00,0.5451
2661.00,0.5424
2660.00,0.5399
2659.00,0.5375
2658.00,0.5350
2657.00,0.5326
2656.00,0.5301
2655.00,0.5277
2654.00,0.5254
2653.00,0.5232
2652.00,0.5211
2651.00,0.5192
2650.00,0.5173
2649.00,0.5155
2648.00,0.5138
2647.00,0.5122
2646.00,0.5107
2645.00,0.5092
2644.00,0.5078
2643.00,0.5065
2642.00,0.5053
2641.00,0.5042
2640.00,0.5031
2639.00,0.5021
2638.00,0.5010
2637.00,0.4999
2636.00,0.4988
2635.00,0.4976
2634.00,0.4964
2633.00,0.4951
2632.00,0.4937
2631.00,0.4923
2630.00,0.4907
2629.00,0.4891
2628.00,0.4875
2627.00,0.4859
2626.00,0.4843
2625.00,0.4829
2624.00,0.4815
2623.00,0.4801
2622.00,0.4788
2621.00,0.4776
2620.00,0.4765
2619.00,0.4754
2618.00,0.4743
2617.00,0.4732
2616.00,0.4721
2615.00,0.4711
2614.00,0.4702
2613.00,0.4693
2612.00,0.4683
2611.00,0.4674
2610.00,0.4664
2609.00,0.4655
2608.00,0.4647
2607.00,0.4638
2606.00,0.4630
2605.00,0.4622
2604.00,0.4614
2603.00,0.4606
2602.00,0.4599
2601.00,0.4591
2600.00,0.4583
2599.00,0.4573
2598.00,0.4562
2597.00,0.4550
2596.00,0.4537
2595.00,0.4525
2594.00,0.4512
2593.00,0.4499
2592.00,0.4487
2591.00,0.4473
2590.00,0.4461
2589.00,0.4448
2588.00,0.4436
2587.00,0.4424
2586.00,0.4412
2585.00,0.4399
2584.00,0.4385
2583.00,0.4371
2582.00,0.4357
2581.00,0.4342
2580.00,0.4326
2579.00,0.4311
2578.00,0.4296
2577.00,0.4282
2576.00,0.4268
2575.00,0.4254
2574.00,0.4242
2573.00,0.4229
2572.00,0.4218
2571.00,0.4206
2570.00,0.4195
2569.00,0.4185
2568.00,0.4174
2567.00,0.4163
2566.00,0.4152
2565.00,0.4141
2564.00,0.4130
2563.00,0.4118
2562.00,0.4107
2561.00,0.4095
2560.00,0.4083
2559.00,0.4070
2558.00,0.4057
2557.00,0.4044
2556.00,0.4032
2555.00,0.4020
2554.00,0.4008
2553.00,0.3997
2552.00,0.3987
2551.00,0.3977
2550.00,0.3967
2549.00,0.3959
2548.00,0.3951
2547.00,0.3943
2546.00,0.3936
2545.00,0.3929
2544.00,0.3923
2543.00,0.3917
2542.00,0.3913
2541.00,0.3908
2540.00,0.3904
2539.00,0.3900
2538.00,0.3896
2537.00,0.3892
2536.00,0.3887
2535.00,0.3882
2534.00,0.3875
2533.00,0.3868
2532.00,0.3860
2531.00,0.3851
2530.00,0.3840
2529.00,0.3828
2528.00,0.3815
2527.00,0.3801
2526.00,0.3787
2525.00,0.3773
2524.00,0.3760
2523.00,0.3747
2522.00,0.3734
2521.00,0.3721
2520.00,0.3708
2519.00,0.3695
2518.00,0.3683
2517.00,0.3672
2516.00,0.3661
2515.00,0.3650
2514.00,0.3639
2513.00,0.3628
2512.00,0.3617
2511.00,0.3607
2510.00,0.3597
2509.00,0.3588
2508.00,0.3580
2507.00,0.3572
2506.00,0.3566
2505.00,0.3560
2504.00,0.3556
2503.00,0.3552
2502.00,0.3548
2501.00,0.3545
2500.00,0.3542
2499.00,0.3539
2498.00,0.3536
2497.00,0.3533
2496.00,0.3530
2495.00,0.3526
2494.00,0.3522
2493.00,0.3518
2492.00,0.3514
2491.00,0.3510
2490.00,0.3504
2489.00,0.3499
2488.00,0.3493
2487.00,0.3487
2486.00,0.3482
2485.00,0.3476
2484.00,0.3470
2483.00,0.3464
2482.00,0.3459
2481.00,0.3454
2480.00,0.3448
2479.00,0.3441
2478.00,0.3435
2477.00,0.3428
2476.00,0.3421
2475.00,0.3414
2474.00,0.3407
2473.00,0.3400
2472.00,0.3394
2471.00,0.3388
2470.00,0.3382
2469.00,0.3377
2468.00,0.3373
2467.00,0.3369
2466.00,0.3365
2465.00,0.3362
2464.00,0.3359
2463.00,0.3356
2462.00,0.3353
2461.00,0.3351
2460.00,0.3349
2459.00,0.3348
2458.00,0.3347
2457.00,0.3346
2456.00,0.3346
2455.00,0.3345
2454.00,0.3345
2453.00,0.3345
2452.00,0.3346
2451.00,0.3346
2450.00,0.3345
2449.00,0.3345
2448.00,0.3345
2447.00,0.3345
2446.00,0.3345
2445.00,0.3346
2444.00,0.3347
2443.00,0.3347
2442.00,0.3348
2441.00,0.3349
2440.00,0.3349
2439.00,0.3350
2438.00,0.3351
2437.00,0.3351
2436.00,0.3351
2435.00,0.3351
2434.00,0.3350
2433.00,0.3350
2432.00,0.3350
2431.00,0.3351
2430.00,0.3352
2429.00,0.3352
2428.00,0.3353
2427.00,0.3354
2426.00,0.3355
2425.00,0.3356
2424.00,0.3358
2423.00,0.3359
2422.00,0.3359
2421.00,0.3360
2420.00,0.3361
2419.00,0.3361
2418.00,0.3362
2417.00,0.3363
2416.00,0.3363
2415.00,0.3364
2414.00,0.3364
2413.00,0.3364
2412.00,0.3364
2411.00,0.3364
2410.00,0.3364
2409.00,0.3364
2408.00,0.3363
2407.00,0.3363
2406.00,0.3363
2405.00,0.3364
2404.00,0.3364
2403.00,0.3364
2402.00,0.3364
2401.00,0.3365
2400.00,0.3365
2399.00,0.3365
2398.00,0.3365
2397.00,0.3366
2396.00,0.3367
2395.00,0.3369
2394.00,0.3372
2393.00,0.3375
2392.00,0.3378
2391.00,0.3382
2390.00,0.3385
2389.00,0.3388
2388.00,0.3391
2387.00,0.3394
2386.00,0.3397
2385.00,0.3400
2384.00,0.3404
2383.00,0.3408
2382.00,0.3412
2381.00,0.3417
2380.00,0.3422
2379.00,0.3426
2378.00,0.3429
2377.00,0.3431
2376.00,0.3433
2375.00,0.3433
2374.00,0.3431
2373.00,0.3429
2372.00,0.3428
2371.00,0.3429
2370.00,0.3431
2369.00,0.3433
2368.00,0.3434
2367.00,0.3436
2366.00,0.3437
2365.00,0.3438
2364.00,0.3439
2363.00,0.3439
2362.00,0.3439
2361.00,0.3441
2360.00,0.3442
2359.00,0.3442
2358.00,0.3441
2357.00,0.3440
2356.00,0.3438
2355.00,0.3437
2354.00,0.3437
2353.00,0.3438
2352.00,0.3439
2351.00,0.3439
2350.00,0.3438
2349.00,0.3436
2348.00,0.3434
2347.00,0.3434
2346.00,0.3436
2345.00,0.3437
2344.00,0.3436
2343.00,0.3434
2342.00,0.3432
2341.00,0.3430
2340.00,0.3428
2339.00,0.3426
2338.00,0.3425
2337.00,0.3424
2336.00,0.3423
2335.00,0.3421
2334.00,0.3421
2333.00,0.3420
2332.00,0.3420
2331.00,0.3417
2330.00,0.3414
2329.00,0.3410
2328.00,0.3406
2327.00,0.3402
2326.00,0.3400
2325.00,0.3397
2324.00,0.3395
2323.00,0.3392
2322.00,0.3387
2321.00,0.3382
2320.00,0.3377
2319.00,0.3371
2318.00,0.3365
2317.00,0.3360
2316.00,0.3356
2315.00,0.3352
2314.00,0.3349
2313.00,0.3345
2312.00,0.3342
2311.00,0.3337
2310.00,0.3331
2309.00,0.3325
2308.00,0.3320
2307.00,0.3314
2306.00,0.3308
2305.00,0.3303
2304.00,0.3298
2303.00,0.3293
2302.00,0.3288
2301.00,0.3284
2300.00,0.3280
2299.00,0.3276
2298.00,0.3272
2297.00,0.3268
2296.00,0.3264
2295.00,0.3261
2294.00,0.3257
2293.00,0.3254
2292.00,0.3250
2291.00,0.3246
2290.00,0.3241
2289.00,0.3236
2288.00,0.3231
2287.00,0.3226
2286.00,0.3221
2285.00,0.3216
2284.00,0.3211
2283.00,0.3206
2282.00,0.3202
2281.00,0.3198
2280.00,0.3194
2279.00,0.3190
2278.00,0.3187
2277.00,0.3185
2276.00,0.3183
2275.00,0.3181
2274.00,0.3179
2273.00,0.3178
2272.00,0.3176
2271.00,0.3175
2270.00,0.3174
2269.00,0.3174
2268.00,0.3174
2267.00,0.3174
2266.00,0.3174
2265.00,0.3174
2264.00,0.3173
2263.00,0.3172
2262.00,0.3171
2261.00,0.3170
2260.00,0.3169
2259.00,0.3168
2258.00,0.3166
2257.00,0.3164
2256.00,0.3162
2255.00,0.3159
2254.00,0.3156
2253.00,0.3153
2252.00,0.3150
2251.00,0.3147
2250.00,0.3143
2249.00,0.3139
2248.00,0.3135
2247.00,0.3131
2246.00,0.3128
2245.00,0.3124
2244.00,0.3120
2243.00,0.3117
2242.00,0.3113
2241.00,0.3109
2240.00,0.3106
2239.00,0.3102
2238.00,0.3099
2237.00,0.3096
2236.00,0.3094
2235.00,0.3092
2234.00,0.3090
2233.00,0.3088
2232.00,0.3086
2231.00,0.3085
2230.00,0.3084
2229.00,0.3084
2228.00,0.3084
2227.00,0.3085
2226.00,0.3086
2225.00,0.3087
2224.00,0.3087
2223.00,0.3087
2222.00,0.3087
2221.00,0.3087
2220.00,0.3086
2219.00,0.3085
2218.00,0.3084
2217.00,0.3084
2216.00,0.3083
2215.00,0.3083
2214.00,0.3082
2213.00,0.3081
2212.00,0.3080
2211.00,0.3079
2210.00,0.3078
2209.00,0.3078
2208.00,0.3077
2207.00,0.3076
2206.00,0.3075
2205.00,0.3074
2204.00,0.3073
2203.00,0.3073
2202.00,0.3073
2201.00,0.3073
2200.00,0.3073
2199.00,0.3073
2198.00,0.3073
2197.00,0.3073
2196.00,0.3074
2195.00,0.3075
2194.00,0.3076
2193.00,0.3078
2192.00,0.3080
2191.00,0.3081
2190.00,0.3083
2189.00,0.3085
2188.00,0.3087
2187.00,0.3089
2186.00,0.3090
2185.00,0.3092
2184.00,0.3094
2183.00,0.3095
2182.00,0.3096
2181.00,0.3098
2180.00,0.3099
2179.00,0.3099
2178.00,0.3099
2177.00,0.3099
2176.00,0.3099
2175.00,0.3099
2174.00,0.3099
2173.00,0.3099
2172.00,0.3099
2171.00,0.3099
2170.00,0.3099
2169.00,0.3099
2168.00,0.3099
2167.00,0.3098
2166.00,0.3098
2165.00,0.3097
2164.00,0.3097
2163.00,0.3097
2162.00,0.3097
2161.00,0.3097
2160.00,0.3097
2159.00,0.3096
2158.00,0.3095
2157.00,0.3095
2156.00,0.3095
2155.00,0.3094
2154.00,0.3094
2153.00,0.3094
2152.00,0.3094
2151.00,0.3094
2150.00,0.3093
2149.00,0.3091
2148.00,0.3089
2147.00,0.3085
2146.00,0.3080
2145.00,0.3074
2144.00,0.3068
2143.00,0.3061
2142.00,0.3054
2141.00,0.3048
2140.00,0.3042
2139.00,0.3036
2138.00,0.3030
2137.00,0.3024
2136.00,0.3019
2135.00,0.3015
2134.00,0.3011
2133.00,0.3008
2132.00,0.3005
2131.00,0.3002
2130.00,0.2999
2129.00,0.2996
2128.00,0.2994
2127.00,0.2992
2126.00,0.2990
2125.00,0.2989
2124.00,0.2987
2123.00,0.2986
2122.00,0.2985
2121.00,0.2984
2120.00,0.2983
2119.00,0.2981
2118.00,0.2981
2117.00,0.2980
2116.00,0.2980
2115.00,0.2979
2114.00,0.2978
2113.00,0.2977
2112.00,0.2977
2111.00,0.2975
2110.00,0.2974
2109.00,0.2973
2108.00,0.2973
2107.00,0.2972
2106.00,0.2972
2105.00,0.2973
2104.00,0.2974
2103.00,0.2975
2102.00,0.2975
2101.00,0.2975
2100.00,0.2974
2099.00,0.2974
2098.00,0.2973
2097.00,0.2972
2096.00,0.2971
2095.00,0.2971
2094.00,0.2970
2093.00,0.2970
2092.00,0.2969
2091.00,0.2969
2090.00,0.2968
2089.00,0.2967
2088.00,0.2966
2087.00,0.2965
2086.00,0.2964
2085.00,0.2963
2084.00,0.2963
2083.00,0.2963
2082.00,0.2962
2081.00,0.2962
2080.00,0.2962
2079.00,0.2963
2078.00,0.2963
2077.00,0.2964
2076.00,0.2965
2075.00,0.2966
2074.00,0.2966
2073.00,0.2967
2072.00,0.2968
2071.00,0.2969
2070.00,0.2971
2069.00,0.2972
2068.00,0.2974
2067.00,0.2976
2066.00,0.2978
2065.00,0.2980
2064.00,0.2982
2063.00,0.2984
2062.00,0.2986
2061.00,0.2988
2060.00,0.2990
2059.00,0.2993
2058.00,0.2996
2057.00,0.2999
2056.00,0.3003
2055.00,0.3006
2054.00,0.3010
2053.00,0.3014
2052.00,0.3018
2051.00,0.3022
2050.00,0.3027
2049.00,0.3032
2048.00,0.3037
2047.00,0.3041
2046.00,0.3045
2045.00,0.3048
2044.00,0.3051
2043.00,0.3053
2042.00,0.3055
2041.00,0.3057
2040.00,0.3058
2039.00,0.3059
2038.00,0.3059
2037.00,0.3061
2036.00,0.3062
2035.00,0.3064
2034.00,0.3065
2033.00,0.3068
2032.00,0.3070
2031.00,0.3073
2030.00,0.3077
2029.00,0.3080
2028.00,0.3084
2027.00,0.3087
2026.00,0.3090
2025.00,0.3091
2024.00,0.3091
2023.00,0.3089
2022.00,0.3084
2021.00,0.3078
2020.00,0.3071
2019.00,0.3062
2018.00,0.3052
2017.00,0.3041
2016.00,0.3030
2015.00,0.3018
2014.00,0.3007
2013.00,0.2996
2012.00,0.2986
2011.00,0.2977
2010.00,0.2968
2009.00,0.2961
2008.00,0.2954
2007.00,0.2949
2006.00,0.2944
2005.00,0.2940
2004.00,0.2936
2003.00,0.2932
2002.00,0.2929
2001.00,0.2927
2000.00,0.2925
1999.00,0.2924
1998.00,0.2922
1997.00,0.2919
1996.00,0.2917
1995.00,0.2916
1994.00,0.2915
1993.00,0.2914
1992.00,0.2914
1991.00,0.2913
1990.00,0.2912
1989.00,0.2912
1988.00,0.2910
1987.00,0.2909
1986.00,0.2908
1985.00,0.2907
1984.00,0.2907
1983.00,0.2906
1982.00,0.2906
1981.00,0.2906
1980.00,0.2906
1979.00,0.2906
1978.00,0.2905
1977.00,0.2905
1976.00,0.2904
1975.00,0.2904
1974.00,0.2904
1973.00,0.2903
1972.00,0.2903
1971.00,0.2901
1970.00,0.2900
1969.00,0.2899
1968.00,0.2898
1967.00,0.2898
1966.00,0.2899
1965.00,0.2899
1964.00,0.2899
1963.00,0.2899
1962.00,0.2899
1961.00,0.2899
1960.00,0.2899
1959.00,0.2899
1958.00,0.2900
1957.00,0.2901
1956.00,0.2902
1955.00,0.2904
1954.00,0.2905
1953.00,0.2906
1952.00,0.2907
1951.00,0.2907
1950.00,0.2908
1949.00,0.2909
1948.00,0.2910
1947.00,0.2911
1946.00,0.2912
1945.00,0.2914
1944.00,0.2917
1943.00,0.2921
1942.00,0.2924
1941.00,0.2927
1940.00,0.2930
1939.00,0.2932
1938.00,0.2933
1937.00,0.2934
1936.00,0.2934
1935.00,0.2935
1934.00,0.2935
1933.00,0.2935
1932.00,0.2936
1931.00,0.2936
1930.00,0.2937
1929.00,0.2937
1928.00,0.2937
1927.00,0.2938
1926.00,0.2939
1925.00,0.2940
1924.00,0.2943
1923.00,0.2945
1922.00,0.2946
1921.00,0.2949
1920.00,0.2952
1919.00,0.2955
1918.00,0.2957
1917.00,0.2959
1916.00,0.2960
1915.00,0.2960
1914.00,0.2959
1913.00,0.2958
1912.00,0.2957
1911.00,0.2957
1910.00,0.2958
1909.00,0.2958
1908.00,0.2958
1907.00,0.2958
1906.00,0.2958
1905.00,0.2957
1904.00,0.2957
1903.00,0.2956
1902.00,0.2956
1901.00,0.2957
1900.00,0.2957
1899.00,0.2957
1898.00,0.2958
1897.00,0.2959
1896.00,0.2960
1895.00,0.2960
1894.00,0.2959
1893.00,0.2958
1892.00,0.2957
1891.00,0.2957
1890.00,0.2958
1889.00,0.2959
1888.00,0.2960
1887.00,0.2960
1886.00,0.2960
1885.00,0.2961
1884.00,0.2961
1883.00,0.2961
1882.00,0.2961
1881.00,0.2962
1880.00,0.2962
1879.00,0.2962
1878.00,0.2961
1877.00,0.2961
1876.00,0.2961
1875.00,0.2959
1874.00,0.2956
1873.00,0.2954
1872.00,0.2951
1871.00,0.2950
1870.00,0.2950
1869.00,0.2951
1868.00,0.2953
1867.00,0.2954
1866.00,0.2955
1865.00,0.2955
1864.00,0.2954
1863.00,0.2952
1862.00,0.2950
1861.00,0.2949
1860.00,0.2947
1859.00,0.2945
1858.00,0.2943
1857.00,0.2941
1856.00,0.2939
1855.00,0.2937
1854.00,0.2935
1853.00,0.2933
1852.00,0.2931
1851.00,0.2929
1850.00,0.2926
1849.00,0.2922
1848.00,0.2919
1847.00,0.2917
1846.00,0.2918
1845.00,0.2920
1844.00,0.2921
1843.00,0.2920
1842.00,0.2920
1841.00,0.2920
1840.00,0.2920
1839.00,0.2919
1838.00,0.2918
1837.00,0.2918
1836.00,0.2917
1835.00,0.2914
1834.00,0.2910
1833.00,0.2906
1832.00,0.2903
1831.00,0.2903
1830.00,0.2904
1829.00,0.2905
1828.00,0.2907
1827.00,0.2909
1826.00,0.2912
1825.00,0.2915
1824.00,0.2918
1823.00,0.2921
1822.00,0.2922
1821.00,0.2923
1820.00,0.2924
1819.00,0.2925
1818.00,0.2926
1817.00,0.2927
1816.00,0.2927
1815.00,0.2927
1814.00,0.2926
1813.00,0.2925
1812.00,0.2926
1811.00,0.2927
1810.00,0.2928
1809.00,0.2930
1808.00,0.2931
1807.00,0.2931
1806.00,0.2930
1805.00,0.2930
1804.00,0.2929
1803.00,0.2930
1802.00,0.2931
1801.00,0.2934
1800.00,0.2939
1799.00,0.2942
1798.00,0.2944
1797.00,0.2945
1796.00,0.2946
1795.00,0.2948
1794.00,0.2952
1793.00,0.2958
1792.00,0.2965
1791.00,0.2973
1790.00,0.2979
1789.00,0.2986
1788.00,0.2992
1787.00,0.2997
1786.00,0.3001
1785.00,0.3006
1784.00,0.3010
1783.00,0.3015
1782.00,0.3021
1781.00,0.3028
1780.00,0.3034
1779.00,0.3039
1778.00,0.3042
1777.00,0.3043
1776.00,0.3045
1775.00,0.3046
1774.00,0.3048
1773.00,0.3051
1772.00,0.3053
1771.00,0.3057
1770.00,0.3062
1769.00,0.3068
1768.00,0.3072
1767.00,0.3072
1766.00,0.3072
1765.00,0.3073
1764.00,0.3076
1763.00,0.3081
1762.00,0.3086
1761.00,0.3091
1760.00,0.3097
1759.00,0.3104
1758.00,0.3112
1757.00,0.3121
1756.00,0.3131
1755.00,0.3141
1754.00,0.3152
1753.00,0.3164
1752.00,0.3175
1751.00,0.3185
1750.00,0.3197
1749.00,0.3210
1748.00,0.3223
1747.00,0.3234
1746.00,0.3241
1745.00,0.3246
1744.00,0.3248
1743.00,0.3249
1742.00,0.3249
1741.00,0.3251
1740.00,0.3250
1739.00,0.3246
1738.00,0.3243
1737.00,0.3243
1736.00,0.3246
1735.00,0.3245
1734.00,0.3241
1733.00,0.3235
1732.00,0.3232
1731.00,0.3231
1730.00,0.3233
1729.00,0.3235
1728.00,0.3237
1727.00,0.3239
1726.00,0.3242
1725.00,0.3246
1724.00,0.3251
1723.00,0.3254
1722.00,0.3256
1721.00,0.3261
1720.00,0.3270
1719.00,0.3281
1718.00,0.3293
1717.00,0.3305
1716.00,0.3318
1715.00,0.3330
1714.00,0.3343
1713.00,0.3356
1712.00,0.3369
1711.00,0.3381
1710.00,0.3393
1709.00,0.3405
1708.00,0.3419
1707.00,0.3435
1706.00,0.3450
1705.00,0.3461
1704.00,0.3470
1703.00,0.3476
1702.00,0.3478
1701.00,0.3475
1700.00,0.3468
1699.00,0.3462
1698.00,0.3463
1697.00,0.3468
1696.00,0.3469
1695.00,0.3462
1694.00,0.3456
1693.00,0.3454
1692.00,0.3456
1691.00,0.3457
1690.00,0.3457
1689.00,0.3459
1688.00,0.3464
1687.00,0.3469
1686.00,0.3474
1685.00,0.3479
1684.00,0.3486
1683.00,0.3493
1682.00,0.3501
1681.00,0.3510
1680.00,0.3517
1679.00,0.3522
1678.00,0.3527
1677.00,0.3536
1676.00,0.3546
1675.00,0.3554
1674.00,0.3560
1673.00,0.3567
1672.00,0.3576
1671.00,0.3588
1670.00,0.3603
1669.00,0.3619
1668.00,0.3632
1667.00,0.3641
1666.00,0.3648
1665.00,0.3657
1664.00,0.3668
1663.00,0.3680
1662.00,0.3692
1661.00,0.3704
1660.00,0.3714
1659.00,0.3720
1658.00,0.3724
1657.00,0.3731
1656.00,0.3743
1655.00,0.3761
1654.00,0.3787
1653.00,0.3815
1652.00,0.3829
1651.00,0.3831
1650.00,0.3838
1649.00,0.3855
1648.00,0.3882
1647.00,0.3915
1646.00,0.3947
1645.00,0.3976
1644.00,0.4001
1643.00,0.4025
1642.00,0.4049
1641.00,0.4074
1640.00,0.4099
1639.00,0.4126
1638.00,0.4158
1637.00,0.4201
1636.00,0.4253
1635.00,0.4306
1634.00,0.4352
1633.00,0.4396
1632.00,0.4440
1631.00,0.4484
1630.00,0.4532
1629.00,0.4588
1628.00,0.4651
1627.00,0.4716
1626.00,0.4784
1625.00,0.4860
1624.00,0.4949
1623.00,0.5048
1622.00,0.5153
1621.00,0.5261
1620.00,0.5375
1619.00,0.5497
1618.00,0.5638
1617.00,0.5807
1616.00,0.5994
1615.00,0.6183
1614.00,0.6374
1613.00,0.6586
1612.00,0.6827
1611.00,0.7090
1610.00,0.7364
1609.00,0.7644
1608.00,0.7924
1607.00,0.8194
1606.00,0.8464
1605.00,0.8761
1604.00,0.9112
1603.00,0.9521
1602.00,0.9984
1601.00,1.0495
1600.00,1.1034
1599.00,1.1564
1598.00,1.2077
1597.00,1.2624
1596.00,1.3264
1595.00,1.4019
1594.00,1.4911
1593.00,1.6005
1592.00,1.7371
1591.00,1.9007
1590.00,2.0887
1589.00,2.3158
1588.00,2.6135
1587.00,2.9816
1586.00,3.3162
1585.00,3.6965
1584.00,4.1550
1583.00,3.8876
1582.00,3.8680
1581.00,3.6880
1580.00,3.8013
1579.00,3.7819
1578.00,3.8151
1577.00,3.9448
1576.00,3.8998
1575.00,3.6976
1574.00,4.1605
1573.00,3.7848
1572.00,3.7867
1571.00,3.5902
1570.00,3.2486
1569.00,3.1311
1568.00,3.1975
1567.00,3.2666
1566.00,3.2405
1565.00,3.3175
1564.00,3.6559
1563.00,3.8215
1562.00,3.7428
1561.00,3.7595
1560.00,3.6469
1559.00,3.6348
1558.00,3.5696
1557.00,3.1351
1556.00,2.8461
1555.00,2.5108
1554.00,2.2107
1553.00,1.9794
1552.00,1.7941
1551.00,1.6315
1550.00,1.4892
1549.00,1.3737
1548.00,1.2830
1547.00,1.2078
1546.00,1.1416
1545.00,1.0834
1544.00,1.0333
1543.00,0.9886
1542.00,0.9466
1541.00,0.9065
1540.00,0.8687
1539.00,0.8352
1538.00,0.8090
1537.00,0.7909
1536.00,0.7781
1535.00,0.7684
1534.00,0.7615
1533.00,0.7598
1532.00,0.7640
1531.00,0.7727
1530.00,0.7851
1529.00,0.8005
1528.00,0.8173
1527.00,0.8324
1526.00,0.8444
1525.00,0.8543
1524.00,0.8646
1523.00,0.8774
1522.00,0.8953
1521.00,0.9187
1520.00,0.9434
1519.00,0.9638
1518.00,0.9769
1517.00,0.9799
1516.00,0.9702
1515.00,0.9477
1514.00,0.9161
1513.00,0.8799
1512.00,0.8434
1511.00,0.8102
1510.00,0.7828
1509.00,0.7616
1508.00,0.7460
1507.00,0.7351
1506.00,0.7291
1505.00,0.7284
1504.00,0.7320
1503.00,0.7384
1502.00,0.7459
1501.00,0.7534
1500.00,0.7597
1499.00,0.7633
1498.00,0.7641
1497.00,0.7633
1496.00,0.7622
1495.00,0.7618
1494.00,0.7634
1493.00,0.7683
1492.00,0.7771
1491.00,0.7897
1490.00,0.8062
1489.00,0.8269
1488.00,0.8514
1487.00,0.8787
1486.00,0.9081
1485.00,0.9395
1484.00,0.9725
1483.00,1.0067
1482.00,1.0430
1481.00,1.0830
1480.00,1.1275
1479.00,1.1776
1478.00,1.2369
1477.00,1.3114
1476.00,1.4052
1475.00,1.5221
1474.00,1.6722
1473.00,1.8747
1472.00,2.1458
1471.00,2.4823
1470.00,2.8679
1469.00,3.3318
1468.00,4.0079
1467.00,4.0497
1466.00,4.0036
1465.00,3.9781
1464.00,4.0224
1463.00,4.0125
1462.00,3.9270
1461.00,4.0673
1460.00,4.4522
1459.00,4.2798
1458.00,3.8768
1457.00,3.7094
1456.00,3.6820
1455.00,3.7128
1454.00,3.8177
1453.00,3.8628
1452.00,3.7817
1451.00,3.8202
1450.00,3.8748
1449.00,3.7595
1448.00,3.7197
1447.00,3.9528
1446.00,4.5256
1445.00,4.0299
1444.00,3.9287
1443.00,3.7621
1442.00,3.6435
1441.00,3.6290
1440.00,3.6150
1439.00,3.5011
1438.00,3.4035
1437.00,3.3684
1436.00,3.2205
1435.00,2.9254
1434.00,2.6459
1433.00,2.4127
1432.00,2.2049
1431.00,2.0167
1430.00,1.8547
1429.00,1.7229
1428.00,1.6200
1427.00,1.5422
1426.00,1.4864
1425.00,1.4504
1424.00,1.4332
1423.00,1.4326
1422.00,1.4453
1421.00,1.4683
1420.00,1.5001
1419.00,1.5384
1418.00,1.5835
1417.00,1.6405
1416.00,1.7159
1415.00,1.8080
1414.00,1.8979
1413.00,1.9426
1412.00,1.9013
1411.00,1.7904
1410.00,1.6624
1409.00,1.5481
1408.00,1.4530
1407.00,1.3723
1406.00,1.3003
1405.00,1.2338
1404.00,1.1727
1403.00,1.1185
1402.00,1.0725
1401.00,1.0342
1400.00,1.0036
1399.00,0.9812
1398.00,0.9667
1397.00,0.9570
1396.00,0.9473
1395.00,0.9334
1394.00,0.9137
1393.00,0.8907
1392.00,0.8685
1391.00,0.8506
1390.00,0.8397
1389.00,0.8382
1388.00,0.8484
1387.00,0.8720
1386.00,0.9091
1385.00,0.9603
1384.00,1.0290
1383.00,1.1208
1382.00,1.2407
1381.00,1.3901
1380.00,1.5621
1379.00,1.7262
1378.00,1.8164
1377.00,1.7855
1376.00,1.6731
1375.00,1.5430
1374.00,1.4303
1373.00,1.3471
1372.00,1.2922
1371.00,1.2579
1370.00,1.2356
1369.00,1.2191
1368.00,1.2039
1367.00,1.1870
1366.00,1.1664
1365.00,1.1412
1364.00,1.1108
1363.00,1.0767
1362.00,1.0424
1361.00,1.0116
1360.00,0.9862
1359.00,0.9664
1358.00,0.9516
1357.00,0.9416
1356.00,0.9359
1355.00,0.9338
1354.00,0.9339
1353.00,0.9350
1352.00,0.9357
1351.00,0.9355
1350.00,0.9346
1349.00,0.9340
1348.00,0.9357
1347.00,0.9415
1346.00,0.9525
1345.00,0.9690
1344.00,0.9891
1343.00,1.0091
1342.00,1.0235
1341.00,1.0271
1340.00,1.0171
1339.00,0.9942
1338.00,0.9617
1337.00,0.9237
1336.00,0.8838
1335.00,0.8453
1334.00,0.8110
1333.00,0.7827
1332.00,0.7611
1331.00,0.7465
1330.00,0.7397
1329.00,0.7421
1328.00,0.7561
1327.00,0.7851
1326.00,0.8295
1325.00,0.8827
1324.00,0.9265
1323.00,0.9395
1322.00,0.9166
1321.00,0.8749
1320.00,0.8344
1319.00,0.8053
1318.00,0.7884
1317.00,0.7806
1316.00,0.7790
1315.00,0.7818
1314.00,0.7877
1313.00,0.7960
1312.00,0.8058
1311.00,0.8164
1310.00,0.8270
1309.00,0.8376
1308.00,0.8492
1307.00,0.8636
1306.00,0.8831
1305.00,0.9074
1304.00,0.9313
1303.00,0.9451
1302.00,0.9416
1301.00,0.9248
1300.00,0.9068
1299.00,0.8988
1298.00,0.9033
1297.00,0.9129
1296.00,0.9142
1295.00,0.8975
1294.00,0.8652
1293.00,0.8283
1292.00,0.7961
1291.00,0.7718
1290.00,0.7539
1289.00,0.7398
1288.00,0.7277
1287.00,0.7162
1286.00,0.7043
1285.00,0.6913
1284.00,0.6774
1283.00,0.6633
1282.00,0.6500
1281.00,0.6384
1280.00,0.6291
1279.00,0.6222
1278.00,0.6171
1277.00,0.6133
1276.00,0.6107
1275.00,0.6095
1274.00,0.6099
1273.00,0.6122
1272.00,0.6163
1271.00,0.6217
1270.00,0.6269
1269.00,0.6299
1268.00,0.6289
1267.00,0.6235
1266.00,0.6145
1265.00,0.6041
1264.00,0.5943
1263.00,0.5867
1262.00,0.5817
1261.00,0.5791
1260.00,0.5787
1259.00,0.5799
1258.00,0.5817
1257.00,0.5829
1256.00,0.5829
1255.00,0.5817
1254.00,0.5793
1253.00,0.5762
1252.00,0.5726
1251.00,0.5688
1250.00,0.5647
1249.00,0.5604
1248.00,0.5562
1247.00,0.5524
1246.00,0.5488
1245.00,0.5451
1244.00,0.5408
1243.00,0.5357
1242.00,0.5297
1241.00,0.5230
1240.00,0.5163
1239.00,0.5104
1238.00,0.5056
1237.00,0.5021
1236.00,0.4999
1235.00,0.4991
1234.00,0.5002
1233.00,0.5031
1232.00,0.5083
1231.00,0.5156
1230.00,0.5244
1229.00,0.5335
1228.00,0.5419
1227.00,0.5494
1226.00,0.5563
1225.00,0.5630
1224.00,0.5702
1223.00,0.5785
1222.00,0.5870
1221.00,0.5934
1220.00,0.5943
1219.00,0.5878
1218.00,0.5753
1217.00,0.5613
1216.00,0.5502
1215.00,0.5440
1214.00,0.5413
1213.00,0.5392
1212.00,0.5347
1211.00,0.5267
1210.00,0.5162
1209.00,0.5056
1208.00,0.4974
1207.00,0.4928
1206.00,0.4910
1205.00,0.4904
1204.00,0.4893
1203.00,0.4871
1202.00,0.4844
1201.00,0.4823
1200.00,0.4817
1199.00,0.4830
1198.00,0.4857
1197.00,0.4894
1196.00,0.4940
1195.00,0.4999
1194.00,0.5072
1193.00,0.5158
1192.00,0.5249
1191.00,0.5328
1190.00,0.5377
1189.00,0.5380
1188.00,0.5341
1187.00,0.5276
1186.00,0.5204
1185.00,0.5138
1184.00,0.5086
1183.00,0.5045
1182.00,0.5015
1181.00,0.4988
1180.00,0.4960
1179.00,0.4930
1178.00,0.4892
1177.00,0.4846
1176.00,0.4789
1175.00,0.4727
1174.00,0.4662
1173.00,0.4596
1172.00,0.4533
1171.00,0.4475
1170.00,0.4422
1169.00,0.4376
1168.00,0.4334
1167.00,0.4297
1166.00,0.4266
1165.00,0.4242
1164.00,0.4225
1163.00,0.4220
1162.00,0.4229
1161.00,0.4253
1160.00,0.4299
1159.00,0.4372
1158.00,0.4485
1157.00,0.4658
1156.00,0.4926
1155.00,0.5336
1154.00,0.5904
1153.00,0.6535
1152.00,0.6991
1151.00,0.7026
1150.00,0.6670
1149.00,0.6187
1148.00,0.5790
1147.00,0.5546
1146.00,0.5431
1145.00,0.5405
1144.00,0.5444
1143.00,0.5540
1142.00,0.5697
1141.00,0.5924
1140.00,0.6222
1139.00,0.6564
1138.00,0.6885
1137.00,0.7110
1136.00,0.7200
1135.00,0.7167
1134.00,0.7050
1133.00,0.6877
1132.00,0.6661
1131.00,0.6408
1130.00,0.6140
1129.00,0.5887
1128.00,0.5679
1127.00,0.5529
1126.00,0.5434
1125.00,0.5388
1124.00,0.5375
1123.00,0.5383
1122.00,0.5400
1121.00,0.5423
1120.00,0.5457
1119.00,0.5508
1118.00,0.5584
1117.00,0.5687
1116.00,0.5810
1115.00,0.5926
1114.00,0.5989
1113.00,0.5965
1112.00,0.5847
1111.00,0.5667
1110.00,0.5466
1109.00,0.5281
1108.00,0.5131
1107.00,0.5023
1106.00,0.4951
1105.00,0.4909
1104.00,0.4889
1103.00,0.4884
1102.00,0.4887
1101.00,0.4894
1100.00,0.4902
1099.00,0.4908
1098.00,0.4905
1097.00,0.4892
1096.00,0.4870
1095.00,0.4844
1094.00,0.4818
1093.00,0.4796
1092.00,0.4782
1091.00,0.4781
1090.00,0.4795
1089.00,0.4828
1088.00,0.4881
1087.00,0.4958
1086.00,0.5056
1085.00,0.5176
1084.00,0.5317
1083.00,0.5480
1082.00,0.5658
1081.00,0.5843
1080.00,0.6019
1079.00,0.6168
1078.00,0.6276
1077.00,0.6333
1076.00,0.6336
1075.00,0.6291
1074.00,0.6207
1073.00,0.6101
1072.00,0.5987
1071.00,0.5876
1070.00,0.5774
1069.00,0.5687
1068.00,0.5617
1067.00,0.5567
1066.00,0.5535
1065.00,0.5517
1064.00,0.5511
1063.00,0.5512
1062.00,0.5517
1061.00,0.5521
1060.00,0.5523
1059.00,0.5520
1058.00,0.5509
1057.00,0.5494
1056.00,0.5480
1055.00,0.5468
1054.00,0.5462
1053.00,0.5464
1052.00,0.5477
1051.00,0.5503
1050.00,0.5540
1049.00,0.5584
1048.00,0.5632
1047.00,0.5679
1046.00,0.5722
1045.00,0.5756
1044.00,0.5782
1043.00,0.5804
1042.00,0.5824
1041.00,0.5847
1040.00,0.5873
1039.00,0.5901
1038.00,0.5928
1037.00,0.5953
1036.00,0.5981
1035.00,0.6019
1034.00,0.6072
1033.00,0.6145
1032.00,0.6241
1031.00,0.6357
1030.00,0.6482
1029.00,0.6599
1028.00,0.6688
1027.00,0.6735
1026.00,0.6733
1025.00,0.6690
1024.00,0.6623
1023.00,0.6552
1022.00,0.6491
1021.00,0.6450
1020.00,0.6433
1019.00,0.6440
1018.00,0.6469
1017.00,0.6516
1016.00,0.6575
1015.00,0.6640
1014.00,0.6708
1013.00,0.6775
1012.00,0.6838
1011.00,0.6902
1010.00,0.6968
1009.00,0.7039
1008.00,0.7114
1007.00,0.7191
1006.00,0.7265
1005.00,0.7335
1004.00,0.7400
1003.00,0.7458
1002.00,0.7505
1001.00,0.7533
1000.00,0.7538
999.00,0.7512
998.00,0.7452
997.00,0.7358
996.00,0.7240
995.00,0.7108
994.00,0.6967
993.00,0.6821
992.00,0.6670
991.00,0.6515
990.00,0.6357
989.00,0.6202
988.00,0.6057
987.00,0.5923
986.00,0.5801
985.00,0.5689
984.00,0.5584
983.00,0.5486
982.00,0.5391
981.00,0.5299
980.00,0.5206
979.00,0.5110
978.00,0.5014
977.00,0.4920
976.00,0.4832
975.00,0.4753
974.00,0.4684
973.00,0.4625
972.00,0.4578
971.00,0.4545
970.00,0.4524
969.00,0.4513
968.00,0.4512
967.00,0.4518
966.00,0.4524
965.00,0.4522
964.00,0.4507
963.00,0.4479
962.00,0.4437
961.00,0.4389
960.00,0.4341
959.00,0.4301
958.00,0.4271
957.00,0.4253
956.00,0.4244
955.00,0.4241
954.00,0.4239
953.00,0.4238
952.00,0.4239
951.00,0.4248
950.00,0.4271
949.00,0.4311
948.00,0.4373
947.00,0.4455
946.00,0.4550
945.00,0.4644
944.00,0.4721
943.00,0.4767
942.00,0.4777
941.00,0.4756
940.00,0.4716
939.00,0.4667
938.00,0.4620
937.00,0.4577
936.00,0.4541
935.00,0.4513
934.00,0.4493
933.00,0.4486
932.00,0.4495
931.00,0.4527
930.00,0.4589
929.00,0.4690
928.00,0.4839
927.00,0.5039
926.00,0.5276
925.00,0.5519
924.00,0.5725
923.00,0.5864
922.00,0.5933
921.00,0.5948
920.00,0.5925
919.00,0.5861
918.00,0.5746
917.00,0.5568
916.00,0.5335
915.00,0.5071
914.00,0.4808
913.00,0.4578
912.00,0.4397
911.00,0.4264
910.00,0.4168
909.00,0.4097
908.00,0.4043
907.00,0.4000
906.00,0.3963
905.00,0.3932
904.00,0.3909
903.00,0.3896
902.00,0.3892
901.00,0.3897
900.00,0.3909
899.00,0.3929
898.00,0.3956
897.00,0.3991
896.00,0.4036
895.00,0.4091
894.00,0.4159
893.00,0.4235
892.00,0.4316
891.00,0.4392
890.00,0.4452
889.00,0.4483
888.00,0.4481
887.00,0.4447
886.00,0.4391
885.00,0.4326
884.00,0.4265
883.00,0.4219
882.00,0.4191
881.00,0.4178
880.00,0.4176
879.00,0.4178
878.00,0.4181
877.00,0.4183
876.00,0.4187
875.00,0.4194
874.00,0.4202
873.00,0.4212
872.00,0.4226
871.00,0.4246
870.00,0.4277
869.00,0.4322
868.00,0.4387
867.00,0.4474
866.00,0.4582
865.00,0.4707
864.00,0.4843
863.00,0.4974
862.00,0.5076
861.00,0.5124
860.00,0.5104
859.00,0.5023
858.00,0.4908
857.00,0.4786
856.00,0.4682
855.00,0.4607
854.00,0.4559
853.00,0.4534
852.00,0.4523
851.00,0.4524
850.00,0.4533
849.00,0.4550
848.00,0.4573
847.00,0.4602
846.00,0.4635
845.00,0.4672
844.00,0.4716
843.00,0.4776
842.00,0.4861
841.00,0.4984
840.00,0.5151
839.00,0.5353
838.00,0.5559
837.00,0.5718
836.00,0.5780
835.00,0.5723
834.00,0.5569
833.00,0.5369
832.00,0.5177
831.00,0.5024
830.00,0.4919
829.00,0.4860
828.00,0.4841
827.00,0.4855
826.00,0.4896
825.00,0.4960
824.00,0.5037
823.00,0.5113
822.00,0.5166
821.00,0.5180
820.00,0.5152
819.00,0.5087
818.00,0.4999
817.00,0.4905
816.00,0.4819
815.00,0.4747
814.00,0.4689
813.00,0.4643
812.00,0.4605
811.00,0.4574
810.00,0.4545
809.00,0.4517
808.00,0.4490
807.00,0.4462
806.00,0.4436
805.00,0.4414
804.00,0.4399
803.00,0.4393
802.00,0.4398
801.00,0.4413
800.00,0.4437
799.00,0.4468
798.00,0.4500
797.00,0.4532
796.00,0.4566
795.00,0.4604
794.00,0.4646
793.00,0.4692
792.00,0.4738
791.00,0.4784
790.00,0.4828
789.00,0.4869
788.00,0.4909
787.00,0.4961
786.00,0.5040
785.00,0.5161
784.00,0.5334
783.00,0.5554
782.00,0.5791
781.00,0.5990
780.00,0.6082
779.00,0.6026
778.00,0.5840
777.00,0.5587
776.00,0.5336
775.00,0.5129
774.00,0.4981
773.00,0.4892
772.00,0.4853
771.00,0.4858
770.00,0.4899
769.00,0.4971
768.00,0.5070
767.00,0.5188
766.00,0.5314
765.00,0.5438
764.00,0.5550
763.00,0.5647
762.00,0.5725
761.00,0.5785
760.00,0.5821
759.00,0.5828
758.00,0.5807
757.00,0.5774
756.00,0.5751
755.00,0.5751
754.00,0.5771
753.00,0.5803
752.00,0.5845
751.00,0.5902
750.00,0.5983
749.00,0.6095
748.00,0.6237
747.00,0.6397
746.00,0.6557
745.00,0.6693
744.00,0.6784
743.00,0.6821
742.00,0.6815
741.00,0.6788
740.00,0.6770
739.00,0.6779
738.00,0.6826
737.00,0.6912
736.00,0.7038
735.00,0.7201
734.00,0.7403
733.00,0.7649
732.00,0.7949
731.00,0.8310
730.00,0.8736
729.00,0.9234
728.00,0.9814
727.00,1.0497
726.00,1.1295
725.00,1.2194
724.00,1.3116
723.00,1.3873
722.00,1.4178
721.00,1.3838
720.00,1.2972
719.00,1.1895
718.00,1.0847
717.00,0.9932
716.00,0.9174
715.00,0.8561
714.00,0.8068
713.00,0.7668
712.00,0.7339
711.00,0.7060
710.00,0.6817
709.00,0.6602
708.00,0.6412
707.00,0.6246
706.00,0.6102
705.00,0.5973
704.00,0.5858
703.00,0.5758
702.00,0.5673
701.00,0.5602
700.00,0.5539
699.00,0.5482
698.00,0.5427
697.00,0.5373
696.00,0.5321
695.00,0.5275
694.00,0.5241
693.00,0.5221
692.00,0.5212
691.00,0.5209
690.00,0.5209
689.00,0.5217
688.00,0.5235
687.00,0.5262
686.00,0.5297
685.00,0.5340
684.00,0.5396
683.00,0.5463
682.00,0.5540
681.00,0.5630
680.00,0.5734
679.00,0.5851
678.00,0.5977
677.00,0.6105
676.00,0.6223
675.00,0.6321
674.00,0.6391
673.00,0.6438
672.00,0.6466
671.00,0.6478
670.00,0.6478
669.00,0.6475
668.00,0.6471
667.00,0.6475
666.00,0.6505
665.00,0.6555
664.00,0.6604
663.00,0.6635
662.00,0.6633
661.00,0.6595
660.00,0.6527
659.00,0.6441
658.00,0.6346
657.00,0.6250
656.00,0.6165
655.00,0.6099
654.00,0.6055
653.00,0.6031
652.00,0.6025
651.00,0.6038
650.00,0.6071
649.00,0.6126
648.00,0.6200
647.00,0.6293
646.00,0.6399
645.00,0.6509
644.00,0.6608
643.00,0.6685
642.00,0.6731
641.00,0.6743
640.00,0.6718
639.00,0.6650
638.00,0.6538
637.00,0.6393
636.00,0.6232
635.00,0.6073
634.00,0.5927
633.00,0.5801
632.00,0.5699
631.00,0.5625
630.00,0.5583
629.00,0.5573
628.00,0.5589
627.00,0.5629
626.00,0.5690
625.00,0.5776
624.00,0.5890
623.00,0.6034
622.00,0.6202
621.00,0.6386
620.00,0.6579
619.00,0.6769
618.00,0.6932
617.00,0.7042
616.00,0.7073
615.00,0.7014
614.00,0.6875
613.00,0.6682
612.00,0.6463
611.00,0.6243
610.00,0.6037
609.00,0.5851
608.00,0.5692
607.00,0.5562
606.00,0.5463
605.00,0.5392
604.00,0.5341
603.00,0.5304
602.00,0.5276
601.00,0.5253
600.00,0.5234
599.00,0.5218
598.00,0.5210
597.00,0.5209
596.00,0.5214
595.00,0.5222
594.00,0.5231
593.00,0.5242
592.00,0.5260
591.00,0.5283
590.00,0.5309
589.00,0.5335
588.00,0.5368
587.00,0.5409
586.00,0.5454
585.00,0.5494
584.00,0.5525
583.00,0.5549
582.00,0.5573
581.00,0.5602
580.00,0.5638
579.00,0.5681
578.00,0.5728
577.00,0.5776
576.00,0.5828
575.00,0.5888
574.00,0.5958
573.00,0.6038
572.00,0.6128
571.00,0.6226
570.00,0.6329
569.00,0.6436
568.00,0.6547
567.00,0.6659
566.00,0.6765
565.00,0.6864
564.00,0.6959
563.00,0.7049
562.00,0.7131
561.00,0.7203
560.00,0.7269
559.00,0.7327
558.00,0.7366
557.00,0.7384
556.00,0.7388
555.00,0.7392
554.00,0.7403
553.00,0.7420
552.00,0.7441
551.00,0.7470
550.00,0.7511
