Created as New Dataset,
cm-1,A
4000.00,0.4168
3999.00,0.4168
3998.00,0.4168
3997.00,0.4168
3996.00,0.4167
3995.00,0.4166
3994.00,0.4165
3993.00,0.4163
3992.00,0.4159
3991.00,0.4155
3990.00,0.4151
3989.00,0.4146
3988.00,0.4141
3987.00,0.4135
3986.00,0.4129
3985.00,0.4124
3984.00,0.4120
3983.00,0.4115
3982.00,0.4111
3981.00,0.4108
3980.00,0.4104
3979.00,0.4100
3978.00,0.4096
3977.00,0.4091
3976.00,0.4087
3975.00,0.4084
3974.00,0.4080
3973.00,0.4077
3972.00,0.4075
3971.00,0.4071
3970.00,0.4068
3969.00,0.4065
3968.00,0.4062
3967.00,0.4059
3966.00,0.4055
3965.00,0.4050
3964.00,0.4045
3963.00,0.4040
3962.00,0.4036
3961.00,0.4032
3960.00,0.4027
3959.00,0.4022
3958.00,0.4018
3957.00,0.4014
3956.00,0.4010
3955.00,0.4007
3954.00,0.4004
3953.00,0.4000
3952.00,0.3997
3951.00,0.3994
3950.00,0.3990
3949.00,0.3986
3948.00,0.3983
3947.00,0.3980
3946.00,0.3978
3945.00,0.3975
3944.00,0.3972
3943.00,0.3970
3942.00,0.3967
3941.00,0.3965
3940.00,0.3963
3939.00,0.3961
3938.00,0.3959
3937.00,0.3957
3936.00,0.3956
3935.00,0.3955
3934.00,0.3954
3933.00,0.3954
3932.00,0.3954
3931.00,0.3953
3930.00,0.3953
3929.00,0.3952
3928.00,0.3952
3927.00,0.3951
3926.00,0.3951
3925.00,0.3951
3924.00,0.3951
3923.00,0.3952
3922.00,0.3952
3921.00,0.3953
3920.00,0.3954
3919.00,0.3954
3918.00,0.3953
3917.00,0.3952
3916.00,0.3951
3915.00,0.3949
3914.00,0.3948
3913.00,0.3946
3912.00,0.3945
3911.00,0.3943
3910.00,0.3942
3909.00,0.3941
3908.00,0.3940
3907.00,0.3939
3906.00,0.3938
3905.00,0.3937
3904.00,0.3936
3903.00,0.3936
3902.00,0.3935
3901.00,0.3934
3900.00,0.3933
3899.00,0.3932
3898.00,0.3931
3897.00,0.3929
3896.00,0.3928
3895.00,0.3926
3894.00,0.3925
3893.00,0.3923
3892.00,0.3920
3891.00,0.3918
3890.00,0.3916
3889.00,0.3915
3888.00,0.3913
3887.00,0.3912
3886.00,0.3911
3885.00,0.3911
3884.00,0.3911
3883.00,0.3911
3882.00,0.3910
3881.00,0.3911
3880.00,0.3911
3879.00,0.3912
3878.00,0.3912
3877.00,0.3910
3876.00,0.3908
3875.00,0.3907
3874.00,0.3908
3873.00,0.3908
3872.00,0.3907
3871.00,0.3906
3870.00,0.3905
3869.00,0.3905
3868.00,0.3904
3867.00,0.3902
3866.00,0.3899
3865.00,0.3898
3864.00,0.3897
3863.00,0.3895
3862.00,0.3893
3861.00,0.3891
3860.00,0.3890
3859.00,0.3889
3858.00,0.3888
3857.00,0.3888
3856.00,0.3887
3855.00,0.3885
3854.00,0.3884
3853.00,0.3885
3852.00,0.3886
3851.00,0.3886
3850.00,0.3886
3849.00,0.3886
3848.00,0.3886
3847.00,0.3887
3846.00,0.3886
3845.00,0.3885
3844.00,0.3884
3843.00,0.3883
3842.00,0.3883
3841.00,0.3883
3840.00,0.3882
3839.00,0.3882
3838.00,0.3881
3837.00,0.3881
3836.00,0.3880
3835.00,0.3878
3834.00,0.3877
3833.00,0.3875
3832.00,0.3874
3831.00,0.3872
3830.00,0.3870
3829.00,0.3868
3828.00,0.3865
3827.00,0.3863
3826.00,0.3862
3825.00,0.3862
3824.00,0.3861
3823.00,0.3859
3822.00,0.3856
3821.00,0.3856
3820.00,0.3855
3819.00,0.3854
3818.00,0.3852
3817.00,0.3849
3816.00,0.3848
3815.00,0.3846
3814.00,0.3843
3813.00,0.3839
3812.00,0.3836
3811.00,0.3835
3810.00,0.3834
3809.00,0.3832
3808.00,0.3829
3807.00,0.3827
3806.00,0.3827
3805.00,0.3827
3804.00,0.3826
3803.00,0.3825
3802.00,0.3824
3801.00,0.3825
3800.00,0.3825
3799.00,0.3823
3798.00,0.3821
3797.00,0.3819
3796.00,0.3817
3795.00,0.3815
3794.00,0.3813
3793.00,0.3810
3792.00,0.3807
3791.00,0.3805
3790.00,0.3803
3789.00,0.3801
3788.00,0.3800
3787.00,0.3798
3786.00,0.3796
3785.00,0.3794
3784.00,0.3793
3783.00,0.3793
3782.00,0.3793
3781.00,0.3792
3780.00,0.3793
3779.00,0.3795
3778.00,0.3796
3777.00,0.3797
3776.00,0.3798
3775.00,0.3798
3774.00,0.3800
3773.00,0.3800
3772.00,0.3800
3771.00,0.3800
3770.00,0.3799
3769.00,0.3799
3768.00,0.3799
3767.00,0.3798
3766.00,0.3797
3765.00,0.3797
3764.00,0.3797
3763.00,0.3797
3762.00,0.3796
3761.00,0.3796
3760.00,0.3794
3759.00,0.3792
3758.00,0.3790
3757.00,0.3787
3756.00,0.3785
3755.00,0.3784
3754.00,0.3782
3753.00,0.3781
3752.00,0.3779
3751.00,0.3777
3750.00,0.3776
3749.00,0.3775
3748.00,0.3775
3747.00,0.3774
3746.00,0.3772
3745.00,0.3771
3744.00,0.3771
3743.00,0.3772
3742.00,0.3770
3741.00,0.3769
3740.00,0.3768
3739.00,0.3769
3738.00,0.3769
3737.00,0.3768
3736.00,0.3768
3735.00,0.3768
3734.00,0.3767
3733.00,0.3766
3732.00,0.3764
3731.00,0.3763
3730.00,0.3762
3729.00,0.3761
3728.00,0.3759
3727.00,0.3758
3726.00,0.3757
3725.00,0.3757
3724.00,0.3756
3723.00,0.3755
3722.00,0.3754
3721.00,0.3752
3720.00,0.3751
3719.00,0.3750
3718.00,0.3749
3717.00,0.3749
3716.00,0.3749
3715.00,0.3748
3714.00,0.3747
3713.00,0.3747
3712.00,0.3747
3711.00,0.3749
3710.00,0.3750
3709.00,0.3750
3708.00,0.3752
3707.00,0.3753
3706.00,0.3754
3705.00,0.3754
3704.00,0.3755
3703.00,0.3754
3702.00,0.3755
3701.00,0.3756
3700.00,0.3756
3699.00,0.3757
3698.00,0.3757
3697.00,0.3758
3696.00,0.3760
3695.00,0.3762
3694.00,0.3763
3693.00,0.3765
3692.00,0.3767
3691.00,0.3767
3690.00,0.3767
3689.00,0.3767
3688.00,0.3767
3687.00,0.3768
3686.00,0.3769
3685.00,0.3769
3684.00,0.3770
3683.00,0.3770
3682.00,0.3769
3681.00,0.3767
3680.00,0.3766
3679.00,0.3766
3678.00,0.3765
3677.00,0.3764
3676.00,0.3763
3675.00,0.3763
3674.00,0.3763
3673.00,0.3764
3672.00,0.3763
3671.00,0.3764
3670.00,0.3766
3669.00,0.3767
3668.00,0.3768
3667.00,0.3767
3666.00,0.3767
3665.00,0.3768
3664.00,0.3769
3663.00,0.3770
3662.00,0.3772
3661.00,0.3774
3660.00,0.3777
3659.00,0.3780
3658.00,0.3783
3657.00,0.3785
3656.00,0.3788
3655.00,0.3792
3654.00,0.3795
3653.00,0.3798
3652.00,0.3802
3651.00,0.3805
3650.00,0.3809
3649.00,0.3812
3648.00,0.3815
3647.00,0.3818
3646.00,0.3821
3645.00,0.3823
3644.00,0.3826
3643.00,0.3828
3642.00,0.3831
3641.00,0.3835
3640.00,0.3838
3639.00,0.3843
3638.00,0.3848
3637.00,0.3853
3636.00,0.3858
3635.00,0.3864
3634.00,0.3871
3633.00,0.3878
3632.00,0.3886
3631.00,0.3896
3630.00,0.3909
3629.00,0.3927
3628.00,0.3945
3627.00,0.3960
3626.00,0.3970
3625.00,0.3975
3624.00,0.3977
3623.00,0.3974
3622.00,0.3965
3621.00,0.3952
3620.00,0.3937
3619.00,0.3920
3618.00,0.3906
3617.00,0.3895
3616.00,0.3887
3615.00,0.3880
3614.00,0.3876
3613.00,0.3875
3612.00,0.3875
3611.00,0.3877
3610.00,0.3878
3609.00,0.3881
3608.00,0.3882
3607.00,0.3883
3606.00,0.3882
3605.00,0.3879
3604.00,0.3876
3603.00,0.3871
3602.00,0.3865
3601.00,0.3857
3600.00,0.3847
3599.00,0.3837
3598.00,0.3826
3597.00,0.3815
3596.00,0.3804
3595.00,0.3793
3594.00,0.3783
3593.00,0.3773
3592.00,0.3766
3591.00,0.3760
3590.00,0.3756
3589.00,0.3752
3588.00,0.3749
3587.00,0.3746
3586.00,0.3743
3585.00,0.3739
3584.00,0.3736
3583.00,0.3733
3582.00,0.3730
3581.00,0.3727
3580.00,0.3725
3579.00,0.3722
3578.00,0.3720
3577.00,0.3718
3576.00,0.3716
3575.00,0.3715
3574.00,0.3714
3573.00,0.3714
3572.00,0.3713
3571.00,0.3713
3570.00,0.3713
3569.00,0.3713
3568.00,0.3713
3567.00,0.3714
3566.00,0.3715
3565.00,0.3715
3564.00,0.3716
3563.00,0.3718
3562.00,0.3719
3561.00,0.3721
3560.00,0.3723
3559.00,0.3725
3558.00,0.3727
3557.00,0.3730
3556.00,0.3732
3555.00,0.3735
3554.00,0.3737
3553.00,0.3740
3552.00,0.3743
3551.00,0.3747
3550.00,0.3752
3549.00,0.3757
3548.00,0.3762
3547.00,0.3768
3546.00,0.3773
3545.00,0.3778
3544.00,0.3783
3543.00,0.3788
3542.00,0.3792
3541.00,0.3797
3540.00,0.3802
3539.00,0.3807
3538.00,0.3812
3537.00,0.3818
3536.00,0.3823
3535.00,0.3829
3534.00,0.3834
3533.00,0.3840
3532.00,0.3846
3531.00,0.3852
3530.00,0.3858
3529.00,0.3865
3528.00,0.3871
3527.00,0.3877
3526.00,0.3884
3525.00,0.3891
3524.00,0.3898
3523.00,0.3905
3522.00,0.3912
3521.00,0.3919
3520.00,0.3926
3519.00,0.3933
3518.00,0.3941
3517.00,0.3950
3516.00,0.3958
3515.00,0.3966
3514.00,0.3974
3513.00,0.3982
3512.00,0.3989
3511.00,0.3997
3510.00,0.4006
3509.00,0.4014
3508.00,0.4023
3507.00,0.4032
3506.00,0.4042
3505.00,0.4051
3504.00,0.4060
3503.00,0.4069
3502.00,0.4077
3501.00,0.4085
3500.00,0.4093
3499.00,0.4103
3498.00,0.4113
3497.00,0.4123
3496.00,0.4134
3495.00,0.4143
3494.00,0.4153
3493.00,0.4162
3492.00,0.4172
3491.00,0.4182
3490.00,0.4193
3489.00,0.4204
3488.00,0.4216
3487.00,0.4228
3486.00,0.4240
3485.00,0.4252
3484.00,0.4264
3483.00,0.4276
3482.00,0.4288
3481.00,0.4300
3480.00,0.4313
3479.00,0.4326
3478.00,0.4339
3477.00,0.4353
3476.00,0.4366
3475.00,0.4380
3474.00,0.4394
3473.00,0.4408
3472.00,0.4423
3471.00,0.4437
3470.00,0.4451
3469.00,0.4466
3468.00,0.4480
3467.00,0.4495
3466.00,0.4510
3465.00,0.4526
3464.00,0.4542
3463.00,0.4558
3462.00,0.4573
3461.00,0.4589
3460.00,0.4605
3459.00,0.4623
3458.00,0.4641
3457.00,0.4659
3456.00,0.4679
3455.00,0.4699
3454.00,0.4719
3453.00,0.4740
3452.00,0.4761
3451.00,0.4781
3450.00,0.4803
3449.00,0.4826
3448.00,0.4852
3447.00,0.4880
3446.00,0.4909
3445.00,0.4938
3444.00,0.4967
3443.00,0.4997
3442.00,0.5028
3441.00,0.5059
3440.00,0.5089
3439.00,0.5117
3438.00,0.5143
3437.00,0.5169
3436.00,0.5194
3435.00,0.5216
3434.00,0.5236
3433.00,0.5256
3432.00,0.5274
3431.00,0.5291
3430.00,0.5308
3429.00,0.5325
3428.00,0.5341
3427.00,0.5358
3426.00,0.5376
3425.00,0.5393
3424.00,0.5412
3423.00,0.5431
3422.00,0.5449
3421.00,0.5468
3420.00,0.5486
3419.00,0.5504
3418.00,0.5524
3417.00,0.5544
3416.00,0.5565
3415.00,0.5586
3414.00,0.5607
3413.00,0.5630
3412.00,0.5653
3411.00,0.5677
3410.00,0.5701
3409.00,0.5724
3408.00,0.5748
3407.00,0.5772
3406.00,0.5797
3405.00,0.5823
3404.00,0.5848
3403.00,0.5874
3402.00,0.5899
3401.00,0.5925
3400.00,0.5951
3399.00,0.5977
3398.00,0.6002
3397.00,0.6027
3396.00,0.6054
3395.00,0.6081
3394.00,0.6108
3393.00,0.6136
3392.00,0.6163
3391.00,0.6191
3390.00,0.6219
3389.00,0.6248
3388.00,0.6278
3387.00,0.6308
3386.00,0.6337
3385.00,0.6367
3384.00,0.6396
3383.00,0.6426
3382.00,0.6457
3381.00,0.6489
3380.00,0.6522
3379.00,0.6555
3378.00,0.6588
3377.00,0.6619
3376.00,0.6651
3375.00,0.6682
3374.00,0.6713
3373.00,0.6746
3372.00,0.6780
3371.00,0.6814
3370.00,0.6847
3369.00,0.6880
3368.00,0.6912
3367.00,0.6942
3366.00,0.6972
3365.00,0.7003
3364.00,0.7033
3363.00,0.7064
3362.00,0.7093
3361.00,0.7122
3360.00,0.7151
3359.00,0.7179
3358.00,0.7206
3357.00,0.7234
3356.00,0.7261
3355.00,0.7287
3354.00,0.7310
3353.00,0.7332
3352.00,0.7354
3351.00,0.7375
3350.00,0.7395
3349.00,0.7414
3348.00,0.7431
3347.00,0.7445
3346.00,0.7459
3345.00,0.7471
3344.00,0.7482
3343.00,0.7492
3342.00,0.7501
3341.00,0.7507
3340.00,0.7511
3339.00,0.7512
3338.00,0.7513
3337.00,0.7512
3336.00,0.7510
3335.00,0.7506
3334.00,0.7500
3333.00,0.7494
3332.00,0.7485
3331.00,0.7475
3330.00,0.7463
3329.00,0.7450
3328.00,0.7437
3327.00,0.7425
3326.00,0.7413
3325.00,0.7401
3324.00,0.7388
3323.00,0.7373
3322.00,0.7358
3321.00,0.7343
3320.00,0.7329
3319.00,0.7313
3318.00,0.7298
3317.00,0.7283
3316.00,0.7267
3315.00,0.7252
3314.00,0.7237
3313.00,0.7222
3312.00,0.7209
3311.00,0.7197
3310.00,0.7186
3309.00,0.7176
3308.00,0.7165
3307.00,0.7155
3306.00,0.7145
3305.00,0.7137
3304.00,0.7128
3303.00,0.7120
3302.00,0.7112
3301.00,0.7106
3300.00,0.7102
3299.00,0.7098
3298.00,0.7094
3297.00,0.7091
3296.00,0.7089
3295.00,0.7086
3294.00,0.7084
3293.00,0.7083
3292.00,0.7083
3291.00,0.7083
3290.00,0.7084
3289.00,0.7084
3288.00,0.7085
3287.00,0.7087
3286.00,0.7089
3285.00,0.7093
3284.00,0.7098
3283.00,0.7103
3282.00,0.7108
3281.00,0.7112
3280.00,0.7116
3279.00,0.7119
3278.00,0.7122
3277.00,0.7125
3276.00,0.7129
3275.00,0.7134
3274.00,0.7139
3273.00,0.7144
3272.00,0.7148
3271.00,0.7151
3270.00,0.7153
3269.00,0.7154
3268.00,0.7156
3267.00,0.7158
3266.00,0.7160
3265.00,0.7160
3264.00,0.7160
3263.00,0.7159
3262.00,0.7159
3261.00,0.7158
3260.00,0.7156
3259.00,0.7153
3258.00,0.7149
3257.00,0.7144
3256.00,0.7138
3255.00,0.7131
3254.00,0.7123
3253.00,0.7114
3252.00,0.7103
3251.00,0.7092
3250.00,0.7081
3249.00,0.7070
3248.00,0.7057
3247.00,0.7044
3246.00,0.7031
3245.00,0.7017
3244.00,0.7003
3243.00,0.6987
3242.00,0.6970
3241.00,0.6953
3240.00,0.6935
3239.00,0.6917
3238.00,0.6898
3237.00,0.6879
3236.00,0.6859
3235.00,0.6838
3234.00,0.6817
3233.00,0.6797
3232.00,0.6777
3231.00,0.6757
3230.00,0.6735
3229.00,0.6713
3228.00,0.6690
3227.00,0.6667
3226.00,0.6644
3225.00,0.6620
3224.00,0.6596
3223.00,0.6572
3222.00,0.6549
3221.00,0.6526
3220.00,0.6504
3219.00,0.6481
3218.00,0.6459
3217.00,0.6437
3216.00,0.6415
3215.00,0.6392
3214.00,0.6369
3213.00,0.6347
3212.00,0.6326
3211.00,0.6305
3210.00,0.6284
3209.00,0.6263
3208.00,0.6243
3207.00,0.6222
3206.00,0.6202
3205.00,0.6182
3204.00,0.6162
3203.00,0.6144
3202.00,0.6125
3201.00,0.6106
3200.00,0.6087
3199.00,0.6068
3198.00,0.6048
3197.00,0.6029
3196.00,0.6010
3195.00,0.5991
3194.00,0.5973
3193.00,0.5955
3192.00,0.5937
3191.00,0.5919
3190.00,0.5900
3189.00,0.5880
3188.00,0.5859
3187.00,0.5839
3186.00,0.5819
3185.00,0.5799
3184.00,0.5780
3183.00,0.5760
3182.00,0.5741
3181.00,0.5722
3180.00,0.5703
3179.00,0.5684
3178.00,0.5665
3177.00,0.5646
3176.00,0.5627
3175.00,0.5609
3174.00,0.5591
3173.00,0.5572
3172.00,0.5555
3171.00,0.5538
3170.00,0.5521
3169.00,0.5505
3168.00,0.5489
3167.00,0.5473
3166.00,0.5457
3165.00,0.5443
3164.00,0.5428
3163.00,0.5414
3162.00,0.5399
3161.00,0.5384
3160.00,0.5369
3159.00,0.5355
3158.00,0.5341
3157.00,0.5328
3156.00,0.5315
3155.00,0.5302
3154.00,0.5290
3153.00,0.5278
3152.00,0.5265
3151.00,0.5252
3150.00,0.5240
3149.00,0.5228
3148.00,0.5216
3147.00,0.5205
3146.00,0.5195
3145.00,0.5184
3144.00,0.5174
3143.00,0.5164
3142.00,0.5153
3141.00,0.5143
3140.00,0.5133
3139.00,0.5123
3138.00,0.5114
3137.00,0.5106
3136.00,0.5099
3135.00,0.5091
3134.00,0.5084
3133.00,0.5076
3132.00,0.5069
3131.00,0.5063
3130.00,0.5056
3129.00,0.5050
3128.00,0.5044
3127.00,0.5039
3126.00,0.5033
3125.00,0.5028
3124.00,0.5024
3123.00,0.5020
3122.00,0.5016
3121.00,0.5013
3120.00,0.5010
3119.00,0.5007
3118.00,0.5006
3117.00,0.5005
3116.00,0.5004
3115.00,0.5004
3114.00,0.5004
3113.00,0.5006
3112.00,0.5008
3111.00,0.5011
3110.00,0.5014
3109.00,0.5018
3108.00,0.5023
3107.00,0.5028
3106.00,0.5035
3105.00,0.5041
3104.00,0.5048
3103.00,0.5054
3102.00,0.5061
3101.00,0.5068
3100.00,0.5075
3099.00,0.5082
3098.00,0.5090
3097.00,0.5097
3096.00,0.5105
3095.00,0.5113
3094.00,0.5121
3093.00,0.5129
3092.00,0.5138
3091.00,0.5146
3090.00,0.5155
3089.00,0.5165
3088.00,0.5175
3087.00,0.5185
3086.00,0.5195
3085.00,0.5207
3084.00,0.5221
3083.00,0.5234
3082.00,0.5249
3081.00,0.5264
3080.00,0.5280
3079.00,0.5297
3078.00,0.5315
3077.00,0.5335
3076.00,0.5356
3075.00,0.5380
3074.00,0.5404
3073.00,0.5430
3072.00,0.5457
3071.00,0.5485
3070.00,0.5515
3069.00,0.5545
3068.00,0.5577
3067.00,0.5610
3066.00,0.5643
3065.00,0.5678
3064.00,0.5713
3063.00,0.5748
3062.00,0.5783
3061.00,0.5818
3060.00,0.5853
3059.00,0.5888
3058.00,0.5924
3057.00,0.5959
3056.00,0.5992
3055.00,0.6025
3054.00,0.6056
3053.00,0.6086
3052.00,0.6115
3051.00,0.6144
3050.00,0.6172
3049.00,0.6200
3048.00,0.6229
3047.00,0.6259
3046.00,0.6290
3045.00,0.6321
3044.00,0.6355
3043.00,0.6391
3042.00,0.6429
3041.00,0.6470
3040.00,0.6513
3039.00,0.6558
3038.00,0.6606
3037.00,0.6656
3036.00,0.6708
3035.00,0.6763
3034.00,0.6820
3033.00,0.6878
3032.00,0.6938
3031.00,0.6997
3030.00,0.7056
3029.00,0.7114
3028.00,0.7173
3027.00,0.7232
3026.00,0.7292
3025.00,0.7353
3024.00,0.7415
3023.00,0.7480
3022.00,0.7546
3021.00,0.7616
3020.00,0.7688
3019.00,0.7762
3018.00,0.7839
3017.00,0.7920
3016.00,0.8005
3015.00,0.8094
3014.00,0.8189
3013.00,0.8290
3012.00,0.8396
3011.00,0.8509
3010.00,0.8626
3009.00,0.8749
3008.00,0.8879
3007.00,0.9016
3006.00,0.9163
3005.00,0.9318
3004.00,0.9483
3003.00,0.9658
3002.00,0.9844
3001.00,1.0040
3000.00,1.0246
2999.00,1.0462
2998.00,1.0690
2997.00,1.0933
2996.00,1.1193
2995.00,1.1473
2994.00,1.1774
2993.00,1.2097
2992.00,1.2444
2991.00,1.2819
2990.00,1.3225
2989.00,1.3666
2988.00,1.4143
2987.00,1.4663
2986.00,1.5232
2985.00,1.5856
2984.00,1.6543
2983.00,1.7305
2982.00,1.8151
2981.00,1.9091
2980.00,2.0133
2979.00,2.1292
2978.00,2.2583
2977.00,2.4014
2976.00,2.5589
2975.00,2.7320
2974.00,2.9189
2973.00,3.1096
2972.00,3.2908
2971.00,3.4722
2970.00,3.6885
2969.00,3.9758
2968.00,4.3784
2967.00,4.6857
2966.00,4.6381
2965.00,4.4747
2964.00,4.3239
2963.00,4.1505
2962.00,3.9910
2961.00,3.9232
2960.00,3.8712
2959.00,3.8391
2958.00,3.8826
2957.00,4.1107
2956.00,4.3092
2955.00,4.0469
2954.00,3.8095
2953.00,3.7079
2952.00,3.7184
2951.00,3.7715
2950.00,3.8651
2949.00,3.9277
2948.00,3.9769
2947.00,4.1898
2946.00,4.4359
2945.00,4.2404
2944.00,3.9660
2943.00,3.8124
2942.00,3.7783
2941.00,3.8067
2940.00,3.8864
2939.00,3.9227
2938.00,3.9576
2937.00,4.1408
2936.00,4.3840
2935.00,4.2684
2934.00,4.0574
2933.00,3.9352
2932.00,3.9034
2931.00,3.9369
2930.00,4.0566
2929.00,4.1692
2928.00,4.2137
2927.00,4.1410
2926.00,4.0552
2925.00,4.0455
2924.00,4.0595
2923.00,4.0084
2922.00,3.9129
2921.00,3.8828
2920.00,3.9605
2919.00,4.1166
2918.00,4.3932
2917.00,4.6736
2916.00,4.3381
2915.00,4.1744
2914.00,4.1370
2913.00,4.2573
2912.00,4.3295
2911.00,4.3736
2910.00,4.3957
2909.00,4.3183
2908.00,4.1516
2907.00,3.9913
2906.00,3.9301
2905.00,4.0288
2904.00,4.1539
2903.00,4.1293
2902.00,4.1133
2901.00,4.2863
2900.00,4.8455
2899.00,4.5148
2898.00,4.3374
2897.00,4.2673
2896.00,4.3482
2895.00,4.4885
2894.00,4.5580
2893.00,4.3695
2892.00,4.1319
2891.00,4.0580
2890.00,4.2542
2889.00,4.7028
2888.00,4.6347
2887.00,4.4170
2886.00,4.1710
2885.00,4.1055
2884.00,4.0632
2883.00,4.1325
2882.00,4.2402
2881.00,4.2293
2880.00,4.1157
2879.00,3.9746
2878.00,3.8794
2877.00,3.8866
2876.00,4.0066
2875.00,4.2322
2874.00,4.3539
2873.00,4.1621
2872.00,3.9913
2871.00,3.9418
2870.00,4.1006
2869.00,4.3834
2868.00,4.1271
2867.00,3.9525
2866.00,3.8699
2865.00,3.8940
2864.00,3.8358
2863.00,3.8102
2862.00,3.8784
2861.00,4.0657
2860.00,4.4413
2859.00,4.4558
2858.00,4.2545
2857.00,4.0753
2856.00,4.0399
2855.00,3.9837
2854.00,3.9794
2853.00,4.0406
2852.00,4.0952
2851.00,4.0597
2850.00,4.0170
2849.00,4.0551
2848.00,4.0098
2847.00,3.8227
2846.00,3.6914
2845.00,3.7126
2844.00,3.8914
2843.00,4.2068
2842.00,4.4161
2841.00,4.1214
2840.00,3.7609
2839.00,3.4882
2838.00,3.2485
2837.00,3.0178
2836.00,2.8006
2835.00,2.6065
2834.00,2.4380
2833.00,2.2915
2832.00,2.1631
2831.00,2.0495
2830.00,1.9482
2829.00,1.8570
2828.00,1.7749
2827.00,1.7013
2826.00,1.6350
2825.00,1.5750
2824.00,1.5202
2823.00,1.4702
2822.00,1.4244
2821.00,1.3823
2820.00,1.3436
2819.00,1.3081
2818.00,1.2751
2817.00,1.2441
2816.00,1.2150
2815.00,1.1877
2814.00,1.1620
2813.00,1.1378
2812.00,1.1148
2811.00,1.0930
2810.00,1.0720
2809.00,1.0516
2808.00,1.0318
2807.00,1.0125
2806.00,0.9939
2805.00,0.9758
2804.00,0.9581
2803.00,0.9409
2802.00,0.9244
2801.00,0.9084
2800.00,0.8931
2799.00,0.8784
2798.00,0.8644
2797.00,0.8509
2796.00,0.8379
2795.00,0.8255
2794.00,0.8138
2793.00,0.8027
2792.00,0.7922
2791.00,0.7823
2790.00,0.7728
2789.00,0.7638
2788.00,0.7550
2787.00,0.7465
2786.00,0.7381
2785.00,0.7298
2784.00,0.7216
2783.00,0.7134
2782.00,0.7052
2781.00,0.6971
2780.00,0.6892
2779.00,0.6815
2778.00,0.6740
2777.00,0.6669
2776.00,0.6602
2775.00,0.6538
2774.00,0.6479
2773.00,0.6424
2772.00,0.6372
2771.00,0.6324
2770.00,0.6281
2769.00,0.6242
2768.00,0.6206
2767.00,0.6174
2766.00,0.6146
2765.00,0.6120
2764.00,0.6098
2763.00,0.6079
2762.00,0.6062
2761.00,0.6047
2760.00,0.6035
2759.00,0.6024
2758.00,0.6016
2757.00,0.6011
2756.00,0.6007
2755.00,0.6006
2754.00,0.6007
2753.00,0.6009
2752.00,0.6013
2751.00,0.6018
2750.00,0.6026
2749.00,0.6035
2748.00,0.6047
2747.00,0.6061
2746.00,0.6077
2745.00,0.6095
2744.00,0.6113
2743.00,0.6132
2742.00,0.6153
2741.00,0.6178
2740.00,0.6206
2739.00,0.6238
2738.00,0.6276
2737.00,0.6318
2736.00,0.6365
2735.00,0.6415
2734.00,0.6466
2733.00,0.6512
2732.00,0.6548
2731.00,0.6568
2730.00,0.6568
2729.00,0.6548
2728.00,0.6510
2727.00,0.6459
2726.00,0.6402
2725.00,0.6345
2724.00,0.6291
2723.00,0.6243
2722.00,0.6202
2721.00,0.6168
2720.00,0.6141
2719.00,0.6119
2718.00,0.6100
2717.00,0.6082
2716.00,0.6063
2715.00,0.6041
2714.00,0.6018
2713.00,0.5992
2712.00,0.5965
2711.00,0.5939
2710.00,0.5913
2709.00,0.5890
2708.00,0.5868
2707.00,0.5849
2706.00,0.5831
2705.00,0.5816
2704.00,0.5802
2703.00,0.5790
2702.00,0.5780
2701.00,0.5773
2700.00,0.5768
2699.00,0.5767
2698.00,0.5767
2697.00,0.5771
2696.00,0.5777
2695.00,0.5786
2694.00,0.5797
2693.00,0.5809
2692.00,0.5822
2691.00,0.5834
2690.00,0.5846
2689.00,0.5858
2688.00,0.5868
2687.00,0.5877
2686.00,0.5885
2685.00,0.5892
2684.00,0.5897
2683.00,0.5901
2682.00,0.5905
2681.00,0.5909
2680.00,0.5913
2679.00,0.5918
2678.00,0.5923
2677.00,0.5928
2676.00,0.5932
2675.00,0.5936
2674.00,0.5940
2673.00,0.5942
2672.00,0.5943
2671.00,0.5940
2670.00,0.5934
2669.00,0.5925
2668.00,0.5912
2667.00,0.5895
2666.00,0.5874
2665.00,0.5850
2664.00,0.5823
2663.00,0.5795
2662.00,0.5767
2661.00,0.5740
2660.00,0.5714
2659.00,0.5689
2658.00,0.5665
2657.00,0.5641
2656.00,0.5617
2655.00,0.5593
2654.00,0.5570
2653.00,0.5548
2652.00,0.5528
2651.00,0.5508
2650.00,0.5489
2649.00,0.5472
2648.00,0.5454
2647.00,0.5438
2646.00,0.5423
2645.00,0.5409
2644.00,0.5396
2643.00,0.5384
2642.00,0.5372
2641.00,0.5361
2640.00,0.5350
2639.00,0.5339
2638.00,0.5327
2637.00,0.5316
2636.00,0.5304
2635.00,0.5291
2634.00,0.5278
2633.00,0.5265
2632.00,0.5252
2631.00,0.5238
2630.00,0.5223
2629.00,0.5207
2628.00,0.5191
2627.00,0.5175
2626.00,0.5160
2625.00,0.5145
2624.00,0.5132
2623.00,0.5119
2622.00,0.5106
2621.00,0.5095
2620.00,0.5083
2619.00,0.5072
2618.00,0.5062
2617.00,0.5053
2616.00,0.5043
2615.00,0.5033
2614.00,0.5023
2613.00,0.5012
2612.00,0.5002
2611.00,0.4993
2610.00,0.4983
2609.00,0.4974
2608.00,0.4966
2607.00,0.4957
2606.00,0.4948
2605.00,0.4941
2604.00,0.4933
2603.00,0.4925
2602.00,0.4917
2601.00,0.4908
2600.00,0.4899
2599.00,0.4889
2598.00,0.4879
2597.00,0.4868
2596.00,0.4856
2595.00,0.4843
2594.00,0.4830
2593.00,0.4816
2592.00,0.4804
2591.00,0.4792
2590.00,0.4780
2589.00,0.4769
2588.00,0.4757
2587.00,0.4745
2586.00,0.4733
2585.00,0.4721
2584.00,0.4708
2583.00,0.4695
2582.00,0.4681
2581.00,0.4667
2580.00,0.4652
2579.00,0.4637
2578.00,0.4622
2577.00,0.4608
2576.00,0.4594
2575.00,0.4580
2574.00,0.4567
2573.00,0.4555
2572.00,0.4543
2571.00,0.4531
2570.00,0.4520
2569.00,0.4508
2568.00,0.4497
2567.00,0.4485
2566.00,0.4474
2565.00,0.4462
2564.00,0.4450
2563.00,0.4438
2562.00,0.4426
2561.00,0.4413
2560.00,0.4401
2559.00,0.4388
2558.00,0.4376
2557.00,0.4365
2556.00,0.4354
2555.00,0.4342
2554.00,0.4331
2553.00,0.4320
2552.00,0.4310
2551.00,0.4300
2550.00,0.4291
2549.00,0.4283
2548.00,0.4275
2547.00,0.4268
2546.00,0.4262
2545.00,0.4255
2544.00,0.4249
2543.00,0.4244
2542.00,0.4239
2541.00,0.4235
2540.00,0.4231
2539.00,0.4226
2538.00,0.4221
2537.00,0.4217
2536.00,0.4212
2535.00,0.4207
2534.00,0.4200
2533.00,0.4193
2532.00,0.4183
2531.00,0.4173
2530.00,0.4162
2529.00,0.4150
2528.00,0.4137
2527.00,0.4124
2526.00,0.4110
2525.00,0.4096
2524.00,0.4082
2523.00,0.4068
2522.00,0.4055
2521.00,0.4041
2520.00,0.4029
2519.00,0.4016
2518.00,0.4004
2517.00,0.3992
2516.00,0.3982
2515.00,0.3971
2514.00,0.3961
2513.00,0.3952
2512.00,0.3942
2511.00,0.3932
2510.00,0.3922
2509.00,0.3913
2508.00,0.3905
2507.00,0.3898
2506.00,0.3892
2505.00,0.3887
2504.00,0.3882
2503.00,0.3877
2502.00,0.3873
2501.00,0.3870
2500.00,0.3867
2499.00,0.3864
2498.00,0.3861
2497.00,0.3857
2496.00,0.3853
2495.00,0.3849
2494.00,0.3844
2493.00,0.3839
2492.00,0.3835
2491.00,0.3830
2490.00,0.3824
2489.00,0.3819
2488.00,0.3814
2487.00,0.3808
2486.00,0.3802
2485.00,0.3797
2484.00,0.3791
2483.00,0.3785
2482.00,0.3780
2481.00,0.3775
2480.00,0.3770
2479.00,0.3763
2478.00,0.3757
2477.00,0.3751
2476.00,0.3744
2475.00,0.3738
2474.00,0.3731
2473.00,0.3724
2472.00,0.3718
2471.00,0.3713
2470.00,0.3708
2469.00,0.3704
2468.00,0.3700
2467.00,0.3697
2466.00,0.3693
2465.00,0.3689
2464.00,0.3686
2463.00,0.3682
2462.00,0.3680
2461.00,0.3677
2460.00,0.3675
2459.00,0.3673
2458.00,0.3671
2457.00,0.3669
2456.00,0.3669
2455.00,0.3669
2454.00,0.3669
2453.00,0.3669
2452.00,0.3669
2451.00,0.3669
2450.00,0.3669
2449.00,0.3669
2448.00,0.3669
2447.00,0.3669
2446.00,0.3669
2445.00,0.3669
2444.00,0.3670
2443.00,0.3671
2442.00,0.3672
2441.00,0.3673
2440.00,0.3673
2439.00,0.3674
2438.00,0.3674
2437.00,0.3675
2436.00,0.3676
2435.00,0.3676
2434.00,0.3676
2433.00,0.3677
2432.00,0.3677
2431.00,0.3678
2430.00,0.3678
2429.00,0.3679
2428.00,0.3679
2427.00,0.3681
2426.00,0.3682
2425.00,0.3683
2424.00,0.3683
2423.00,0.3684
2422.00,0.3685
2421.00,0.3685
2420.00,0.3686
2419.00,0.3686
2418.00,0.3686
2417.00,0.3686
2416.00,0.3686
2415.00,0.3686
2414.00,0.3686
2413.00,0.3686
2412.00,0.3686
2411.00,0.3686
2410.00,0.3686
2409.00,0.3686
2408.00,0.3686
2407.00,0.3686
2406.00,0.3686
2405.00,0.3686
2404.00,0.3686
2403.00,0.3686
2402.00,0.3686
2401.00,0.3687
2400.00,0.3687
2399.00,0.3688
2398.00,0.3689
2397.00,0.3691
2396.00,0.3693
2395.00,0.3695
2394.00,0.3697
2393.00,0.3699
2392.00,0.3702
2391.00,0.3705
2390.00,0.3708
2389.00,0.3712
2388.00,0.3715
2387.00,0.3718
2386.00,0.3720
2385.00,0.3723
2384.00,0.3727
2383.00,0.3730
2382.00,0.3734
2381.00,0.3738
2380.00,0.3743
2379.00,0.3747
2378.00,0.3750
2377.00,0.3752
2376.00,0.3754
2375.00,0.3754
2374.00,0.3753
2373.00,0.3753
2372.00,0.3753
2371.00,0.3753
2370.00,0.3755
2369.00,0.3756
2368.00,0.3757
2367.00,0.3757
2366.00,0.3758
2365.00,0.3759
2364.00,0.3760
2363.00,0.3761
2362.00,0.3762
2361.00,0.3763
2360.00,0.3764
2359.00,0.3764
2358.00,0.3764
2357.00,0.3762
2356.00,0.3761
2355.00,0.3760
2354.00,0.3760
2353.00,0.3762
2352.00,0.3763
2351.00,0.3763
2350.00,0.3762
2349.00,0.3760
2348.00,0.3758
2347.00,0.3758
2346.00,0.3759
2345.00,0.3761
2344.00,0.3761
2343.00,0.3759
2342.00,0.3757
2341.00,0.3755
2340.00,0.3753
2339.00,0.3751
2338.00,0.3749
2337.00,0.3747
2336.00,0.3747
2335.00,0.3746
2334.00,0.3745
2333.00,0.3745
2332.00,0.3744
2331.00,0.3743
2330.00,0.3740
2329.00,0.3737
2328.00,0.3732
2327.00,0.3728
2326.00,0.3724
2325.00,0.3721
2324.00,0.3719
2323.00,0.3716
2322.00,0.3712
2321.00,0.3707
2320.00,0.3701
2319.00,0.3696
2318.00,0.3690
2317.00,0.3685
2316.00,0.3681
2315.00,0.3677
2314.00,0.3675
2313.00,0.3672
2312.00,0.3668
2311.00,0.3663
2310.00,0.3657
2309.00,0.3651
2308.00,0.3645
2307.00,0.3639
2306.00,0.3633
2305.00,0.3627
2304.00,0.3622
2303.00,0.3617
2302.00,0.3612
2301.00,0.3608
2300.00,0.3604
2299.00,0.3600
2298.00,0.3596
2297.00,0.3592
2296.00,0.3588
2295.00,0.3584
2294.00,0.3581
2293.00,0.3577
2292.00,0.3573
2291.00,0.3569
2290.00,0.3564
2289.00,0.3558
2288.00,0.3553
2287.00,0.3548
2286.00,0.3543
2285.00,0.3538
2284.00,0.3534
2283.00,0.3529
2282.00,0.3525
2281.00,0.3522
2280.00,0.3518
2279.00,0.3515
2278.00,0.3512
2277.00,0.3510
2276.00,0.3508
2275.00,0.3506
2274.00,0.3504
2273.00,0.3503
2272.00,0.3502
2271.00,0.3501
2270.00,0.3500
2269.00,0.3500
2268.00,0.3500
2267.00,0.3500
2266.00,0.3499
2265.00,0.3499
2264.00,0.3498
2263.00,0.3497
2262.00,0.3496
2261.00,0.3495
2260.00,0.3493
2259.00,0.3491
2258.00,0.3490
2257.00,0.3488
2256.00,0.3486
2255.00,0.3483
2254.00,0.3480
2253.00,0.3477
2252.00,0.3474
2251.00,0.3471
2250.00,0.3467
2249.00,0.3464
2248.00,0.3461
2247.00,0.3457
2246.00,0.3452
2245.00,0.3448
2244.00,0.3445
2243.00,0.3441
2242.00,0.3438
2241.00,0.3435
2240.00,0.3432
2239.00,0.3430
2238.00,0.3427
2237.00,0.3424
2236.00,0.3421
2235.00,0.3418
2234.00,0.3416
2233.00,0.3414
2232.00,0.3413
2231.00,0.3413
2230.00,0.3413
2229.00,0.3413
2228.00,0.3413
2227.00,0.3413
2226.00,0.3412
2225.00,0.3412
2224.00,0.3412
2223.00,0.3413
2222.00,0.3413
2221.00,0.3413
2220.00,0.3412
2219.00,0.3411
2218.00,0.3410
2217.00,0.3408
2216.00,0.3407
2215.00,0.3406
2214.00,0.3405
2213.00,0.3405
2212.00,0.3404
2211.00,0.3403
2210.00,0.3402
2209.00,0.3401
2208.00,0.3400
2207.00,0.3399
2206.00,0.3398
2205.00,0.3397
2204.00,0.3397
2203.00,0.3397
2202.00,0.3397
2201.00,0.3398
2200.00,0.3398
2199.00,0.3399
2198.00,0.3399
2197.00,0.3400
2196.00,0.3401
2195.00,0.3402
2194.00,0.3403
2193.00,0.3404
2192.00,0.3406
2191.00,0.3407
2190.00,0.3409
2189.00,0.3411
2188.00,0.3413
2187.00,0.3415
2186.00,0.3417
2185.00,0.3419
2184.00,0.3420
2183.00,0.3421
2182.00,0.3421
2181.00,0.3422
2180.00,0.3423
2179.00,0.3423
2178.00,0.3424
2177.00,0.3424
2176.00,0.3425
2175.00,0.3425
2174.00,0.3425
2173.00,0.3424
2172.00,0.3424
2171.00,0.3424
2170.00,0.3424
2169.00,0.3424
2168.00,0.3423
2167.00,0.3422
2166.00,0.3422
2165.00,0.3421
2164.00,0.3422
2163.00,0.3422
2162.00,0.3422
2161.00,0.3422
2160.00,0.3421
2159.00,0.3421
2158.00,0.3421
2157.00,0.3421
2156.00,0.3422
2155.00,0.3422
2154.00,0.3421
2153.00,0.3421
2152.00,0.3420
2151.00,0.3419
2150.00,0.3418
2149.00,0.3415
2148.00,0.3412
2147.00,0.3408
2146.00,0.3403
2145.00,0.3397
2144.00,0.3390
2143.00,0.3383
2142.00,0.3376
2141.00,0.3370
2140.00,0.3364
2139.00,0.3358
2138.00,0.3352
2137.00,0.3347
2136.00,0.3343
2135.00,0.3339
2134.00,0.3336
2133.00,0.3332
2132.00,0.3329
2131.00,0.3326
2130.00,0.3323
2129.00,0.3321
2128.00,0.3319
2127.00,0.3317
2126.00,0.3316
2125.00,0.3314
2124.00,0.3312
2123.00,0.3311
2122.00,0.3310
2121.00,0.3310
2120.00,0.3310
2119.00,0.3309
2118.00,0.3308
2117.00,0.3307
2116.00,0.3305
2115.00,0.3304
2114.00,0.3303
2113.00,0.3302
2112.00,0.3301
2111.00,0.3300
2110.00,0.3298
2109.00,0.3297
2108.00,0.3297
2107.00,0.3297
2106.00,0.3297
2105.00,0.3297
2104.00,0.3297
2103.00,0.3297
2102.00,0.3297
2101.00,0.3297
2100.00,0.3297
2099.00,0.3296
2098.00,0.3296
2097.00,0.3295
2096.00,0.3294
2095.00,0.3293
2094.00,0.3293
2093.00,0.3292
2092.00,0.3292
2091.00,0.3291
2090.00,0.3289
2089.00,0.3288
2088.00,0.3288
2087.00,0.3287
2086.00,0.3286
2085.00,0.3285
2084.00,0.3285
2083.00,0.3285
2082.00,0.3284
2081.00,0.3285
2080.00,0.3285
2079.00,0.3285
2078.00,0.3286
2077.00,0.3287
2076.00,0.3288
2075.00,0.3289
2074.00,0.3289
2073.00,0.3290
2072.00,0.3290
2071.00,0.3291
2070.00,0.3292
2069.00,0.3294
2068.00,0.3296
2067.00,0.3298
2066.00,0.3300
2065.00,0.3301
2064.00,0.3303
2063.00,0.3305
2062.00,0.3307
2061.00,0.3309
2060.00,0.3311
2059.00,0.3314
2058.00,0.3316
2057.00,0.3320
2056.00,0.3323
2055.00,0.3327
2054.00,0.3331
2053.00,0.3335
2052.00,0.3340
2051.00,0.3344
2050.00,0.3348
2049.00,0.3353
2048.00,0.3358
2047.00,0.3362
2046.00,0.3366
2045.00,0.3370
2044.00,0.3372
2043.00,0.3375
2042.00,0.3377
2041.00,0.3378
2040.00,0.3379
2039.00,0.3379
2038.00,0.3380
2037.00,0.3381
2036.00,0.3382
2035.00,0.3384
2034.00,0.3385
2033.00,0.3387
2032.00,0.3389
2031.00,0.3392
2030.00,0.3394
2029.00,0.3397
2028.00,0.3401
2027.00,0.3404
2026.00,0.3407
2025.00,0.3409
2024.00,0.3409
2023.00,0.3407
2022.00,0.3403
2021.00,0.3398
2020.00,0.3390
2019.00,0.3381
2018.00,0.3371
2017.00,0.3359
2016.00,0.3348
2015.00,0.3336
2014.00,0.3325
2013.00,0.3315
2012.00,0.3305
2011.00,0.3296
2010.00,0.3287
2009.00,0.3280
2008.00,0.3274
2007.00,0.3268
2006.00,0.3264
2005.00,0.3259
2004.00,0.3255
2003.00,0.3251
2002.00,0.3249
2001.00,0.3247
2000.00,0.3245
1999.00,0.3244
1998.00,0.3241
1997.00,0.3239
1996.00,0.3237
1995.00,0.3236
1994.00,0.3236
1993.00,0.3236
1992.00,0.3235
1991.00,0.3234
1990.00,0.3232
1989.00,0.3231
1988.00,0.3230
1987.00,0.3230
1986.00,0.3229
1985.00,0.3228
1984.00,0.3228
1983.00,0.3227
1982.00,0.3226
1981.00,0.3225
1980.00,0.3225
1979.00,0.3224
1978.00,0.3223
1977.00,0.3223
1976.00,0.3222
1975.00,0.3222
1974.00,0.3221
1973.00,0.3220
1972.00,0.3220
1971.00,0.3219
1970.00,0.3219
1969.00,0.3219
1968.00,0.3219
1967.00,0.3219
1966.00,0.3218
1965.00,0.3218
1964.00,0.3218
1963.00,0.3218
1962.00,0.3217
1961.00,0.3217
1960.00,0.3218
1959.00,0.3218
1958.00,0.3219
1957.00,0.3220
1956.00,0.3221
1955.00,0.3222
1954.00,0.3223
1953.00,0.3224
1952.00,0.3226
1951.00,0.3226
1950.00,0.3227
1949.00,0.3228
1948.00,0.3230
1947.00,0.3230
1946.00,0.3231
1945.00,0.3233
1944.00,0.3235
1943.00,0.3238
1942.00,0.3241
1941.00,0.3244
1940.00,0.3246
1939.00,0.3247
1938.00,0.3249
1937.00,0.3250
1936.00,0.3250
1935.00,0.3251
1934.00,0.3251
1933.00,0.3251
1932.00,0.3251
1931.00,0.3252
1930.00,0.3252
1929.00,0.3252
1928.00,0.3253
1927.00,0.3253
1926.00,0.3254
1925.00,0.3256
1924.00,0.3259
1923.00,0.3261
1922.00,0.3262
1921.00,0.3264
1920.00,0.3268
1919.00,0.3271
1918.00,0.3274
1917.00,0.3276
1916.00,0.3278
1915.00,0.3278
1914.00,0.3278
1913.00,0.3277
1912.00,0.3276
1911.00,0.3276
1910.00,0.3276
1909.00,0.3276
1908.00,0.3277
1907.00,0.3276
1906.00,0.3275
1905.00,0.3274
1904.00,0.3273
1903.00,0.3273
1902.00,0.3273
1901.00,0.3273
1900.00,0.3273
1899.00,0.3273
1898.00,0.3273
1897.00,0.3275
1896.00,0.3276
1895.00,0.3276
1894.00,0.3275
1893.00,0.3274
1892.00,0.3274
1891.00,0.3273
1890.00,0.3274
1889.00,0.3275
1888.00,0.3276
1887.00,0.3277
1886.00,0.3277
1885.00,0.3278
1884.00,0.3279
1883.00,0.3280
1882.00,0.3280
1881.00,0.3281
1880.00,0.3280
1879.00,0.3280
1878.00,0.3279
1877.00,0.3279
1876.00,0.3279
1875.00,0.3277
1874.00,0.3275
1873.00,0.3272
1872.00,0.3269
1871.00,0.3268
1870.00,0.3268
1869.00,0.3270
1868.00,0.3271
1867.00,0.3272
1866.00,0.3272
1865.00,0.3272
1864.00,0.3271
1863.00,0.3269
1862.00,0.3267
1861.00,0.3265
1860.00,0.3263
1859.00,0.3261
1858.00,0.3259
1857.00,0.3257
1856.00,0.3256
1855.00,0.3254
1854.00,0.3252
1853.00,0.3250
1852.00,0.3248
1851.00,0.3246
1850.00,0.3243
1849.00,0.3239
1848.00,0.3236
1847.00,0.3234
1846.00,0.3234
1845.00,0.3237
1844.00,0.3239
1843.00,0.3240
1842.00,0.3240
1841.00,0.3240
1840.00,0.3239
1839.00,0.3238
1838.00,0.3237
1837.00,0.3237
1836.00,0.3236
1835.00,0.3233
1834.00,0.3229
1833.00,0.3225
1832.00,0.3222
1831.00,0.3222
1830.00,0.3223
1829.00,0.3224
1828.00,0.3225
1827.00,0.3226
1826.00,0.3228
1825.00,0.3231
1824.00,0.3233
1823.00,0.3235
1822.00,0.3236
1821.00,0.3237
1820.00,0.3238
1819.00,0.3238
1818.00,0.3239
1817.00,0.3240
1816.00,0.3241
1815.00,0.3241
1814.00,0.3241
1813.00,0.3241
1812.00,0.3241
1811.00,0.3243
1810.00,0.3244
1809.00,0.3247
1808.00,0.3248
1807.00,0.3249
1806.00,0.3248
1805.00,0.3247
1804.00,0.3247
1803.00,0.3247
1802.00,0.3249
1801.00,0.3252
1800.00,0.3256
1799.00,0.3260
1798.00,0.3262
1797.00,0.3263
1796.00,0.3264
1795.00,0.3265
1794.00,0.3268
1793.00,0.3274
1792.00,0.3282
1791.00,0.3288
1790.00,0.3294
1789.00,0.3299
1788.00,0.3303
1787.00,0.3307
1786.00,0.3311
1785.00,0.3316
1784.00,0.3321
1783.00,0.3327
1782.00,0.3333
1781.00,0.3339
1780.00,0.3345
1779.00,0.3349
1778.00,0.3352
1777.00,0.3354
1776.00,0.3356
1775.00,0.3358
1774.00,0.3361
1773.00,0.3364
1772.00,0.3366
1771.00,0.3368
1770.00,0.3373
1769.00,0.3378
1768.00,0.3383
1767.00,0.3384
1766.00,0.3384
1765.00,0.3385
1764.00,0.3388
1763.00,0.3392
1762.00,0.3396
1761.00,0.3401
1760.00,0.3406
1759.00,0.3411
1758.00,0.3419
1757.00,0.3429
1756.00,0.3439
1755.00,0.3448
1754.00,0.3458
1753.00,0.3469
1752.00,0.3480
1751.00,0.3490
1750.00,0.3501
1749.00,0.3514
1748.00,0.3526
1747.00,0.3536
1746.00,0.3543
1745.00,0.3547
1744.00,0.3549
1743.00,0.3550
1742.00,0.3551
1741.00,0.3552
1740.00,0.3552
1739.00,0.3549
1738.00,0.3545
1737.00,0.3545
1736.00,0.3549
1735.00,0.3551
1734.00,0.3549
1733.00,0.3543
1732.00,0.3539
1731.00,0.3538
1730.00,0.3539
1729.00,0.3541
1728.00,0.3544
1727.00,0.3545
1726.00,0.3547
1725.00,0.3551
1724.00,0.3555
1723.00,0.3558
1722.00,0.3560
1721.00,0.3565
1720.00,0.3574
1719.00,0.3586
1718.00,0.3598
1717.00,0.3609
1716.00,0.3619
1715.00,0.3630
1714.00,0.3642
1713.00,0.3655
1712.00,0.3667
1711.00,0.3678
1710.00,0.3689
1709.00,0.3700
1708.00,0.3714
1707.00,0.3728
1706.00,0.3743
1705.00,0.3754
1704.00,0.3761
1703.00,0.3764
1702.00,0.3765
1701.00,0.3765
1700.00,0.3763
1699.00,0.3760
1698.00,0.3763
1697.00,0.3767
1696.00,0.3766
1695.00,0.3759
1694.00,0.3751
1693.00,0.3749
1692.00,0.3751
1691.00,0.3752
1690.00,0.3753
1689.00,0.3756
1688.00,0.3762
1687.00,0.3767
1686.00,0.3771
1685.00,0.3775
1684.00,0.3780
1683.00,0.3786
1682.00,0.3793
1681.00,0.3801
1680.00,0.3807
1679.00,0.3811
1678.00,0.3815
1677.00,0.3823
1676.00,0.3834
1675.00,0.3844
1674.00,0.3850
1673.00,0.3856
1672.00,0.3864
1671.00,0.3875
1670.00,0.3890
1669.00,0.3905
1668.00,0.3919
1667.00,0.3929
1666.00,0.3936
1665.00,0.3944
1664.00,0.3955
1663.00,0.3967
1662.00,0.3979
1661.00,0.3991
1660.00,0.4002
1659.00,0.4009
1658.00,0.4014
1657.00,0.4021
1656.00,0.4034
1655.00,0.4052
1654.00,0.4079
1653.00,0.4106
1652.00,0.4119
1651.00,0.4121
1650.00,0.4128
1649.00,0.4146
1648.00,0.4173
1647.00,0.4204
1646.00,0.4233
1645.00,0.4259
1644.00,0.4282
1643.00,0.4304
1642.00,0.4326
1641.00,0.4349
1640.00,0.4373
1639.00,0.4398
1638.00,0.4428
1637.00,0.4467
1636.00,0.4516
1635.00,0.4567
1634.00,0.4613
1633.00,0.4657
1632.00,0.4700
1631.00,0.4743
1630.00,0.4790
1629.00,0.4846
1628.00,0.4908
1627.00,0.4972
1626.00,0.5037
1625.00,0.5112
1624.00,0.5199
1623.00,0.5296
1622.00,0.5398
1621.00,0.5505
1620.00,0.5616
1619.00,0.5737
1618.00,0.5876
1617.00,0.6041
1616.00,0.6224
1615.00,0.6407
1614.00,0.6593
1613.00,0.6800
1612.00,0.7035
1611.00,0.7291
1610.00,0.7556
1609.00,0.7826
1608.00,0.8093
1607.00,0.8353
1606.00,0.8612
1605.00,0.8897
1604.00,0.9231
1603.00,0.9618
1602.00,1.0054
1601.00,1.0536
1600.00,1.1045
1599.00,1.1545
1598.00,1.2030
1597.00,1.2546
1596.00,1.3146
1595.00,1.3853
1594.00,1.4694
1593.00,1.5734
1592.00,1.7037
1591.00,1.8603
1590.00,2.0415
1589.00,2.2609
1588.00,2.5457
1587.00,2.8955
1586.00,3.2229
1585.00,3.5284
1584.00,4.1191
1583.00,4.3137
1582.00,3.9577
1581.00,4.0412
1580.00,3.9873
1579.00,3.6553
1578.00,4.0616
1577.00,4.6085
1576.00,3.9380
1575.00,3.9701
1574.00,4.0409
1573.00,3.7466
1572.00,3.9888
1571.00,3.7564
1570.00,3.2795
1569.00,3.0896
1568.00,3.0729
1567.00,3.0845
1566.00,3.0834
1565.00,3.1962
1564.00,3.5724
1563.00,4.0135
1562.00,3.8673
1561.00,3.8038
1560.00,4.2860
1559.00,4.1948
1558.00,3.4698
1557.00,3.1435
1556.00,2.8826
1555.00,2.5492
1554.00,2.2455
1553.00,2.0113
1552.00,1.8232
1551.00,1.6578
1550.00,1.5136
1549.00,1.3971
1548.00,1.3058
1547.00,1.2302
1546.00,1.1636
1545.00,1.1054
1544.00,1.0553
1543.00,1.0107
1542.00,0.9690
1541.00,0.9291
1540.00,0.8913
1539.00,0.8578
1538.00,0.8317
1537.00,0.8135
1536.00,0.8007
1535.00,0.7909
1534.00,0.7842
1533.00,0.7825
1532.00,0.7866
1531.00,0.7952
1530.00,0.8074
1529.00,0.8227
1528.00,0.8392
1527.00,0.8543
1526.00,0.8664
1525.00,0.8769
1524.00,0.8879
1523.00,0.9015
1522.00,0.9199
1521.00,0.9436
1520.00,0.9681
1519.00,0.9882
1518.00,1.0012
1517.00,1.0044
1516.00,0.9949
1515.00,0.9724
1514.00,0.9406
1513.00,0.9043
1512.00,0.8677
1511.00,0.8347
1510.00,0.8076
1509.00,0.7867
1508.00,0.7710
1507.00,0.7598
1506.00,0.7535
1505.00,0.7527
1504.00,0.7563
1503.00,0.7625
1502.00,0.7697
1501.00,0.7770
1500.00,0.7832
1499.00,0.7869
1498.00,0.7877
1497.00,0.7870
1496.00,0.7860
1495.00,0.7857
1494.00,0.7872
1493.00,0.7919
1492.00,0.8003
1491.00,0.8127
1490.00,0.8290
1489.00,0.8494
1488.00,0.8734
1487.00,0.8998
1486.00,0.9285
1485.00,0.9593
1484.00,0.9920
1483.00,1.0259
1482.00,1.0618
1481.00,1.1011
1480.00,1.1446
1479.00,1.1934
1478.00,1.2516
1477.00,1.3254
1476.00,1.4192
1475.00,1.5362
1474.00,1.6864
1473.00,1.8897
1472.00,2.1648
1471.00,2.5107
1470.00,2.9075
1469.00,3.3499
1468.00,3.8860
1467.00,4.3718
1466.00,4.2904
1465.00,4.1627
1464.00,3.9236
1463.00,3.8715
1462.00,3.9945
1461.00,4.2254
1460.00,4.1708
1459.00,4.3648
1458.00,4.5932
1457.00,4.5312
1456.00,4.1354
1455.00,4.0132
1454.00,4.0106
1453.00,4.1204
1452.00,4.4621
1451.00,4.1732
1450.00,3.7494
1449.00,3.6617
1448.00,3.7545
1447.00,3.8490
1446.00,3.7245
1445.00,3.7691
1444.00,4.0490
1443.00,4.2410
1442.00,4.0984
1441.00,4.0501
1440.00,4.0219
1439.00,3.7659
1438.00,3.4835
1437.00,3.2702
1436.00,3.0522
1435.00,2.8082
1434.00,2.5782
1433.00,2.3680
1432.00,2.1693
1431.00,1.9859
1430.00,1.8283
1429.00,1.7011
1428.00,1.6026
1427.00,1.5286
1426.00,1.4755
1425.00,1.4413
1424.00,1.4254
1423.00,1.4259
1422.00,1.4394
1421.00,1.4627
1420.00,1.4943
1419.00,1.5322
1418.00,1.5766
1417.00,1.6328
1416.00,1.7067
1415.00,1.7966
1414.00,1.8836
1413.00,1.9255
1412.00,1.8845
1411.00,1.7779
1410.00,1.6554
1409.00,1.5464
1408.00,1.4559
1407.00,1.3792
1406.00,1.3108
1405.00,1.2473
1404.00,1.1883
1403.00,1.1356
1402.00,1.0905
1401.00,1.0535
1400.00,1.0247
1399.00,1.0046
1398.00,0.9924
1397.00,0.9848
1396.00,0.9766
1395.00,0.9634
1394.00,0.9437
1393.00,0.9200
1392.00,0.8968
1391.00,0.8780
1390.00,0.8663
1389.00,0.8641
1388.00,0.8737
1387.00,0.8967
1386.00,0.9334
1385.00,0.9843
1384.00,1.0528
1383.00,1.1444
1382.00,1.2645
1381.00,1.4148
1380.00,1.5887
1379.00,1.7551
1378.00,1.8450
1377.00,1.8106
1376.00,1.6953
1375.00,1.5644
1374.00,1.4523
1373.00,1.3701
1372.00,1.3161
1371.00,1.2819
1370.00,1.2593
1369.00,1.2421
1368.00,1.2265
1367.00,1.2097
1366.00,1.1897
1365.00,1.1650
1364.00,1.1349
1363.00,1.1011
1362.00,1.0671
1361.00,1.0366
1360.00,1.0114
1359.00,0.9918
1358.00,0.9773
1357.00,0.9676
1356.00,0.9620
1355.00,0.9596
1354.00,0.9593
1353.00,0.9599
1352.00,0.9604
1351.00,0.9601
1350.00,0.9591
1349.00,0.9584
1348.00,0.9600
1347.00,0.9657
1346.00,0.9768
1345.00,0.9937
1344.00,1.0148
1343.00,1.0359
1342.00,1.0513
1341.00,1.0553
1340.00,1.0448
1339.00,1.0208
1338.00,0.9870
1337.00,0.9481
1336.00,0.9078
1335.00,0.8692
1334.00,0.8350
1333.00,0.8067
1332.00,0.7849
1331.00,0.7702
1330.00,0.7632
1329.00,0.7651
1328.00,0.7784
1327.00,0.8060
1326.00,0.8486
1325.00,0.8996
1324.00,0.9415
1323.00,0.9537
1322.00,0.9319
1321.00,0.8921
1320.00,0.8535
1319.00,0.8257
1318.00,0.8098
1317.00,0.8028
1316.00,0.8020
1315.00,0.8053
1314.00,0.8117
1313.00,0.8203
1312.00,0.8305
1311.00,0.8414
1310.00,0.8522
1309.00,0.8631
1308.00,0.8748
1307.00,0.8890
1306.00,0.9076
1305.00,0.9307
1304.00,0.9534
1303.00,0.9664
1302.00,0.9628
1301.00,0.9464
1300.00,0.9292
1299.00,0.9215
1298.00,0.9258
1297.00,0.9348
1296.00,0.9356
1295.00,0.9190
1294.00,0.8874
1293.00,0.8514
1292.00,0.8200
1291.00,0.7962
1290.00,0.7785
1289.00,0.7646
1288.00,0.7526
1287.00,0.7412
1286.00,0.7293
1285.00,0.7164
1284.00,0.7027
1283.00,0.6889
1282.00,0.6759
1281.00,0.6644
1280.00,0.6550
1279.00,0.6480
1278.00,0.6429
1277.00,0.6391
1276.00,0.6366
1275.00,0.6355
1274.00,0.6361
1273.00,0.6385
1272.00,0.6426
1271.00,0.6478
1270.00,0.6527
1269.00,0.6555
1268.00,0.6545
1267.00,0.6492
1266.00,0.6405
1265.00,0.6301
1264.00,0.6205
1263.00,0.6131
1262.00,0.6083
1261.00,0.6058
1260.00,0.6053
1259.00,0.6063
1258.00,0.6080
1257.00,0.6090
1256.00,0.6088
1255.00,0.6073
1254.00,0.6046
1253.00,0.6011
1252.00,0.5972
1251.00,0.5929
1250.00,0.5885
1249.00,0.5841
1248.00,0.5800
1247.00,0.5765
1246.00,0.5732
1245.00,0.5695
1244.00,0.5653
1243.00,0.5603
1242.00,0.5544
1241.00,0.5479
1240.00,0.5414
1239.00,0.5357
1238.00,0.5311
1237.00,0.5278
1236.00,0.5256
1235.00,0.5248
1234.00,0.5256
1233.00,0.5283
1232.00,0.5332
1231.00,0.5401
1230.00,0.5484
1229.00,0.5572
1228.00,0.5656
1227.00,0.5732
1226.00,0.5801
1225.00,0.5866
1224.00,0.5936
1223.00,0.6016
1222.00,0.6100
1221.00,0.6164
1220.00,0.6175
1219.00,0.6114
1218.00,0.5994
1217.00,0.5859
1216.00,0.5753
1215.00,0.5693
1214.00,0.5669
1213.00,0.5650
1212.00,0.5607
1211.00,0.5527
1210.00,0.5419
1209.00,0.5310
1208.00,0.5223
1207.00,0.5173
1206.00,0.5152
1205.00,0.5144
1204.00,0.5133
1203.00,0.5113
1202.00,0.5089
1201.00,0.5068
1200.00,0.5063
1199.00,0.5076
1198.00,0.5105
1197.00,0.5143
1196.00,0.5191
1195.00,0.5250
1194.00,0.5324
1193.00,0.5410
1192.00,0.5502
1191.00,0.5584
1190.00,0.5635
1189.00,0.5642
1188.00,0.5605
1187.00,0.5541
1186.00,0.5468
1185.00,0.5402
1184.00,0.5347
1183.00,0.5306
1182.00,0.5274
1181.00,0.5248
1180.00,0.5222
1179.00,0.5192
1178.00,0.5155
1177.00,0.5109
1176.00,0.5053
1175.00,0.4990
1174.00,0.4921
1173.00,0.4851
1172.00,0.4784
1171.00,0.4724
1170.00,0.4670
1169.00,0.4621
1168.00,0.4577
1167.00,0.4539
1166.00,0.4508
1165.00,0.4483
1164.00,0.4465
1163.00,0.4457
1162.00,0.4463
1161.00,0.4486
1160.00,0.4531
1159.00,0.4605
1158.00,0.4718
1157.00,0.4888
1156.00,0.5151
1155.00,0.5552
1154.00,0.6103
1153.00,0.6713
1152.00,0.7150
1151.00,0.7184
1150.00,0.6845
1149.00,0.6382
1148.00,0.6000
1147.00,0.5763
1146.00,0.5649
1145.00,0.5621
1144.00,0.5655
1143.00,0.5746
1142.00,0.5896
1141.00,0.6116
1140.00,0.6405
1139.00,0.6734
1138.00,0.7040
1137.00,0.7252
1136.00,0.7336
1135.00,0.7303
1134.00,0.7190
1133.00,0.7023
1132.00,0.6814
1131.00,0.6570
1130.00,0.6311
1129.00,0.6065
1128.00,0.5862
1127.00,0.5713
1126.00,0.5621
1125.00,0.5576
1124.00,0.5567
1123.00,0.5580
1122.00,0.5602
1121.00,0.5628
1120.00,0.5663
1119.00,0.5714
1118.00,0.5789
1117.00,0.5890
1116.00,0.6010
1115.00,0.6121
1114.00,0.6182
1113.00,0.6158
1112.00,0.6046
1111.00,0.5873
1110.00,0.5680
1109.00,0.5502
1108.00,0.5357
1107.00,0.5251
1106.00,0.5181
1105.00,0.5140
1104.00,0.5120
1103.00,0.5114
1102.00,0.5115
1101.00,0.5120
1100.00,0.5129
1099.00,0.5136
1098.00,0.5137
1097.00,0.5126
1096.00,0.5105
1095.00,0.5078
1094.00,0.5052
1093.00,0.5030
1092.00,0.5017
1091.00,0.5015
1090.00,0.5027
1089.00,0.5056
1088.00,0.5106
1087.00,0.5180
1086.00,0.5275
1085.00,0.5392
1084.00,0.5529
1083.00,0.5687
1082.00,0.5860
1081.00,0.6038
1080.00,0.6209
1079.00,0.6356
1078.00,0.6463
1077.00,0.6521
1076.00,0.6524
1075.00,0.6478
1074.00,0.6394
1073.00,0.6290
1072.00,0.6182
1071.00,0.6079
1070.00,0.5984
1069.00,0.5900
1068.00,0.5831
1067.00,0.5779
1066.00,0.5744
1065.00,0.5725
1064.00,0.5718
1063.00,0.5720
1062.00,0.5727
1061.00,0.5733
1060.00,0.5737
1059.00,0.5736
1058.00,0.5728
1057.00,0.5715
1056.00,0.5702
1055.00,0.5692
1054.00,0.5689
1053.00,0.5694
1052.00,0.5709
1051.00,0.5734
1050.00,0.5768
1049.00,0.5809
1048.00,0.5856
1047.00,0.5905
1046.00,0.5951
1045.00,0.5989
1044.00,0.6017
1043.00,0.6039
1042.00,0.6057
1041.00,0.6078
1040.00,0.6105
1039.00,0.6134
1038.00,0.6162
1037.00,0.6188
1036.00,0.6215
1035.00,0.6251
1034.00,0.6301
1033.00,0.6371
1032.00,0.6463
1031.00,0.6574
1030.00,0.6694
1029.00,0.6808
1028.00,0.6897
1027.00,0.6946
1026.00,0.6947
1025.00,0.6909
1024.00,0.6847
1023.00,0.6779
1022.00,0.6720
1021.00,0.6680
1020.00,0.6664
1019.00,0.6673
1018.00,0.6703
1017.00,0.6751
1016.00,0.6812
1015.00,0.6880
1014.00,0.6949
1013.00,0.7016
1012.00,0.7080
1011.00,0.7143
1010.00,0.7208
1009.00,0.7278
1008.00,0.7354
1007.00,0.7432
1006.00,0.7507
1005.00,0.7577
1004.00,0.7642
1003.00,0.7700
1002.00,0.7745
1001.00,0.7770
1000.00,0.7769
999.00,0.7736
998.00,0.7667
997.00,0.7565
996.00,0.7442
995.00,0.7309
994.00,0.7172
993.00,0.7032
992.00,0.6885
991.00,0.6732
990.00,0.6577
989.00,0.6426
988.00,0.6286
987.00,0.6157
986.00,0.6036
985.00,0.5924
984.00,0.5819
983.00,0.5722
982.00,0.5628
981.00,0.5535
980.00,0.5442
979.00,0.5348
978.00,0.5254
977.00,0.5162
976.00,0.5077
975.00,0.5001
974.00,0.4935
973.00,0.4879
972.00,0.4835
971.00,0.4802
970.00,0.4782
969.00,0.4773
968.00,0.4773
967.00,0.4779
966.00,0.4784
965.00,0.4781
964.00,0.4764
963.00,0.4734
962.00,0.4691
961.00,0.4641
960.00,0.4592
959.00,0.4551
958.00,0.4521
957.00,0.4503
956.00,0.4495
955.00,0.4490
954.00,0.4487
953.00,0.4483
952.00,0.4484
951.00,0.4492
950.00,0.4514
949.00,0.4553
948.00,0.4613
947.00,0.4693
946.00,0.4787
945.00,0.4880
944.00,0.4956
943.00,0.5000
942.00,0.5008
941.00,0.4986
940.00,0.4945
939.00,0.4898
938.00,0.4850
937.00,0.4806
936.00,0.4769
935.00,0.4741
934.00,0.4724
933.00,0.4719
932.00,0.4731
931.00,0.4764
930.00,0.4825
929.00,0.4924
928.00,0.5069
927.00,0.5263
926.00,0.5493
925.00,0.5726
924.00,0.5922
923.00,0.6054
922.00,0.6118
921.00,0.6131
920.00,0.6109
919.00,0.6053
918.00,0.5950
917.00,0.5788
916.00,0.5570
915.00,0.5315
914.00,0.5057
913.00,0.4829
912.00,0.4650
911.00,0.4519
910.00,0.4423
909.00,0.4350
908.00,0.4292
907.00,0.4247
906.00,0.4213
905.00,0.4187
904.00,0.4169
903.00,0.4158
902.00,0.4154
901.00,0.4157
900.00,0.4168
899.00,0.4186
898.00,0.4211
897.00,0.4245
896.00,0.4289
895.00,0.4346
894.00,0.4415
893.00,0.4492
892.00,0.4572
891.00,0.4647
890.00,0.4703
889.00,0.4732
888.00,0.4727
887.00,0.4693
886.00,0.4636
885.00,0.4570
884.00,0.4508
883.00,0.4460
882.00,0.4431
881.00,0.4417
880.00,0.4415
879.00,0.4417
878.00,0.4421
877.00,0.4423
876.00,0.4427
875.00,0.4434
874.00,0.4444
873.00,0.4455
872.00,0.4468
871.00,0.4487
870.00,0.4517
869.00,0.4563
868.00,0.4627
867.00,0.4712
866.00,0.4816
865.00,0.4937
864.00,0.5066
863.00,0.5190
862.00,0.5287
861.00,0.5333
860.00,0.5314
859.00,0.5238
858.00,0.5129
857.00,0.5017
856.00,0.4921
855.00,0.4850
854.00,0.4805
853.00,0.4779
852.00,0.4770
851.00,0.4774
850.00,0.4787
849.00,0.4806
848.00,0.4831
847.00,0.4859
846.00,0.4890
845.00,0.4925
844.00,0.4967
843.00,0.5025
842.00,0.5112
841.00,0.5236
840.00,0.5401
839.00,0.5596
838.00,0.5791
837.00,0.5939
836.00,0.5995
835.00,0.5939
834.00,0.5793
833.00,0.5605
832.00,0.5422
831.00,0.5276
830.00,0.5174
829.00,0.5117
828.00,0.5097
827.00,0.5110
826.00,0.5149
825.00,0.5210
824.00,0.5286
823.00,0.5361
822.00,0.5417
821.00,0.5437
820.00,0.5413
819.00,0.5350
818.00,0.5260
817.00,0.5161
816.00,0.5071
815.00,0.4998
814.00,0.4942
813.00,0.4898
812.00,0.4861
811.00,0.4829
810.00,0.4799
809.00,0.4769
808.00,0.4738
807.00,0.4709
806.00,0.4682
805.00,0.4661
804.00,0.4649
803.00,0.4645
802.00,0.4649
801.00,0.4662
800.00,0.4684
799.00,0.4714
798.00,0.4747
797.00,0.4780
796.00,0.4812
795.00,0.4847
794.00,0.4885
793.00,0.4928
792.00,0.4974
791.00,0.5021
790.00,0.5063
789.00,0.5101
788.00,0.5139
787.00,0.5188
786.00,0.5262
785.00,0.5379
784.00,0.5546
783.00,0.5757
782.00,0.5980
781.00,0.6160
780.00,0.6234
779.00,0.6170
778.00,0.5986
777.00,0.5742
776.00,0.5500
775.00,0.5301
774.00,0.5159
773.00,0.5075
772.00,0.5040
771.00,0.5047
770.00,0.5088
769.00,0.5157
768.00,0.5252
767.00,0.5366
766.00,0.5490
765.00,0.5614
764.00,0.5729
763.00,0.5829
762.00,0.5910
761.00,0.5971
760.00,0.6007
759.00,0.6015
758.00,0.5999
757.00,0.5974
756.00,0.5959
755.00,0.5965
754.00,0.5990
753.00,0.6023
752.00,0.6064
751.00,0.6117
750.00,0.6196
749.00,0.6307
748.00,0.6450
747.00,0.6614
746.00,0.6779
745.00,0.6920
744.00,0.7016
743.00,0.7057
742.00,0.7049
741.00,0.7014
740.00,0.6981
739.00,0.6974
738.00,0.7006
737.00,0.7083
736.00,0.7206
735.00,0.7370
734.00,0.7575
733.00,0.7823
732.00,0.8122
731.00,0.8478
730.00,0.8899
729.00,0.9397
728.00,0.9991
727.00,1.0698
726.00,1.1520
725.00,1.2429
724.00,1.3336
723.00,1.4061
722.00,1.4348
721.00,1.4020
720.00,1.3174
719.00,1.2096
718.00,1.1031
717.00,1.0100
716.00,0.9336
715.00,0.8728
714.00,0.8243
713.00,0.7848
712.00,0.7517
711.00,0.7235
710.00,0.6988
709.00,0.6766
708.00,0.6570
707.00,0.6399
706.00,0.6253
705.00,0.6129
704.00,0.6023
703.00,0.5933
702.00,0.5854
701.00,0.5783
700.00,0.5717
699.00,0.5657
698.00,0.5600
697.00,0.5543
696.00,0.5490
695.00,0.5445
694.00,0.5413
693.00,0.5395
692.00,0.5388
691.00,0.5385
690.00,0.5385
689.00,0.5389
688.00,0.5402
687.00,0.5425
686.00,0.5459
685.00,0.5503
684.00,0.5560
683.00,0.5627
682.00,0.5704
681.00,0.5791
680.00,0.5892
679.00,0.6007
678.00,0.6134
677.00,0.6266
676.00,0.6390
675.00,0.6496
674.00,0.6571
673.00,0.6614
672.00,0.6628
671.00,0.6624
670.00,0.6614
669.00,0.6609
668.00,0.6612
667.00,0.6625
666.00,0.6655
665.00,0.6697
664.00,0.6734
663.00,0.6753
662.00,0.6746
661.00,0.6707
660.00,0.6637
659.00,0.6547
658.00,0.6450
657.00,0.6360
656.00,0.6285
655.00,0.6226
654.00,0.6180
653.00,0.6150
652.00,0.6139
651.00,0.6149
650.00,0.6181
649.00,0.6234
648.00,0.6308
647.00,0.6398
646.00,0.6498
645.00,0.6596
644.00,0.6688
643.00,0.6767
642.00,0.6824
641.00,0.6847
640.00,0.6828
639.00,0.6762
638.00,0.6655
637.00,0.6517
636.00,0.6364
635.00,0.6209
634.00,0.6064
633.00,0.5937
632.00,0.5837
631.00,0.5767
630.00,0.5727
629.00,0.5711
628.00,0.5717
627.00,0.5751
626.00,0.5814
625.00,0.5903
624.00,0.6016
623.00,0.6153
622.00,0.6315
621.00,0.6498
620.00,0.6690
619.00,0.6877
618.00,0.7037
617.00,0.7143
616.00,0.7178
615.00,0.7132
614.00,0.7006
613.00,0.6816
612.00,0.6591
611.00,0.6365
610.00,0.6160
609.00,0.5983
608.00,0.5834
607.00,0.5714
606.00,0.5622
605.00,0.5558
604.00,0.5514
603.00,0.5487
602.00,0.5470
601.00,0.5457
600.00,0.5443
599.00,0.5429
598.00,0.5416
597.00,0.5405
596.00,0.5398
595.00,0.5397
594.00,0.5403
593.00,0.5415
592.00,0.5433
591.00,0.5459
590.00,0.5489
589.00,0.5517
588.00,0.5544
587.00,0.5576
586.00,0.5614
585.00,0.5654
584.00,0.5689
583.00,0.5721
582.00,0.5752
581.00,0.5785
580.00,0.5818
579.00,0.5851
578.00,0.5884
577.00,0.5919
576.00,0.5961
575.00,0.6018
574.00,0.6094
573.00,0.6181
572.00,0.6272
571.00,0.6365
570.00,0.6465
569.00,0.6575
568.00,0.6693
567.00,0.6814
566.00,0.6932
565.00,0.7047
564.00,0.7160
563.00,0.7268
562.00,0.7367
561.00,0.7450
560.00,0.7511
559.00,0.7547
558.00,0.7562
557.00,0.7562
556.00,0.7555
555.00,0.7543
554.00,0.7533
553.00,0.7534
552.00,0.7552
551.00,0.7587
550.00,0.7640
