Created as New Dataset,
cm-1,A
4000.00,0.3944
3999.00,0.3941
3998.00,0.3939
3997.00,0.3937
3996.00,0.3935
3995.00,0.3931
3994.00,0.3926
3993.00,0.3921
3992.00,0.3916
3991.00,0.3912
3990.00,0.3908
3989.00,0.3905
3988.00,0.3902
3987.00,0.3899
3986.00,0.3895
3985.00,0.3890
3984.00,0.3885
3983.00,0.3881
3982.00,0.3877
3981.00,0.3873
3980.00,0.3869
3979.00,0.3865
3978.00,0.3861
3977.00,0.3856
3976.00,0.3852
3975.00,0.3848
3974.00,0.3845
3973.00,0.3842
3972.00,0.3839
3971.00,0.3837
3970.00,0.3834
3969.00,0.3831
3968.00,0.3828
3967.00,0.3825
3966.00,0.3823
3965.00,0.3820
3964.00,0.3818
3963.00,0.3816
3962.00,0.3814
3961.00,0.3813
3960.00,0.3813
3959.00,0.3812
3958.00,0.3811
3957.00,0.3810
3956.00,0.3808
3955.00,0.3807
3954.00,0.3806
3953.00,0.3805
3952.00,0.3804
3951.00,0.3804
3950.00,0.3803
3949.00,0.3803
3948.00,0.3802
3947.00,0.3801
3946.00,0.3800
3945.00,0.3799
3944.00,0.3798
3943.00,0.3797
3942.00,0.3797
3941.00,0.3797
3940.00,0.3797
3939.00,0.3795
3938.00,0.3794
3937.00,0.3792
3936.00,0.3791
3935.00,0.3790
3934.00,0.3790
3933.00,0.3789
3932.00,0.3789
3931.00,0.3789
3930.00,0.3789
3929.00,0.3789
3928.00,0.3789
3927.00,0.3789
3926.00,0.3789
3925.00,0.3788
3924.00,0.3788
3923.00,0.3788
3922.00,0.3788
3921.00,0.3789
3920.00,0.3789
3919.00,0.3789
3918.00,0.3789
3917.00,0.3788
3916.00,0.3787
3915.00,0.3787
3914.00,0.3787
3913.00,0.3787
3912.00,0.3787
3911.00,0.3786
3910.00,0.3785
3909.00,0.3785
3908.00,0.3785
3907.00,0.3786
3906.00,0.3786
3905.00,0.3786
3904.00,0.3786
3903.00,0.3786
3902.00,0.3786
3901.00,0.3786
3900.00,0.3786
3899.00,0.3784
3898.00,0.3782
3897.00,0.3780
3896.00,0.3777
3895.00,0.3774
3894.00,0.3772
3893.00,0.3770
3892.00,0.3769
3891.00,0.3768
3890.00,0.3767
3889.00,0.3767
3888.00,0.3766
3887.00,0.3766
3886.00,0.3766
3885.00,0.3766
3884.00,0.3766
3883.00,0.3765
3882.00,0.3764
3881.00,0.3762
3880.00,0.3761
3879.00,0.3760
3878.00,0.3760
3877.00,0.3760
3876.00,0.3761
3875.00,0.3760
3874.00,0.3759
3873.00,0.3759
3872.00,0.3758
3871.00,0.3758
3870.00,0.3758
3869.00,0.3759
3868.00,0.3759
3867.00,0.3759
3866.00,0.3757
3865.00,0.3755
3864.00,0.3753
3863.00,0.3752
3862.00,0.3749
3861.00,0.3747
3860.00,0.3746
3859.00,0.3745
3858.00,0.3744
3857.00,0.3744
3856.00,0.3744
3855.00,0.3743
3854.00,0.3744
3853.00,0.3747
3852.00,0.3748
3851.00,0.3748
3850.00,0.3747
3849.00,0.3745
3848.00,0.3743
3847.00,0.3742
3846.00,0.3740
3845.00,0.3739
3844.00,0.3738
3843.00,0.3737
3842.00,0.3737
3841.00,0.3738
3840.00,0.3739
3839.00,0.3741
3838.00,0.3742
3837.00,0.3742
3836.00,0.3742
3835.00,0.3740
3834.00,0.3739
3833.00,0.3737
3832.00,0.3735
3831.00,0.3734
3830.00,0.3732
3829.00,0.3731
3828.00,0.3729
3827.00,0.3727
3826.00,0.3725
3825.00,0.3725
3824.00,0.3724
3823.00,0.3723
3822.00,0.3722
3821.00,0.3721
3820.00,0.3719
3819.00,0.3718
3818.00,0.3716
3817.00,0.3714
3816.00,0.3712
3815.00,0.3709
3814.00,0.3706
3813.00,0.3702
3812.00,0.3697
3811.00,0.3693
3810.00,0.3690
3809.00,0.3688
3808.00,0.3686
3807.00,0.3684
3806.00,0.3684
3805.00,0.3684
3804.00,0.3684
3803.00,0.3684
3802.00,0.3683
3801.00,0.3681
3800.00,0.3680
3799.00,0.3679
3798.00,0.3677
3797.00,0.3675
3796.00,0.3672
3795.00,0.3669
3794.00,0.3666
3793.00,0.3663
3792.00,0.3660
3791.00,0.3656
3790.00,0.3654
3789.00,0.3651
3788.00,0.3649
3787.00,0.3647
3786.00,0.3645
3785.00,0.3643
3784.00,0.3642
3783.00,0.3641
3782.00,0.3640
3781.00,0.3637
3780.00,0.3634
3779.00,0.3631
3778.00,0.3628
3777.00,0.3627
3776.00,0.3625
3775.00,0.3623
3774.00,0.3621
3773.00,0.3620
3772.00,0.3618
3771.00,0.3616
3770.00,0.3615
3769.00,0.3615
3768.00,0.3615
3767.00,0.3615
3766.00,0.3615
3765.00,0.3614
3764.00,0.3612
3763.00,0.3611
3762.00,0.3610
3761.00,0.3609
3760.00,0.3608
3759.00,0.3607
3758.00,0.3606
3757.00,0.3604
3756.00,0.3604
3755.00,0.3603
3754.00,0.3603
3753.00,0.3603
3752.00,0.3603
3751.00,0.3604
3750.00,0.3604
3749.00,0.3604
3748.00,0.3605
3747.00,0.3606
3746.00,0.3605
3745.00,0.3603
3744.00,0.3600
3743.00,0.3597
3742.00,0.3594
3741.00,0.3590
3740.00,0.3587
3739.00,0.3585
3738.00,0.3583
3737.00,0.3582
3736.00,0.3580
3735.00,0.3580
3734.00,0.3580
3733.00,0.3580
3732.00,0.3579
3731.00,0.3577
3730.00,0.3575
3729.00,0.3573
3728.00,0.3571
3727.00,0.3570
3726.00,0.3568
3725.00,0.3567
3724.00,0.3565
3723.00,0.3564
3722.00,0.3563
3721.00,0.3562
3720.00,0.3561
3719.00,0.3561
3718.00,0.3559
3717.00,0.3558
3716.00,0.3557
3715.00,0.3556
3714.00,0.3556
3713.00,0.3555
3712.00,0.3556
3711.00,0.3556
3710.00,0.3556
3709.00,0.3555
3708.00,0.3554
3707.00,0.3551
3706.00,0.3549
3705.00,0.3548
3704.00,0.3547
3703.00,0.3546
3702.00,0.3545
3701.00,0.3544
3700.00,0.3544
3699.00,0.3544
3698.00,0.3544
3697.00,0.3543
3696.00,0.3543
3695.00,0.3544
3694.00,0.3545
3693.00,0.3546
3692.00,0.3548
3691.00,0.3549
3690.00,0.3550
3689.00,0.3551
3688.00,0.3552
3687.00,0.3553
3686.00,0.3552
3685.00,0.3551
3684.00,0.3550
3683.00,0.3549
3682.00,0.3548
3681.00,0.3548
3680.00,0.3548
3679.00,0.3548
3678.00,0.3549
3677.00,0.3550
3676.00,0.3551
3675.00,0.3552
3674.00,0.3554
3673.00,0.3556
3672.00,0.3556
3671.00,0.3556
3670.00,0.3556
3669.00,0.3556
3668.00,0.3554
3667.00,0.3552
3666.00,0.3550
3665.00,0.3548
3664.00,0.3546
3663.00,0.3545
3662.00,0.3543
3661.00,0.3543
3660.00,0.3542
3659.00,0.3542
3658.00,0.3542
3657.00,0.3543
3656.00,0.3545
3655.00,0.3548
3654.00,0.3551
3653.00,0.3554
3652.00,0.3556
3651.00,0.3557
3650.00,0.3558
3649.00,0.3560
3648.00,0.3560
3647.00,0.3561
3646.00,0.3560
3645.00,0.3559
3644.00,0.3558
3643.00,0.3557
3642.00,0.3556
3641.00,0.3555
3640.00,0.3553
3639.00,0.3551
3638.00,0.3550
3637.00,0.3549
3636.00,0.3549
3635.00,0.3550
3634.00,0.3551
3633.00,0.3552
3632.00,0.3554
3631.00,0.3556
3630.00,0.3557
3629.00,0.3558
3628.00,0.3559
3627.00,0.3559
3626.00,0.3559
3625.00,0.3559
3624.00,0.3559
3623.00,0.3559
3622.00,0.3559
3621.00,0.3559
3620.00,0.3559
3619.00,0.3560
3618.00,0.3561
3617.00,0.3561
3616.00,0.3562
3615.00,0.3562
3614.00,0.3562
3613.00,0.3561
3612.00,0.3561
3611.00,0.3561
3610.00,0.3560
3609.00,0.3559
3608.00,0.3556
3607.00,0.3553
3606.00,0.3548
3605.00,0.3543
3604.00,0.3537
3603.00,0.3532
3602.00,0.3526
3601.00,0.3519
3600.00,0.3511
3599.00,0.3503
3598.00,0.3495
3597.00,0.3487
3596.00,0.3479
3595.00,0.3472
3594.00,0.3466
3593.00,0.3461
3592.00,0.3457
3591.00,0.3453
3590.00,0.3450
3589.00,0.3447
3588.00,0.3445
3587.00,0.3442
3586.00,0.3441
3585.00,0.3438
3584.00,0.3436
3583.00,0.3433
3582.00,0.3430
3581.00,0.3428
3580.00,0.3426
3579.00,0.3425
3578.00,0.3423
3577.00,0.3422
3576.00,0.3421
3575.00,0.3420
3574.00,0.3420
3573.00,0.3419
3572.00,0.3419
3571.00,0.3419
3570.00,0.3419
3569.00,0.3418
3568.00,0.3418
3567.00,0.3418
3566.00,0.3417
3565.00,0.3416
3564.00,0.3415
3563.00,0.3414
3562.00,0.3412
3561.00,0.3411
3560.00,0.3409
3559.00,0.3408
3558.00,0.3407
3557.00,0.3406
3556.00,0.3406
3555.00,0.3406
3554.00,0.3407
3553.00,0.3408
3552.00,0.3409
3551.00,0.3410
3550.00,0.3411
3549.00,0.3412
3548.00,0.3413
3547.00,0.3415
3546.00,0.3416
3545.00,0.3417
3544.00,0.3418
3543.00,0.3418
3542.00,0.3418
3541.00,0.3419
3540.00,0.3419
3539.00,0.3420
3538.00,0.3421
3537.00,0.3422
3536.00,0.3422
3535.00,0.3423
3534.00,0.3424
3533.00,0.3424
3532.00,0.3425
3531.00,0.3426
3530.00,0.3427
3529.00,0.3428
3528.00,0.3429
3527.00,0.3430
3526.00,0.3432
3525.00,0.3433
3524.00,0.3434
3523.00,0.3435
3522.00,0.3437
3521.00,0.3438
3520.00,0.3439
3519.00,0.3441
3518.00,0.3442
3517.00,0.3444
3516.00,0.3446
3515.00,0.3448
3514.00,0.3450
3513.00,0.3452
3512.00,0.3454
3511.00,0.3456
3510.00,0.3457
3509.00,0.3459
3508.00,0.3461
3507.00,0.3463
3506.00,0.3464
3505.00,0.3465
3504.00,0.3466
3503.00,0.3468
3502.00,0.3470
3501.00,0.3472
3500.00,0.3474
3499.00,0.3476
3498.00,0.3477
3497.00,0.3479
3496.00,0.3480
3495.00,0.3481
3494.00,0.3482
3493.00,0.3483
3492.00,0.3485
3491.00,0.3488
3490.00,0.3490
3489.00,0.3493
3488.00,0.3496
3487.00,0.3498
3486.00,0.3501
3485.00,0.3504
3484.00,0.3507
3483.00,0.3511
3482.00,0.3514
3481.00,0.3517
3480.00,0.3520
3479.00,0.3523
3478.00,0.3526
3477.00,0.3529
3476.00,0.3531
3475.00,0.3533
3474.00,0.3536
3473.00,0.3538
3472.00,0.3540
3471.00,0.3543
3470.00,0.3546
3469.00,0.3549
3468.00,0.3551
3467.00,0.3554
3466.00,0.3556
3465.00,0.3559
3464.00,0.3563
3463.00,0.3566
3462.00,0.3570
3461.00,0.3574
3460.00,0.3577
3459.00,0.3581
3458.00,0.3585
3457.00,0.3589
3456.00,0.3594
3455.00,0.3599
3454.00,0.3604
3453.00,0.3608
3452.00,0.3614
3451.00,0.3619
3450.00,0.3624
3449.00,0.3629
3448.00,0.3635
3447.00,0.3640
3446.00,0.3645
3445.00,0.3649
3444.00,0.3655
3443.00,0.3660
3442.00,0.3666
3441.00,0.3672
3440.00,0.3677
3439.00,0.3682
3438.00,0.3687
3437.00,0.3691
3436.00,0.3696
3435.00,0.3699
3434.00,0.3703
3433.00,0.3706
3432.00,0.3711
3431.00,0.3715
3430.00,0.3720
3429.00,0.3725
3428.00,0.3730
3427.00,0.3736
3426.00,0.3741
3425.00,0.3748
3424.00,0.3756
3423.00,0.3764
3422.00,0.3772
3421.00,0.3780
3420.00,0.3790
3419.00,0.3800
3418.00,0.3811
3417.00,0.3824
3416.00,0.3838
3415.00,0.3852
3414.00,0.3867
3413.00,0.3883
3412.00,0.3901
3411.00,0.3919
3410.00,0.3938
3409.00,0.3958
3408.00,0.3979
3407.00,0.4001
3406.00,0.4025
3405.00,0.4050
3404.00,0.4076
3403.00,0.4102
3402.00,0.4129
3401.00,0.4158
3400.00,0.4188
3399.00,0.4220
3398.00,0.4254
3397.00,0.4289
3396.00,0.4325
3395.00,0.4362
3394.00,0.4401
3393.00,0.4441
3392.00,0.4483
3391.00,0.4526
3390.00,0.4571
3389.00,0.4617
3388.00,0.4666
3387.00,0.4716
3386.00,0.4767
3385.00,0.4820
3384.00,0.4875
3383.00,0.4932
3382.00,0.4991
3381.00,0.5052
3380.00,0.5114
3379.00,0.5178
3378.00,0.5243
3377.00,0.5311
3376.00,0.5382
3375.00,0.5455
3374.00,0.5531
3373.00,0.5609
3372.00,0.5690
3371.00,0.5772
3370.00,0.5857
3369.00,0.5943
3368.00,0.6030
3367.00,0.6118
3366.00,0.6206
3365.00,0.6295
3364.00,0.6383
3363.00,0.6472
3362.00,0.6560
3361.00,0.6647
3360.00,0.6733
3359.00,0.6817
3358.00,0.6899
3357.00,0.6979
3356.00,0.7057
3355.00,0.7133
3354.00,0.7207
3353.00,0.7279
3352.00,0.7349
3351.00,0.7418
3350.00,0.7484
3349.00,0.7550
3348.00,0.7613
3347.00,0.7676
3346.00,0.7738
3345.00,0.7797
3344.00,0.7852
3343.00,0.7903
3342.00,0.7951
3341.00,0.7997
3340.00,0.8041
3339.00,0.8083
3338.00,0.8121
3337.00,0.8158
3336.00,0.8193
3335.00,0.8224
3334.00,0.8252
3333.00,0.8278
3332.00,0.8301
3331.00,0.8322
3330.00,0.8342
3329.00,0.8362
3328.00,0.8383
3327.00,0.8404
3326.00,0.8427
3325.00,0.8454
3324.00,0.8482
3323.00,0.8513
3322.00,0.8546
3321.00,0.8583
3320.00,0.8626
3319.00,0.8675
3318.00,0.8732
3317.00,0.8797
3316.00,0.8870
3315.00,0.8952
3314.00,0.9043
3313.00,0.9142
3312.00,0.9249
3311.00,0.9365
3310.00,0.9490
3309.00,0.9621
3308.00,0.9760
3307.00,0.9905
3306.00,1.0057
3305.00,1.0215
3304.00,1.0374
3303.00,1.0534
3302.00,1.0693
3301.00,1.0849
3300.00,1.0999
3299.00,1.1136
3298.00,1.1260
3297.00,1.1369
3296.00,1.1460
3295.00,1.1528
3294.00,1.1568
3293.00,1.1575
3292.00,1.1547
3291.00,1.1484
3290.00,1.1389
3289.00,1.1266
3288.00,1.1114
3287.00,1.0936
3286.00,1.0735
3285.00,1.0516
3284.00,1.0279
3283.00,1.0029
3282.00,0.9771
3281.00,0.9510
3280.00,0.9249
3279.00,0.8993
3278.00,0.8744
3277.00,0.8507
3276.00,0.8282
3275.00,0.8068
3274.00,0.7865
3273.00,0.7672
3272.00,0.7492
3271.00,0.7324
3270.00,0.7167
3269.00,0.7022
3268.00,0.6887
3267.00,0.6761
3266.00,0.6644
3265.00,0.6535
3264.00,0.6433
3263.00,0.6338
3262.00,0.6250
3261.00,0.6168
3260.00,0.6092
3259.00,0.6021
3258.00,0.5955
3257.00,0.5893
3256.00,0.5833
3255.00,0.5777
3254.00,0.5723
3253.00,0.5674
3252.00,0.5628
3251.00,0.5587
3250.00,0.5549
3249.00,0.5514
3248.00,0.5481
3247.00,0.5449
3246.00,0.5420
3245.00,0.5393
3244.00,0.5369
3243.00,0.5346
3242.00,0.5324
3241.00,0.5305
3240.00,0.5287
3239.00,0.5270
3238.00,0.5254
3237.00,0.5240
3236.00,0.5226
3235.00,0.5212
3234.00,0.5199
3233.00,0.5187
3232.00,0.5175
3231.00,0.5163
3230.00,0.5151
3229.00,0.5139
3228.00,0.5126
3227.00,0.5113
3226.00,0.5101
3225.00,0.5089
3224.00,0.5078
3223.00,0.5068
3222.00,0.5058
3221.00,0.5048
3220.00,0.5038
3219.00,0.5029
3218.00,0.5021
3217.00,0.5013
3216.00,0.5005
3215.00,0.4998
3214.00,0.4991
3213.00,0.4985
3212.00,0.4979
3211.00,0.4974
3210.00,0.4969
3209.00,0.4965
3208.00,0.4962
3207.00,0.4960
3206.00,0.4958
3205.00,0.4955
3204.00,0.4954
3203.00,0.4952
3202.00,0.4951
3201.00,0.4950
3200.00,0.4950
3199.00,0.4950
3198.00,0.4950
3197.00,0.4950
3196.00,0.4948
3195.00,0.4945
3194.00,0.4942
3193.00,0.4939
3192.00,0.4936
3191.00,0.4932
3190.00,0.4929
3189.00,0.4926
3188.00,0.4923
3187.00,0.4920
3186.00,0.4918
3185.00,0.4916
3184.00,0.4914
3183.00,0.4912
3182.00,0.4910
3181.00,0.4907
3180.00,0.4905
3179.00,0.4903
3178.00,0.4901
3177.00,0.4900
3176.00,0.4899
3175.00,0.4899
3174.00,0.4898
3173.00,0.4898
3172.00,0.4898
3171.00,0.4898
3170.00,0.4899
3169.00,0.4899
3168.00,0.4900
3167.00,0.4900
3166.00,0.4900
3165.00,0.4901
3164.00,0.4903
3163.00,0.4904
3162.00,0.4905
3161.00,0.4906
3160.00,0.4907
3159.00,0.4909
3158.00,0.4912
3157.00,0.4914
3156.00,0.4917
3155.00,0.4919
3154.00,0.4923
3153.00,0.4928
3152.00,0.4933
3151.00,0.4938
3150.00,0.4944
3149.00,0.4949
3148.00,0.4955
3147.00,0.4962
3146.00,0.4970
3145.00,0.4979
3144.00,0.4989
3143.00,0.5000
3142.00,0.5013
3141.00,0.5028
3140.00,0.5043
3139.00,0.5060
3138.00,0.5078
3137.00,0.5097
3136.00,0.5118
3135.00,0.5140
3134.00,0.5163
3133.00,0.5187
3132.00,0.5212
3131.00,0.5237
3130.00,0.5262
3129.00,0.5288
3128.00,0.5313
3127.00,0.5338
3126.00,0.5361
3125.00,0.5384
3124.00,0.5406
3123.00,0.5427
3122.00,0.5447
3121.00,0.5466
3120.00,0.5485
3119.00,0.5502
3118.00,0.5518
3117.00,0.5533
3116.00,0.5547
3115.00,0.5561
3114.00,0.5574
3113.00,0.5588
3112.00,0.5603
3111.00,0.5620
3110.00,0.5638
3109.00,0.5656
3108.00,0.5674
3107.00,0.5692
3106.00,0.5709
3105.00,0.5725
3104.00,0.5738
3103.00,0.5749
3102.00,0.5758
3101.00,0.5764
3100.00,0.5767
3099.00,0.5766
3098.00,0.5763
3097.00,0.5756
3096.00,0.5745
3095.00,0.5733
3094.00,0.5719
3093.00,0.5705
3092.00,0.5691
3091.00,0.5678
3090.00,0.5665
3089.00,0.5654
3088.00,0.5645
3087.00,0.5640
3086.00,0.5638
3085.00,0.5640
3084.00,0.5644
3083.00,0.5651
3082.00,0.5661
3081.00,0.5674
3080.00,0.5691
3079.00,0.5711
3078.00,0.5735
3077.00,0.5761
3076.00,0.5790
3075.00,0.5821
3074.00,0.5853
3073.00,0.5886
3072.00,0.5921
3071.00,0.5955
3070.00,0.5990
3069.00,0.6024
3068.00,0.6059
3067.00,0.6092
3066.00,0.6125
3065.00,0.6156
3064.00,0.6185
3063.00,0.6213
3062.00,0.6240
3061.00,0.6266
3060.00,0.6291
3059.00,0.6316
3058.00,0.6343
3057.00,0.6372
3056.00,0.6403
3055.00,0.6438
3054.00,0.6475
3053.00,0.6513
3052.00,0.6550
3051.00,0.6586
3050.00,0.6622
3049.00,0.6658
3048.00,0.6695
3047.00,0.6734
3046.00,0.6776
3045.00,0.6822
3044.00,0.6873
3043.00,0.6928
3042.00,0.6984
3041.00,0.7041
3040.00,0.7096
3039.00,0.7149
3038.00,0.7201
3037.00,0.7253
3036.00,0.7306
3035.00,0.7365
3034.00,0.7429
3033.00,0.7500
3032.00,0.7576
3031.00,0.7654
3030.00,0.7730
3029.00,0.7803
3028.00,0.7869
3027.00,0.7928
3026.00,0.7979
3025.00,0.8026
3024.00,0.8074
3023.00,0.8125
3022.00,0.8183
3021.00,0.8249
3020.00,0.8322
3019.00,0.8404
3018.00,0.8493
3017.00,0.8590
3016.00,0.8692
3015.00,0.8799
3014.00,0.8913
3013.00,0.9032
3012.00,0.9157
3011.00,0.9288
3010.00,0.9426
3009.00,0.9571
3008.00,0.9723
3007.00,0.9883
3006.00,1.0051
3005.00,1.0227
3004.00,1.0410
3003.00,1.0599
3002.00,1.0794
3001.00,1.0997
3000.00,1.1211
2999.00,1.1439
2998.00,1.1683
2997.00,1.1946
2996.00,1.2231
2995.00,1.2542
2994.00,1.2884
2993.00,1.3261
2992.00,1.3673
2991.00,1.4124
2990.00,1.4623
2989.00,1.5177
2988.00,1.5794
2987.00,1.6479
2986.00,1.7238
2985.00,1.8077
2984.00,1.8996
2983.00,1.9992
2982.00,2.1071
2981.00,2.2257
2980.00,2.3574
2979.00,2.5036
2978.00,2.6639
2977.00,2.8367
2976.00,3.0239
2975.00,3.2336
2974.00,3.4817
2973.00,3.7816
2972.00,4.0956
2971.00,4.2611
2970.00,4.1950
2969.00,4.0779
2968.00,3.9962
2967.00,3.9750
2966.00,4.0336
2965.00,4.2443
2964.00,4.5863
2963.00,4.3481
2962.00,4.2221
2961.00,4.3746
2960.00,4.4619
2959.00,4.2923
2958.00,4.0779
2957.00,4.0811
2956.00,4.0813
2955.00,3.9692
2954.00,3.9465
2953.00,4.0125
2952.00,4.2698
2951.00,4.5575
2950.00,4.3391
2949.00,4.1426
2948.00,4.1524
2947.00,4.3091
2946.00,4.2602
2945.00,4.0955
2944.00,4.0201
2943.00,4.0226
2942.00,3.9131
2941.00,3.7190
2940.00,3.5917
2939.00,3.5650
2938.00,3.6308
2937.00,3.7488
2936.00,3.8686
2935.00,3.9269
2934.00,3.9043
2933.00,3.8516
2932.00,3.8212
2931.00,3.8491
2930.00,3.9588
2929.00,4.0809
2928.00,4.0592
2927.00,3.9568
2926.00,3.9130
2925.00,3.9738
2924.00,4.0694
2923.00,4.0833
2922.00,4.0301
2921.00,3.9788
2920.00,3.9170
2919.00,3.8289
2918.00,3.7757
2917.00,3.8086
2916.00,3.9059
2915.00,3.9866
2914.00,4.0621
2913.00,4.1660
2912.00,4.2073
2911.00,4.1167
2910.00,4.0361
2909.00,4.0104
2908.00,3.9209
2907.00,3.8089
2906.00,3.7764
2905.00,3.8614
2904.00,3.9786
2903.00,3.9883
2902.00,3.9502
2901.00,3.9434
2900.00,3.9715
2899.00,3.9927
2898.00,4.0550
2897.00,4.2286
2896.00,4.4403
2895.00,4.5091
2894.00,4.5059
2893.00,4.5464
2892.00,4.3856
2891.00,4.0973
2890.00,3.8952
2889.00,3.7923
2888.00,3.7805
2887.00,3.8787
2886.00,4.1172
2885.00,4.4101
2884.00,4.3909
2883.00,4.2904
2882.00,4.2903
2881.00,4.4649
2880.00,4.7494
2879.00,4.4586
2878.00,4.1321
2877.00,3.9354
2876.00,3.9137
2875.00,3.9699
2874.00,4.0607
2873.00,4.1109
2872.00,3.9727
2871.00,3.8395
2870.00,3.8069
2869.00,3.8904
2868.00,4.0436
2867.00,4.0963
2866.00,4.1098
2865.00,4.2970
2864.00,4.3389
2863.00,4.0235
2862.00,3.7949
2861.00,3.7700
2860.00,3.8158
2859.00,3.8086
2858.00,3.8407
2857.00,4.0153
2856.00,4.4187
2855.00,4.5336
2854.00,4.1451
2853.00,3.8645
2852.00,3.7461
2851.00,3.7158
2850.00,3.7372
2849.00,3.7604
2848.00,3.7443
2847.00,3.7606
2846.00,3.8356
2845.00,3.9988
2844.00,4.2616
2843.00,4.2859
2842.00,4.1860
2841.00,4.0585
2840.00,3.8186
2839.00,3.5359
2838.00,3.2802
2837.00,3.0467
2836.00,2.8127
2835.00,2.5992
2834.00,2.4156
2833.00,2.2583
2832.00,2.1224
2831.00,2.0036
2830.00,1.8987
2829.00,1.8058
2828.00,1.7235
2827.00,1.6503
2826.00,1.5849
2825.00,1.5260
2824.00,1.4727
2823.00,1.4243
2822.00,1.3801
2821.00,1.3392
2820.00,1.3013
2819.00,1.2659
2818.00,1.2328
2817.00,1.2019
2816.00,1.1728
2815.00,1.1456
2814.00,1.1200
2813.00,1.0959
2812.00,1.0728
2811.00,1.0507
2810.00,1.0294
2809.00,1.0089
2808.00,0.9894
2807.00,0.9708
2806.00,0.9531
2805.00,0.9364
2804.00,0.9203
2803.00,0.9050
2802.00,0.8903
2801.00,0.8764
2800.00,0.8633
2799.00,0.8509
2798.00,0.8390
2797.00,0.8277
2796.00,0.8168
2795.00,0.8064
2794.00,0.7963
2793.00,0.7866
2792.00,0.7769
2791.00,0.7673
2790.00,0.7576
2789.00,0.7480
2788.00,0.7385
2787.00,0.7290
2786.00,0.7197
2785.00,0.7105
2784.00,0.7014
2783.00,0.6925
2782.00,0.6839
2781.00,0.6756
2780.00,0.6677
2779.00,0.6602
2778.00,0.6531
2777.00,0.6464
2776.00,0.6401
2775.00,0.6341
2774.00,0.6284
2773.00,0.6230
2772.00,0.6180
2771.00,0.6134
2770.00,0.6091
2769.00,0.6052
2768.00,0.6016
2767.00,0.5984
2766.00,0.5955
2765.00,0.5930
2764.00,0.5907
2763.00,0.5887
2762.00,0.5870
2761.00,0.5854
2760.00,0.5839
2759.00,0.5825
2758.00,0.5810
2757.00,0.5797
2756.00,0.5786
2755.00,0.5776
2754.00,0.5767
2753.00,0.5760
2752.00,0.5754
2751.00,0.5750
2750.00,0.5747
2749.00,0.5747
2748.00,0.5748
2747.00,0.5751
2746.00,0.5757
2745.00,0.5765
2744.00,0.5777
2743.00,0.5792
2742.00,0.5810
2741.00,0.5830
2740.00,0.5853
2739.00,0.5880
2738.00,0.5911
2737.00,0.5947
2736.00,0.5987
2735.00,0.6029
2734.00,0.6074
2733.00,0.6118
2732.00,0.6159
2731.00,0.6194
2730.00,0.6221
2729.00,0.6238
2728.00,0.6246
2727.00,0.6245
2726.00,0.6238
2725.00,0.6227
2724.00,0.6211
2723.00,0.6190
2722.00,0.6165
2721.00,0.6136
2720.00,0.6106
2719.00,0.6073
2718.00,0.6038
2717.00,0.6000
2716.00,0.5959
2715.00,0.5917
2714.00,0.5875
2713.00,0.5833
2712.00,0.5794
2711.00,0.5756
2710.00,0.5721
2709.00,0.5690
2708.00,0.5664
2707.00,0.5641
2706.00,0.5623
2705.00,0.5609
2704.00,0.5598
2703.00,0.5590
2702.00,0.5585
2701.00,0.5582
2700.00,0.5581
2699.00,0.5583
2698.00,0.5587
2697.00,0.5592
2696.00,0.5599
2695.00,0.5608
2694.00,0.5618
2693.00,0.5630
2692.00,0.5643
2691.00,0.5656
2690.00,0.5668
2689.00,0.5679
2688.00,0.5688
2687.00,0.5695
2686.00,0.5701
2685.00,0.5706
2684.00,0.5709
2683.00,0.5712
2682.00,0.5714
2681.00,0.5715
2680.00,0.5715
2679.00,0.5715
2678.00,0.5715
2677.00,0.5714
2676.00,0.5713
2675.00,0.5711
2674.00,0.5709
2673.00,0.5708
2672.00,0.5707
2671.00,0.5704
2670.00,0.5698
2669.00,0.5689
2668.00,0.5677
2667.00,0.5662
2666.00,0.5644
2665.00,0.5624
2664.00,0.5602
2663.00,0.5580
2662.00,0.5557
2661.00,0.5534
2660.00,0.5510
2659.00,0.5488
2658.00,0.5465
2657.00,0.5443
2656.00,0.5421
2655.00,0.5400
2654.00,0.5381
2653.00,0.5363
2652.00,0.5346
2651.00,0.5331
2650.00,0.5317
2649.00,0.5304
2648.00,0.5291
2647.00,0.5278
2646.00,0.5265
2645.00,0.5253
2644.00,0.5243
2643.00,0.5233
2642.00,0.5223
2641.00,0.5213
2640.00,0.5203
2639.00,0.5193
2638.00,0.5183
2637.00,0.5174
2636.00,0.5166
2635.00,0.5157
2634.00,0.5149
2633.00,0.5141
2632.00,0.5134
2631.00,0.5126
2630.00,0.5119
2629.00,0.5113
2628.00,0.5107
2627.00,0.5101
2626.00,0.5095
2625.00,0.5089
2624.00,0.5082
2623.00,0.5075
2622.00,0.5069
2621.00,0.5062
2620.00,0.5056
2619.00,0.5048
2618.00,0.5041
2617.00,0.5034
2616.00,0.5027
2615.00,0.5021
2614.00,0.5014
2613.00,0.5006
2612.00,0.4998
2611.00,0.4990
2610.00,0.4981
2609.00,0.4972
2608.00,0.4962
2607.00,0.4953
2606.00,0.4943
2605.00,0.4933
2604.00,0.4923
2603.00,0.4912
2602.00,0.4901
2601.00,0.4890
2600.00,0.4878
2599.00,0.4866
2598.00,0.4853
2597.00,0.4840
2596.00,0.4828
2595.00,0.4815
2594.00,0.4801
2593.00,0.4786
2592.00,0.4772
2591.00,0.4756
2590.00,0.4740
2589.00,0.4723
2588.00,0.4704
2587.00,0.4684
2586.00,0.4664
2585.00,0.4644
2584.00,0.4625
2583.00,0.4605
2582.00,0.4586
2581.00,0.4567
2580.00,0.4548
2579.00,0.4529
2578.00,0.4510
2577.00,0.4490
2576.00,0.4471
2575.00,0.4452
2574.00,0.4433
2573.00,0.4415
2572.00,0.4397
2571.00,0.4380
2570.00,0.4363
2569.00,0.4346
2568.00,0.4330
2567.00,0.4314
2566.00,0.4298
2565.00,0.4284
2564.00,0.4269
2563.00,0.4255
2562.00,0.4241
2561.00,0.4227
2560.00,0.4215
2559.00,0.4203
2558.00,0.4191
2557.00,0.4181
2556.00,0.4171
2555.00,0.4160
2554.00,0.4151
2553.00,0.4141
2552.00,0.4132
2551.00,0.4123
2550.00,0.4115
2549.00,0.4107
2548.00,0.4100
2547.00,0.4093
2546.00,0.4086
2545.00,0.4080
2544.00,0.4074
2543.00,0.4068
2542.00,0.4061
2541.00,0.4055
2540.00,0.4048
2539.00,0.4041
2538.00,0.4035
2537.00,0.4029
2536.00,0.4023
2535.00,0.4017
2534.00,0.4009
2533.00,0.4002
2532.00,0.3994
2531.00,0.3985
2530.00,0.3977
2529.00,0.3969
2528.00,0.3960
2527.00,0.3951
2526.00,0.3942
2525.00,0.3933
2524.00,0.3923
2523.00,0.3913
2522.00,0.3904
2521.00,0.3894
2520.00,0.3884
2519.00,0.3874
2518.00,0.3864
2517.00,0.3855
2516.00,0.3846
2515.00,0.3837
2514.00,0.3829
2513.00,0.3820
2512.00,0.3811
2511.00,0.3802
2510.00,0.3794
2509.00,0.3786
2508.00,0.3779
2507.00,0.3772
2506.00,0.3764
2505.00,0.3757
2504.00,0.3749
2503.00,0.3742
2502.00,0.3734
2501.00,0.3727
2500.00,0.3720
2499.00,0.3714
2498.00,0.3707
2497.00,0.3701
2496.00,0.3695
2495.00,0.3689
2494.00,0.3683
2493.00,0.3677
2492.00,0.3672
2491.00,0.3667
2490.00,0.3662
2489.00,0.3656
2488.00,0.3651
2487.00,0.3647
2486.00,0.3644
2485.00,0.3641
2484.00,0.3637
2483.00,0.3634
2482.00,0.3631
2481.00,0.3628
2480.00,0.3626
2479.00,0.3624
2478.00,0.3621
2477.00,0.3618
2476.00,0.3616
2475.00,0.3613
2474.00,0.3610
2473.00,0.3607
2472.00,0.3605
2471.00,0.3603
2470.00,0.3601
2469.00,0.3598
2468.00,0.3596
2467.00,0.3593
2466.00,0.3590
2465.00,0.3588
2464.00,0.3585
2463.00,0.3583
2462.00,0.3580
2461.00,0.3578
2460.00,0.3576
2459.00,0.3575
2458.00,0.3573
2457.00,0.3571
2456.00,0.3569
2455.00,0.3566
2454.00,0.3565
2453.00,0.3563
2452.00,0.3563
2451.00,0.3562
2450.00,0.3560
2449.00,0.3559
2448.00,0.3558
2447.00,0.3557
2446.00,0.3557
2445.00,0.3557
2444.00,0.3557
2443.00,0.3558
2442.00,0.3558
2441.00,0.3559
2440.00,0.3560
2439.00,0.3561
2438.00,0.3562
2437.00,0.3563
2436.00,0.3564
2435.00,0.3565
2434.00,0.3565
2433.00,0.3566
2432.00,0.3565
2431.00,0.3565
2430.00,0.3565
2429.00,0.3566
2428.00,0.3566
2427.00,0.3567
2426.00,0.3567
2425.00,0.3567
2424.00,0.3567
2423.00,0.3567
2422.00,0.3567
2421.00,0.3568
2420.00,0.3568
2419.00,0.3568
2418.00,0.3568
2417.00,0.3569
2416.00,0.3569
2415.00,0.3570
2414.00,0.3571
2413.00,0.3571
2412.00,0.3571
2411.00,0.3571
2410.00,0.3571
2409.00,0.3572
2408.00,0.3572
2407.00,0.3573
2406.00,0.3573
2405.00,0.3574
2404.00,0.3574
2403.00,0.3574
2402.00,0.3574
2401.00,0.3574
2400.00,0.3574
2399.00,0.3574
2398.00,0.3574
2397.00,0.3574
2396.00,0.3574
2395.00,0.3573
2394.00,0.3571
2393.00,0.3570
2392.00,0.3568
2391.00,0.3566
2390.00,0.3564
2389.00,0.3562
2388.00,0.3561
2387.00,0.3560
2386.00,0.3559
2385.00,0.3558
2384.00,0.3558
2383.00,0.3557
2382.00,0.3556
2381.00,0.3556
2380.00,0.3556
2379.00,0.3557
2378.00,0.3557
2377.00,0.3559
2376.00,0.3560
2375.00,0.3560
2374.00,0.3559
2373.00,0.3558
2372.00,0.3557
2371.00,0.3556
2370.00,0.3554
2369.00,0.3554
2368.00,0.3554
2367.00,0.3553
2366.00,0.3553
2365.00,0.3553
2364.00,0.3554
2363.00,0.3553
2362.00,0.3553
2361.00,0.3553
2360.00,0.3553
2359.00,0.3553
2358.00,0.3553
2357.00,0.3553
2356.00,0.3553
2355.00,0.3552
2354.00,0.3550
2353.00,0.3549
2352.00,0.3548
2351.00,0.3548
2350.00,0.3547
2349.00,0.3547
2348.00,0.3547
2347.00,0.3547
2346.00,0.3547
2345.00,0.3547
2344.00,0.3547
2343.00,0.3546
2342.00,0.3544
2341.00,0.3543
2340.00,0.3541
2339.00,0.3540
2338.00,0.3539
2337.00,0.3539
2336.00,0.3539
2335.00,0.3538
2334.00,0.3536
2333.00,0.3534
2332.00,0.3533
2331.00,0.3531
2330.00,0.3530
2329.00,0.3529
2328.00,0.3528
2327.00,0.3527
2326.00,0.3525
2325.00,0.3524
2324.00,0.3523
2323.00,0.3522
2322.00,0.3522
2321.00,0.3522
2320.00,0.3521
2319.00,0.3519
2318.00,0.3516
2317.00,0.3513
2316.00,0.3510
2315.00,0.3508
2314.00,0.3506
2313.00,0.3505
2312.00,0.3502
2311.00,0.3500
2310.00,0.3496
2309.00,0.3493
2308.00,0.3490
2307.00,0.3487
2306.00,0.3484
2305.00,0.3481
2304.00,0.3478
2303.00,0.3474
2302.00,0.3471
2301.00,0.3469
2300.00,0.3466
2299.00,0.3464
2298.00,0.3462
2297.00,0.3460
2296.00,0.3458
2295.00,0.3455
2294.00,0.3452
2293.00,0.3450
2292.00,0.3447
2291.00,0.3444
2290.00,0.3442
2289.00,0.3439
2288.00,0.3436
2287.00,0.3433
2286.00,0.3431
2285.00,0.3429
2284.00,0.3427
2283.00,0.3425
2282.00,0.3422
2281.00,0.3419
2280.00,0.3417
2279.00,0.3414
2278.00,0.3410
2277.00,0.3407
2276.00,0.3404
2275.00,0.3401
2274.00,0.3398
2273.00,0.3396
2272.00,0.3394
2271.00,0.3391
2270.00,0.3388
2269.00,0.3386
2268.00,0.3385
2267.00,0.3383
2266.00,0.3380
2265.00,0.3378
2264.00,0.3376
2263.00,0.3374
2262.00,0.3371
2261.00,0.3369
2260.00,0.3366
2259.00,0.3363
2258.00,0.3360
2257.00,0.3357
2256.00,0.3354
2255.00,0.3351
2254.00,0.3348
2253.00,0.3346
2252.00,0.3343
2251.00,0.3341
2250.00,0.3339
2249.00,0.3337
2248.00,0.3335
2247.00,0.3332
2246.00,0.3330
2245.00,0.3328
2244.00,0.3326
2243.00,0.3324
2242.00,0.3322
2241.00,0.3320
2240.00,0.3319
2239.00,0.3318
2238.00,0.3316
2237.00,0.3315
2236.00,0.3313
2235.00,0.3312
2234.00,0.3310
2233.00,0.3308
2232.00,0.3306
2231.00,0.3304
2230.00,0.3302
2229.00,0.3300
2228.00,0.3298
2227.00,0.3296
2226.00,0.3293
2225.00,0.3290
2224.00,0.3287
2223.00,0.3283
2222.00,0.3280
2221.00,0.3278
2220.00,0.3275
2219.00,0.3273
2218.00,0.3271
2217.00,0.3269
2216.00,0.3267
2215.00,0.3266
2214.00,0.3265
2213.00,0.3264
2212.00,0.3264
2211.00,0.3263
2210.00,0.3263
2209.00,0.3263
2208.00,0.3263
2207.00,0.3264
2206.00,0.3265
2205.00,0.3267
2204.00,0.3267
2203.00,0.3268
2202.00,0.3269
2201.00,0.3269
2200.00,0.3270
2199.00,0.3271
2198.00,0.3271
2197.00,0.3272
2196.00,0.3273
2195.00,0.3274
2194.00,0.3275
2193.00,0.3276
2192.00,0.3277
2191.00,0.3277
2190.00,0.3276
2189.00,0.3275
2188.00,0.3274
2187.00,0.3274
2186.00,0.3273
2185.00,0.3271
2184.00,0.3270
2183.00,0.3269
2182.00,0.3267
2181.00,0.3265
2180.00,0.3264
2179.00,0.3262
2178.00,0.3261
2177.00,0.3259
2176.00,0.3258
2175.00,0.3257
2174.00,0.3256
2173.00,0.3256
2172.00,0.3255
2171.00,0.3255
2170.00,0.3255
2169.00,0.3254
2168.00,0.3254
2167.00,0.3254
2166.00,0.3253
2165.00,0.3253
2164.00,0.3253
2163.00,0.3253
2162.00,0.3253
2161.00,0.3253
2160.00,0.3253
2159.00,0.3253
2158.00,0.3253
2157.00,0.3252
2156.00,0.3251
2155.00,0.3250
2154.00,0.3248
2153.00,0.3246
2152.00,0.3244
2151.00,0.3242
2150.00,0.3240
2149.00,0.3237
2148.00,0.3233
2147.00,0.3229
2146.00,0.3224
2145.00,0.3219
2144.00,0.3214
2143.00,0.3209
2142.00,0.3203
2141.00,0.3198
2140.00,0.3194
2139.00,0.3190
2138.00,0.3187
2137.00,0.3184
2136.00,0.3181
2135.00,0.3178
2134.00,0.3175
2133.00,0.3173
2132.00,0.3172
2131.00,0.3171
2130.00,0.3170
2129.00,0.3169
2128.00,0.3169
2127.00,0.3168
2126.00,0.3168
2125.00,0.3168
2124.00,0.3168
2123.00,0.3167
2122.00,0.3166
2121.00,0.3165
2120.00,0.3165
2119.00,0.3163
2118.00,0.3162
2117.00,0.3161
2116.00,0.3160
2115.00,0.3158
2114.00,0.3157
2113.00,0.3155
2112.00,0.3154
2111.00,0.3152
2110.00,0.3150
2109.00,0.3148
2108.00,0.3147
2107.00,0.3145
2106.00,0.3143
2105.00,0.3142
2104.00,0.3141
2103.00,0.3139
2102.00,0.3137
2101.00,0.3136
2100.00,0.3135
2099.00,0.3134
2098.00,0.3133
2097.00,0.3132
2096.00,0.3132
2095.00,0.3132
2094.00,0.3132
2093.00,0.3133
2092.00,0.3134
2091.00,0.3135
2090.00,0.3135
2089.00,0.3135
2088.00,0.3135
2087.00,0.3135
2086.00,0.3135
2085.00,0.3136
2084.00,0.3136
2083.00,0.3137
2082.00,0.3137
2081.00,0.3138
2080.00,0.3139
2079.00,0.3140
2078.00,0.3140
2077.00,0.3140
2076.00,0.3141
2075.00,0.3141
2074.00,0.3141
2073.00,0.3141
2072.00,0.3141
2071.00,0.3140
2070.00,0.3139
2069.00,0.3138
2068.00,0.3138
2067.00,0.3138
2066.00,0.3138
2065.00,0.3137
2064.00,0.3136
2063.00,0.3135
2062.00,0.3134
2061.00,0.3134
2060.00,0.3134
2059.00,0.3134
2058.00,0.3135
2057.00,0.3136
2056.00,0.3139
2055.00,0.3141
2054.00,0.3142
2053.00,0.3144
2052.00,0.3146
2051.00,0.3148
2050.00,0.3150
2049.00,0.3153
2048.00,0.3156
2047.00,0.3159
2046.00,0.3162
2045.00,0.3165
2044.00,0.3169
2043.00,0.3172
2042.00,0.3174
2041.00,0.3175
2040.00,0.3175
2039.00,0.3176
2038.00,0.3176
2037.00,0.3177
2036.00,0.3178
2035.00,0.3178
2034.00,0.3177
2033.00,0.3177
2032.00,0.3176
2031.00,0.3175
2030.00,0.3173
2029.00,0.3172
2028.00,0.3170
2027.00,0.3168
2026.00,0.3166
2025.00,0.3164
2024.00,0.3161
2023.00,0.3158
2022.00,0.3155
2021.00,0.3151
2020.00,0.3148
2019.00,0.3144
2018.00,0.3137
2017.00,0.3130
2016.00,0.3122
2015.00,0.3115
2014.00,0.3109
2013.00,0.3104
2012.00,0.3100
2011.00,0.3095
2010.00,0.3090
2009.00,0.3086
2008.00,0.3082
2007.00,0.3079
2006.00,0.3076
2005.00,0.3074
2004.00,0.3072
2003.00,0.3069
2002.00,0.3067
2001.00,0.3066
2000.00,0.3064
1999.00,0.3062
1998.00,0.3059
1997.00,0.3057
1996.00,0.3055
1995.00,0.3055
1994.00,0.3055
1993.00,0.3053
1992.00,0.3051
1991.00,0.3048
1990.00,0.3045
1989.00,0.3043
1988.00,0.3041
1987.00,0.3038
1986.00,0.3035
1985.00,0.3034
1984.00,0.3033
1983.00,0.3032
1982.00,0.3031
1981.00,0.3030
1980.00,0.3030
1979.00,0.3029
1978.00,0.3029
1977.00,0.3029
1976.00,0.3030
1975.00,0.3031
1974.00,0.3032
1973.00,0.3033
1972.00,0.3034
1971.00,0.3036
1970.00,0.3038
1969.00,0.3039
1968.00,0.3040
1967.00,0.3041
1966.00,0.3042
1965.00,0.3043
1964.00,0.3044
1963.00,0.3044
1962.00,0.3044
1961.00,0.3044
1960.00,0.3045
1959.00,0.3045
1958.00,0.3046
1957.00,0.3046
1956.00,0.3047
1955.00,0.3047
1954.00,0.3046
1953.00,0.3046
1952.00,0.3046
1951.00,0.3046
1950.00,0.3046
1949.00,0.3047
1948.00,0.3048
1947.00,0.3048
1946.00,0.3050
1945.00,0.3054
1944.00,0.3059
1943.00,0.3062
1942.00,0.3063
1941.00,0.3064
1940.00,0.3066
1939.00,0.3069
1938.00,0.3071
1937.00,0.3072
1936.00,0.3074
1935.00,0.3075
1934.00,0.3076
1933.00,0.3078
1932.00,0.3081
1931.00,0.3084
1930.00,0.3088
1929.00,0.3091
1928.00,0.3095
1927.00,0.3099
1926.00,0.3102
1925.00,0.3106
1924.00,0.3111
1923.00,0.3117
1922.00,0.3123
1921.00,0.3123
1920.00,0.3131
1919.00,0.3141
1918.00,0.3151
1917.00,0.3162
1916.00,0.3172
1915.00,0.3182
1914.00,0.3192
1913.00,0.3203
1912.00,0.3217
1911.00,0.3230
1910.00,0.3243
1909.00,0.3253
1908.00,0.3262
1907.00,0.3270
1906.00,0.3274
1905.00,0.3277
1904.00,0.3276
1903.00,0.3273
1902.00,0.3267
1901.00,0.3259
1900.00,0.3249
1899.00,0.3239
1898.00,0.3229
1897.00,0.3221
1896.00,0.3211
1895.00,0.3199
1894.00,0.3186
1893.00,0.3176
1892.00,0.3171
1891.00,0.3168
1890.00,0.3164
1889.00,0.3158
1888.00,0.3154
1887.00,0.3151
1886.00,0.3149
1885.00,0.3146
1884.00,0.3142
1883.00,0.3139
1882.00,0.3136
1881.00,0.3134
1880.00,0.3133
1879.00,0.3131
1878.00,0.3128
1877.00,0.3126
1876.00,0.3124
1875.00,0.3120
1874.00,0.3117
1873.00,0.3114
1872.00,0.3111
1871.00,0.3109
1870.00,0.3106
1869.00,0.3105
1868.00,0.3103
1867.00,0.3101
1866.00,0.3097
1865.00,0.3094
1864.00,0.3093
1863.00,0.3091
1862.00,0.3090
1861.00,0.3089
1860.00,0.3087
1859.00,0.3086
1858.00,0.3084
1857.00,0.3083
1856.00,0.3083
1855.00,0.3083
1854.00,0.3082
1853.00,0.3081
1852.00,0.3081
1851.00,0.3081
1850.00,0.3081
1849.00,0.3083
1848.00,0.3074
1847.00,0.3071
1846.00,0.3075
1845.00,0.3082
1844.00,0.3088
1843.00,0.3090
1842.00,0.3090
1841.00,0.3090
1840.00,0.3090
1839.00,0.3089
1838.00,0.3088
1837.00,0.3088
1836.00,0.3088
1835.00,0.3088
1834.00,0.3088
1833.00,0.3088
1832.00,0.3089
1831.00,0.3089
1830.00,0.3090
1829.00,0.3091
1828.00,0.3092
1827.00,0.3093
1826.00,0.3093
1825.00,0.3094
1824.00,0.3096
1823.00,0.3098
1822.00,0.3099
1821.00,0.3101
1820.00,0.3104
1819.00,0.3107
1818.00,0.3110
1817.00,0.3114
1816.00,0.3117
1815.00,0.3121
1814.00,0.3126
1813.00,0.3133
1812.00,0.3140
1811.00,0.3146
1810.00,0.3152
1809.00,0.3158
1808.00,0.3164
1807.00,0.3169
1806.00,0.3174
1805.00,0.3180
1804.00,0.3188
1803.00,0.3198
1802.00,0.3207
1801.00,0.3217
1800.00,0.3230
1799.00,0.3242
1798.00,0.3252
1797.00,0.3258
1796.00,0.3262
1795.00,0.3268
1794.00,0.3280
1793.00,0.3296
1792.00,0.3310
1791.00,0.3319
1790.00,0.3326
1789.00,0.3332
1788.00,0.3339
1787.00,0.3347
1786.00,0.3355
1785.00,0.3364
1784.00,0.3375
1783.00,0.3388
1782.00,0.3402
1781.00,0.3415
1780.00,0.3425
1779.00,0.3434
1778.00,0.3441
1777.00,0.3446
1776.00,0.3454
1775.00,0.3465
1774.00,0.3480
1773.00,0.3492
1772.00,0.3498
1771.00,0.3502
1770.00,0.3511
1769.00,0.3521
1768.00,0.3526
1767.00,0.3525
1766.00,0.3522
1765.00,0.3522
1764.00,0.3527
1763.00,0.3535
1762.00,0.3542
1761.00,0.3548
1760.00,0.3557
1759.00,0.3570
1758.00,0.3585
1757.00,0.3600
1756.00,0.3617
1755.00,0.3638
1754.00,0.3665
1753.00,0.3699
1752.00,0.3738
1751.00,0.3778
1750.00,0.3818
1749.00,0.3857
1748.00,0.3895
1747.00,0.3933
1746.00,0.3972
1745.00,0.4009
1744.00,0.4043
1743.00,0.4071
1742.00,0.4100
1741.00,0.4134
1740.00,0.4164
1739.00,0.4184
1738.00,0.4197
1737.00,0.4217
1736.00,0.4251
1735.00,0.4290
1734.00,0.4317
1733.00,0.4332
1732.00,0.4341
1731.00,0.4350
1730.00,0.4359
1729.00,0.4371
1728.00,0.4388
1727.00,0.4409
1726.00,0.4435
1725.00,0.4465
1724.00,0.4496
1723.00,0.4522
1722.00,0.4546
1721.00,0.4580
1720.00,0.4637
1719.00,0.4708
1718.00,0.4775
1717.00,0.4829
1716.00,0.4873
1715.00,0.4912
1714.00,0.4949
1713.00,0.4984
1712.00,0.5012
1711.00,0.5029
1710.00,0.5035
1709.00,0.5031
1708.00,0.5025
1707.00,0.5015
1706.00,0.4994
1705.00,0.4958
1704.00,0.4918
1703.00,0.4883
1702.00,0.4863
1701.00,0.4857
1700.00,0.4852
1699.00,0.4850
1698.00,0.4856
1697.00,0.4859
1696.00,0.4848
1695.00,0.4828
1694.00,0.4812
1693.00,0.4811
1692.00,0.4820
1691.00,0.4830
1690.00,0.4837
1689.00,0.4844
1688.00,0.4854
1687.00,0.4870
1686.00,0.4896
1685.00,0.4917
1684.00,0.4927
1683.00,0.4939
1682.00,0.4959
1681.00,0.4978
1680.00,0.4990
1679.00,0.4995
1678.00,0.5003
1677.00,0.5024
1676.00,0.5057
1675.00,0.5089
1674.00,0.5115
1673.00,0.5141
1672.00,0.5174
1671.00,0.5214
1670.00,0.5258
1669.00,0.5305
1668.00,0.5350
1667.00,0.5389
1666.00,0.5426
1665.00,0.5472
1664.00,0.5531
1663.00,0.5598
1662.00,0.5665
1661.00,0.5733
1660.00,0.5804
1659.00,0.5873
1658.00,0.5936
1657.00,0.6002
1656.00,0.6087
1655.00,0.6212
1654.00,0.6379
1653.00,0.6578
1652.00,0.6773
1651.00,0.6933
1650.00,0.7094
1649.00,0.7310
1648.00,0.7611
1647.00,0.8007
1646.00,0.8492
1645.00,0.9047
1644.00,0.9668
1643.00,1.0381
1642.00,1.1233
1641.00,1.2273
1640.00,1.3514
1639.00,1.4928
1638.00,1.6513
1637.00,1.8388
1636.00,2.0694
1635.00,2.3266
1634.00,2.5487
1633.00,2.6873
1632.00,2.6970
1631.00,2.5277
1630.00,2.2618
1629.00,1.9884
1628.00,1.7429
1627.00,1.5386
1626.00,1.3751
1625.00,1.2443
1624.00,1.1381
1623.00,1.0547
1622.00,0.9954
1621.00,0.9577
1620.00,0.9360
1619.00,0.9258
1618.00,0.9267
1617.00,0.9397
1616.00,0.9642
1615.00,0.9970
1614.00,1.0361
1613.00,1.0806
1612.00,1.1265
1611.00,1.1653
1610.00,1.1884
1609.00,1.1921
1608.00,1.1768
1607.00,1.1467
1606.00,1.1101
1605.00,1.0747
1604.00,1.0440
1603.00,1.0188
1602.00,1.0000
1601.00,0.9887
1600.00,0.9842
1599.00,0.9859
1598.00,0.9944
1597.00,1.0111
1596.00,1.0369
1595.00,1.0716
1594.00,1.1156
1593.00,1.1694
1592.00,1.2310
1591.00,1.2962
1590.00,1.3612
1589.00,1.4239
1588.00,1.4808
1587.00,1.5255
1586.00,1.5545
1585.00,1.5686
1584.00,1.5660
1583.00,1.5436
1582.00,1.5077
1581.00,1.4722
1580.00,1.4469
1579.00,1.4345
1578.00,1.4354
1577.00,1.4497
1576.00,1.4719
1575.00,1.4902
1574.00,1.4996
1573.00,1.5047
1572.00,1.5064
1571.00,1.4993
1570.00,1.4797
1569.00,1.4525
1568.00,1.4216
1567.00,1.3856
1566.00,1.3435
1565.00,1.2980
1564.00,1.2524
1563.00,1.2085
1562.00,1.1664
1561.00,1.1255
1560.00,1.0796
1559.00,1.0249
1558.00,0.9759
1557.00,0.9412
1556.00,0.9142
1555.00,0.8878
1554.00,0.8608
1553.00,0.8361
1552.00,0.8151
1551.00,0.7960
1550.00,0.7774
1549.00,0.7600
1548.00,0.7449
1547.00,0.7318
1546.00,0.7202
1545.00,0.7096
1544.00,0.7000
1543.00,0.6925
1542.00,0.6882
1541.00,0.6856
1540.00,0.6820
1539.00,0.6773
1538.00,0.6730
1537.00,0.6702
1536.00,0.6698
1535.00,0.6718
1534.00,0.6765
1533.00,0.6840
1532.00,0.6941
1531.00,0.7064
1530.00,0.7220
1529.00,0.7426
1528.00,0.7691
1527.00,0.8019
1526.00,0.8416
1525.00,0.8877
1524.00,0.9389
1523.00,0.9949
1522.00,1.0548
1521.00,1.1109
1520.00,1.1490
1519.00,1.1607
1518.00,1.1474
1517.00,1.1133
1516.00,1.0662
1515.00,1.0161
1514.00,0.9683
1513.00,0.9239
1512.00,0.8835
1511.00,0.8490
1510.00,0.8216
1509.00,0.8010
1508.00,0.7834
1507.00,0.7667
1506.00,0.7548
1505.00,0.7501
1504.00,0.7509
1503.00,0.7554
1502.00,0.7626
1501.00,0.7723
1500.00,0.7846
1499.00,0.7986
1498.00,0.8129
1497.00,0.8258
1496.00,0.8354
1495.00,0.8407
1494.00,0.8426
1493.00,0.8428
1492.00,0.8424
1491.00,0.8410
1490.00,0.8387
1489.00,0.8371
1488.00,0.8376
1487.00,0.8408
1486.00,0.8477
1485.00,0.8593
1484.00,0.8761
1483.00,0.8982
1482.00,0.9265
1481.00,0.9617
1480.00,1.0033
1479.00,1.0514
1478.00,1.1085
1477.00,1.1782
1476.00,1.2616
1475.00,1.3606
1474.00,1.4839
1473.00,1.6472
1472.00,1.8619
1471.00,2.1242
1470.00,2.4267
1469.00,2.7737
1468.00,3.1555
1467.00,3.4719
1466.00,3.6509
1465.00,3.8079
1464.00,3.8708
1463.00,3.8159
1462.00,3.8439
1461.00,3.9001
1460.00,3.7229
1459.00,3.4954
1458.00,3.4567
1457.00,3.5930
1456.00,3.6407
1455.00,3.4964
1454.00,3.3168
1453.00,3.1274
1452.00,2.9269
1451.00,2.7571
1450.00,2.6410
1449.00,2.5533
1448.00,2.4607
1447.00,2.3620
1446.00,2.2689
1445.00,2.1766
1444.00,2.0768
1443.00,1.9744
1442.00,1.8783
1441.00,1.7897
1440.00,1.7056
1439.00,1.6238
1438.00,1.5415
1437.00,1.4571
1436.00,1.3759
1435.00,1.3059
1434.00,1.2467
1433.00,1.1905
1432.00,1.1292
1431.00,1.0597
1430.00,0.9850
1429.00,0.9126
1428.00,0.8497
1427.00,0.8001
1426.00,0.7622
1425.00,0.7321
1424.00,0.7080
1423.00,0.6897
1422.00,0.6767
1421.00,0.6677
1420.00,0.6623
1419.00,0.6604
1418.00,0.6619
1417.00,0.6670
1416.00,0.6766
1415.00,0.6913
1414.00,0.7105
1413.00,0.7323
1412.00,0.7539
1411.00,0.7702
1410.00,0.7751
1409.00,0.7652
1408.00,0.7427
1407.00,0.7142
1406.00,0.6854
1405.00,0.6598
1404.00,0.6395
1403.00,0.6250
1402.00,0.6156
1401.00,0.6100
1400.00,0.6074
1399.00,0.6075
1398.00,0.6097
1397.00,0.6138
1396.00,0.6202
1395.00,0.6300
1394.00,0.6434
1393.00,0.6606
1392.00,0.6828
1391.00,0.7121
1390.00,0.7505
1389.00,0.8004
1388.00,0.8643
1387.00,0.9428
1386.00,1.0327
1385.00,1.1306
1384.00,1.2374
1383.00,1.3575
1382.00,1.4948
1381.00,1.6515
1380.00,1.8280
1379.00,2.0115
1378.00,2.1556
1377.00,2.1964
1376.00,2.1213
1375.00,1.9730
1374.00,1.8021
1373.00,1.6468
1372.00,1.5229
1371.00,1.4306
1370.00,1.3655
1369.00,1.3233
1368.00,1.2982
1367.00,1.2788
1366.00,1.2514
1365.00,1.2074
1364.00,1.1490
1363.00,1.0854
1362.00,1.0270
1361.00,0.9795
1360.00,0.9438
1359.00,0.9175
1358.00,0.8984
1357.00,0.8849
1356.00,0.8759
1355.00,0.8706
1354.00,0.8675
1353.00,0.8655
1352.00,0.8636
1351.00,0.8613
1350.00,0.8582
1349.00,0.8538
1348.00,0.8482
1347.00,0.8415
1346.00,0.8341
1345.00,0.8270
1344.00,0.8209
1343.00,0.8162
1342.00,0.8120
1341.00,0.8069
1340.00,0.8000
1339.00,0.7912
1338.00,0.7815
1337.00,0.7719
1336.00,0.7632
1335.00,0.7558
1334.00,0.7500
1333.00,0.7460
1332.00,0.7445
1331.00,0.7458
1330.00,0.7496
1329.00,0.7552
1328.00,0.7612
1327.00,0.7667
1326.00,0.7709
1325.00,0.7738
1324.00,0.7764
1323.00,0.7799
1322.00,0.7850
1321.00,0.7919
1320.00,0.8007
1319.00,0.8114
1318.00,0.8236
1317.00,0.8370
1316.00,0.8516
1315.00,0.8668
1314.00,0.8817
1313.00,0.8948
1312.00,0.9051
1311.00,0.9118
1310.00,0.9150
1309.00,0.9159
1308.00,0.9168
1307.00,0.9190
1306.00,0.9228
1305.00,0.9259
1304.00,0.9252
1303.00,0.9180
1302.00,0.9037
1301.00,0.8843
1300.00,0.8629
1299.00,0.8423
1298.00,0.8242
1297.00,0.8090
1296.00,0.7966
1295.00,0.7869
1294.00,0.7794
1293.00,0.7736
1292.00,0.7692
1291.00,0.7659
1290.00,0.7637
1289.00,0.7625
1288.00,0.7623
1287.00,0.7632
1286.00,0.7651
1285.00,0.7681
1284.00,0.7724
1283.00,0.7779
1282.00,0.7843
1281.00,0.7910
1280.00,0.7978
1279.00,0.8040
1278.00,0.8089
1277.00,0.8118
1276.00,0.8124
1275.00,0.8107
1274.00,0.8066
1273.00,0.8002
1272.00,0.7915
1271.00,0.7814
1270.00,0.7703
1269.00,0.7587
1268.00,0.7475
1267.00,0.7372
1266.00,0.7286
1265.00,0.7218
1264.00,0.7172
1263.00,0.7147
1262.00,0.7140
1261.00,0.7150
1260.00,0.7173
1259.00,0.7210
1258.00,0.7257
1257.00,0.7315
1256.00,0.7383
1255.00,0.7461
1254.00,0.7553
1253.00,0.7661
1252.00,0.7790
1251.00,0.7944
1250.00,0.8122
1249.00,0.8321
1248.00,0.8531
1247.00,0.8734
1246.00,0.8901
1245.00,0.9007
1244.00,0.9042
1243.00,0.9025
1242.00,0.8990
1241.00,0.8974
1240.00,0.9000
1239.00,0.9069
1238.00,0.9165
1237.00,0.9272
1236.00,0.9379
1235.00,0.9475
1234.00,0.9547
1233.00,0.9585
1232.00,0.9584
1231.00,0.9539
1230.00,0.9449
1229.00,0.9314
1228.00,0.9143
1227.00,0.8943
1226.00,0.8724
1225.00,0.8494
1224.00,0.8265
1223.00,0.8045
1222.00,0.7841
1221.00,0.7655
1220.00,0.7488
1219.00,0.7337
1218.00,0.7202
1217.00,0.7081
1216.00,0.6976
1215.00,0.6887
1214.00,0.6812
1213.00,0.6751
1212.00,0.6703
1211.00,0.6674
1210.00,0.6665
1209.00,0.6672
1208.00,0.6687
1207.00,0.6693
1206.00,0.6672
1205.00,0.6617
1204.00,0.6532
1203.00,0.6439
1202.00,0.6351
1201.00,0.6276
1200.00,0.6213
1199.00,0.6162
1198.00,0.6120
1197.00,0.6088
1196.00,0.6066
1195.00,0.6054
1194.00,0.6051
1193.00,0.6059
1192.00,0.6075
1191.00,0.6099
1190.00,0.6123
1189.00,0.6139
1188.00,0.6142
1187.00,0.6132
1186.00,0.6111
1185.00,0.6082
1184.00,0.6051
1183.00,0.6023
1182.00,0.6000
1181.00,0.5982
1180.00,0.5970
1179.00,0.5964
1178.00,0.5962
1177.00,0.5964
1176.00,0.5973
1175.00,0.5992
1174.00,0.6022
1173.00,0.6061
1172.00,0.6104
1171.00,0.6143
1170.00,0.6172
1169.00,0.6185
1168.00,0.6184
1167.00,0.6175
1166.00,0.6166
1165.00,0.6159
1164.00,0.6154
1163.00,0.6153
1162.00,0.6156
1161.00,0.6162
1160.00,0.6173
1159.00,0.6187
1158.00,0.6203
1157.00,0.6220
1156.00,0.6236
1155.00,0.6250
1154.00,0.6252
1153.00,0.6234
1152.00,0.6195
1151.00,0.6139
1150.00,0.6074
1149.00,0.6005
1148.00,0.5940
1147.00,0.5882
1146.00,0.5831
1145.00,0.5787
1144.00,0.5748
1143.00,0.5714
1142.00,0.5685
1141.00,0.5659
1140.00,0.5637
1139.00,0.5620
1138.00,0.5608
1137.00,0.5600
1136.00,0.5597
1135.00,0.5597
1134.00,0.5599
1133.00,0.5601
1132.00,0.5604
1131.00,0.5610
1130.00,0.5620
1129.00,0.5630
1128.00,0.5641
1127.00,0.5652
1126.00,0.5662
1125.00,0.5670
1124.00,0.5676
1123.00,0.5680
1122.00,0.5681
1121.00,0.5680
1120.00,0.5679
1119.00,0.5681
1118.00,0.5690
1117.00,0.5712
1116.00,0.5750
1115.00,0.5812
1114.00,0.5897
1113.00,0.5996
1112.00,0.6088
1111.00,0.6147
1110.00,0.6149
1109.00,0.6089
1108.00,0.5984
1107.00,0.5860
1106.00,0.5745
1105.00,0.5653
1104.00,0.5587
1103.00,0.5544
1102.00,0.5519
1101.00,0.5505
1100.00,0.5499
1099.00,0.5499
1098.00,0.5505
1097.00,0.5516
1096.00,0.5533
1095.00,0.5556
1094.00,0.5584
1093.00,0.5611
1092.00,0.5635
1091.00,0.5656
1090.00,0.5673
1089.00,0.5687
1088.00,0.5699
1087.00,0.5715
1086.00,0.5735
1085.00,0.5761
1084.00,0.5793
1083.00,0.5831
1082.00,0.5872
1081.00,0.5913
1080.00,0.5955
1079.00,0.5997
1078.00,0.6039
1077.00,0.6077
1076.00,0.6112
1075.00,0.6143
1074.00,0.6169
1073.00,0.6185
1072.00,0.6193
1071.00,0.6193
1070.00,0.6190
1069.00,0.6186
1068.00,0.6184
1067.00,0.6185
1066.00,0.6190
1065.00,0.6197
1064.00,0.6205
1063.00,0.6213
1062.00,0.6221
1061.00,0.6231
1060.00,0.6247
1059.00,0.6273
1058.00,0.6309
1057.00,0.6348
1056.00,0.6385
1055.00,0.6415
1054.00,0.6434
1053.00,0.6442
1052.00,0.6444
1051.00,0.6448
1050.00,0.6457
1049.00,0.6462
1048.00,0.6452
1047.00,0.6418
1046.00,0.6359
1045.00,0.6280
1044.00,0.6191
1043.00,0.6104
1042.00,0.6026
1041.00,0.5958
1040.00,0.5903
1039.00,0.5861
1038.00,0.5829
1037.00,0.5805
1036.00,0.5786
1035.00,0.5773
1034.00,0.5762
1033.00,0.5753
1032.00,0.5743
1031.00,0.5731
1030.00,0.5714
1029.00,0.5694
1028.00,0.5676
1027.00,0.5664
1026.00,0.5669
1025.00,0.5696
1024.00,0.5745
1023.00,0.5810
1022.00,0.5868
1021.00,0.5892
1020.00,0.5868
1019.00,0.5805
1018.00,0.5726
1017.00,0.5654
1016.00,0.5597
1015.00,0.5554
1014.00,0.5519
1013.00,0.5487
1012.00,0.5457
1011.00,0.5428
1010.00,0.5401
1009.00,0.5374
1008.00,0.5348
1007.00,0.5324
1006.00,0.5302
1005.00,0.5279
1004.00,0.5256
1003.00,0.5233
1002.00,0.5211
1001.00,0.5188
1000.00,0.5162
999.00,0.5136
998.00,0.5112
997.00,0.5089
996.00,0.5067
995.00,0.5046
994.00,0.5024
993.00,0.5001
992.00,0.4977
991.00,0.4955
990.00,0.4937
989.00,0.4923
988.00,0.4914
987.00,0.4908
986.00,0.4905
985.00,0.4906
984.00,0.4910
983.00,0.4920
982.00,0.4934
981.00,0.4950
980.00,0.4971
979.00,0.4996
978.00,0.5025
977.00,0.5055
976.00,0.5083
975.00,0.5109
974.00,0.5131
973.00,0.5150
972.00,0.5169
971.00,0.5187
970.00,0.5206
969.00,0.5225
968.00,0.5242
967.00,0.5254
966.00,0.5254
965.00,0.5237
964.00,0.5202
963.00,0.5153
962.00,0.5095
961.00,0.5034
960.00,0.4976
959.00,0.4925
958.00,0.4884
957.00,0.4851
956.00,0.4826
955.00,0.4808
954.00,0.4794
953.00,0.4781
952.00,0.4768
951.00,0.4755
950.00,0.4747
949.00,0.4743
948.00,0.4740
947.00,0.4734
946.00,0.4724
945.00,0.4711
944.00,0.4698
943.00,0.4688
942.00,0.4680
941.00,0.4673
940.00,0.4666
939.00,0.4659
938.00,0.4651
937.00,0.4641
936.00,0.4629
935.00,0.4617
934.00,0.4603
933.00,0.4586
932.00,0.4566
931.00,0.4546
930.00,0.4525
929.00,0.4504
928.00,0.4481
927.00,0.4458
926.00,0.4436
925.00,0.4418
924.00,0.4407
923.00,0.4404
922.00,0.4411
921.00,0.4423
920.00,0.4437
919.00,0.4446
918.00,0.4447
917.00,0.4438
916.00,0.4423
915.00,0.4408
914.00,0.4396
913.00,0.4389
912.00,0.4384
911.00,0.4380
910.00,0.4370
909.00,0.4351
908.00,0.4324
907.00,0.4292
906.00,0.4260
905.00,0.4232
904.00,0.4209
903.00,0.4198
902.00,0.4202
901.00,0.4219
900.00,0.4252
899.00,0.4298
898.00,0.4354
897.00,0.4415
896.00,0.4477
895.00,0.4541
894.00,0.4608
893.00,0.4672
892.00,0.4718
891.00,0.4731
890.00,0.4702
889.00,0.4636
888.00,0.4552
887.00,0.4468
886.00,0.4395
885.00,0.4339
884.00,0.4302
883.00,0.4280
882.00,0.4273
881.00,0.4275
880.00,0.4286
879.00,0.4307
878.00,0.4337
877.00,0.4376
876.00,0.4422
875.00,0.4476
874.00,0.4537
873.00,0.4606
872.00,0.4684
871.00,0.4775
870.00,0.4880
869.00,0.4994
868.00,0.5106
867.00,0.5192
866.00,0.5219
865.00,0.5170
864.00,0.5052
863.00,0.4898
862.00,0.4738
861.00,0.4595
860.00,0.4481
859.00,0.4395
858.00,0.4336
857.00,0.4296
856.00,0.4270
855.00,0.4254
854.00,0.4245
853.00,0.4239
852.00,0.4234
851.00,0.4233
850.00,0.4234
849.00,0.4237
848.00,0.4241
847.00,0.4247
846.00,0.4253
845.00,0.4255
844.00,0.4253
843.00,0.4248
842.00,0.4242
841.00,0.4237
840.00,0.4238
839.00,0.4245
838.00,0.4260
837.00,0.4281
836.00,0.4307
835.00,0.4340
834.00,0.4378
833.00,0.4421
832.00,0.4472
831.00,0.4528
830.00,0.4588
829.00,0.4643
828.00,0.4689
827.00,0.4725
826.00,0.4749
825.00,0.4764
824.00,0.4770
823.00,0.4771
822.00,0.4770
821.00,0.4768
820.00,0.4767
819.00,0.4766
818.00,0.4764
817.00,0.4758
816.00,0.4747
815.00,0.4730
814.00,0.4709
813.00,0.4681
812.00,0.4648
811.00,0.4613
810.00,0.4578
809.00,0.4548
808.00,0.4523
807.00,0.4504
806.00,0.4485
805.00,0.4462
804.00,0.4433
803.00,0.4399
802.00,0.4362
801.00,0.4324
800.00,0.4288
799.00,0.4254
798.00,0.4220
797.00,0.4183
796.00,0.4146
795.00,0.4115
794.00,0.4094
793.00,0.4086
792.00,0.4088
791.00,0.4099
790.00,0.4118
789.00,0.4145
788.00,0.4182
787.00,0.4229
786.00,0.4283
785.00,0.4340
784.00,0.4397
783.00,0.4454
782.00,0.4512
781.00,0.4574
780.00,0.4645
779.00,0.4729
778.00,0.4830
777.00,0.4952
776.00,0.5093
775.00,0.5251
774.00,0.5420
773.00,0.5578
772.00,0.5698
771.00,0.5757
770.00,0.5755
769.00,0.5714
768.00,0.5668
767.00,0.5641
766.00,0.5639
765.00,0.5653
764.00,0.5675
763.00,0.5696
762.00,0.5716
761.00,0.5738
760.00,0.5768
759.00,0.5814
758.00,0.5871
757.00,0.5928
756.00,0.5975
755.00,0.6003
754.00,0.6010
753.00,0.5999
752.00,0.5979
751.00,0.5954
750.00,0.5932
749.00,0.5913
748.00,0.5900
747.00,0.5896
746.00,0.5901
745.00,0.5915
744.00,0.5936
743.00,0.5962
742.00,0.5994
741.00,0.6027
740.00,0.6056
739.00,0.6081
738.00,0.6106
737.00,0.6136
736.00,0.6174
735.00,0.6221
734.00,0.6280
733.00,0.6355
732.00,0.6449
731.00,0.6566
730.00,0.6709
729.00,0.6880
728.00,0.7082
727.00,0.7317
726.00,0.7582
725.00,0.7863
724.00,0.8128
723.00,0.8331
722.00,0.8415
721.00,0.8332
720.00,0.8081
719.00,0.7709
718.00,0.7287
717.00,0.6870
716.00,0.6495
715.00,0.6174
714.00,0.5909
713.00,0.5691
712.00,0.5513
711.00,0.5366
710.00,0.5245
709.00,0.5143
708.00,0.5054
707.00,0.4969
706.00,0.4884
705.00,0.4796
704.00,0.4710
703.00,0.4636
702.00,0.4583
701.00,0.4553
700.00,0.4540
699.00,0.4535
698.00,0.4524
697.00,0.4502
696.00,0.4476
695.00,0.4457
694.00,0.4451
693.00,0.4458
692.00,0.4469
691.00,0.4483
690.00,0.4497
689.00,0.4514
688.00,0.4533
687.00,0.4556
686.00,0.4579
685.00,0.4600
684.00,0.4620
683.00,0.4639
682.00,0.4658
681.00,0.4677
680.00,0.4697
679.00,0.4721
678.00,0.4749
677.00,0.4779
676.00,0.4808
675.00,0.4836
674.00,0.4863
673.00,0.4891
672.00,0.4917
671.00,0.4941
670.00,0.4965
669.00,0.4990
668.00,0.5011
667.00,0.5025
666.00,0.5033
665.00,0.5040
664.00,0.5045
663.00,0.5047
662.00,0.5043
661.00,0.5034
660.00,0.5021
659.00,0.5004
658.00,0.4986
657.00,0.4964
656.00,0.4940
655.00,0.4911
654.00,0.4875
653.00,0.4834
652.00,0.4789
651.00,0.4745
650.00,0.4702
649.00,0.4659
648.00,0.4617
647.00,0.4577
646.00,0.4543
645.00,0.4520
644.00,0.4514
643.00,0.4526
642.00,0.4548
641.00,0.4563
640.00,0.4560
639.00,0.4537
638.00,0.4499
637.00,0.4452
636.00,0.4402
635.00,0.4354
634.00,0.4311
633.00,0.4272
632.00,0.4239
631.00,0.4214
630.00,0.4197
629.00,0.4184
628.00,0.4173
627.00,0.4168
626.00,0.4171
625.00,0.4179
624.00,0.4186
623.00,0.4193
622.00,0.4200
621.00,0.4208
620.00,0.4216
619.00,0.4226
618.00,0.4238
617.00,0.4247
616.00,0.4255
615.00,0.4263
614.00,0.4275
613.00,0.4286
612.00,0.4288
611.00,0.4276
610.00,0.4249
609.00,0.4208
608.00,0.4159
607.00,0.4112
606.00,0.4070
605.00,0.4032
604.00,0.3998
603.00,0.3968
602.00,0.3947
601.00,0.3932
600.00,0.3920
599.00,0.3913
598.00,0.3912
597.00,0.3916
596.00,0.3924
595.00,0.3936
594.00,0.3952
593.00,0.3969
592.00,0.3980
591.00,0.3985
590.00,0.3988
589.00,0.3994
588.00,0.4005
587.00,0.4024
586.00,0.4045
585.00,0.4063
584.00,0.4078
583.00,0.4094
582.00,0.4113
581.00,0.4134
580.00,0.4156
579.00,0.4179
578.00,0.4203
577.00,0.4224
576.00,0.4240
575.00,0.4252
574.00,0.4264
573.00,0.4277
572.00,0.4289
571.00,0.4301
570.00,0.4313
569.00,0.4322
568.00,0.4332
567.00,0.4346
566.00,0.4366
565.00,0.4391
564.00,0.4423
563.00,0.4467
562.00,0.4529
561.00,0.4607
560.00,0.4690
559.00,0.4761
558.00,0.4800
557.00,0.4791
556.00,0.4737
555.00,0.4656
554.00,0.4571
553.00,0.4500
552.00,0.4449
551.00,0.4419
550.00,0.4406
