Created as New Dataset,
cm-1,A
4000.00,0.3813
3999.00,0.3810
3998.00,0.3806
3997.00,0.3802
3996.00,0.3799
3995.00,0.3796
3994.00,0.3793
3993.00,0.3790
3992.00,0.3786
3991.00,0.3782
3990.00,0.3778
3989.00,0.3773
3988.00,0.3767
3987.00,0.3762
3986.00,0.3756
3985.00,0.3751
3984.00,0.3747
3983.00,0.3742
3982.00,0.3738
3981.00,0.3733
3980.00,0.3729
3979.00,0.3725
3978.00,0.3721
3977.00,0.3717
3976.00,0.3713
3975.00,0.3709
3974.00,0.3706
3973.00,0.3704
3972.00,0.3702
3971.00,0.3700
3970.00,0.3698
3969.00,0.3695
3968.00,0.3693
3967.00,0.3691
3966.00,0.3689
3965.00,0.3687
3964.00,0.3686
3963.00,0.3685
3962.00,0.3683
3961.00,0.3681
3960.00,0.3679
3959.00,0.3678
3958.00,0.3676
3957.00,0.3675
3956.00,0.3674
3955.00,0.3673
3954.00,0.3672
3953.00,0.3671
3952.00,0.3670
3951.00,0.3669
3950.00,0.3667
3949.00,0.3665
3948.00,0.3664
3947.00,0.3663
3946.00,0.3662
3945.00,0.3661
3944.00,0.3659
3943.00,0.3657
3942.00,0.3655
3941.00,0.3654
3940.00,0.3653
3939.00,0.3652
3938.00,0.3652
3937.00,0.3652
3936.00,0.3651
3935.00,0.3650
3934.00,0.3649
3933.00,0.3648
3932.00,0.3647
3931.00,0.3647
3930.00,0.3648
3929.00,0.3649
3928.00,0.3649
3927.00,0.3649
3926.00,0.3649
3925.00,0.3649
3924.00,0.3649
3923.00,0.3649
3922.00,0.3650
3921.00,0.3650
3920.00,0.3650
3919.00,0.3649
3918.00,0.3648
3917.00,0.3647
3916.00,0.3647
3915.00,0.3647
3914.00,0.3646
3913.00,0.3645
3912.00,0.3643
3911.00,0.3641
3910.00,0.3639
3909.00,0.3638
3908.00,0.3638
3907.00,0.3638
3906.00,0.3638
3905.00,0.3638
3904.00,0.3639
3903.00,0.3639
3902.00,0.3639
3901.00,0.3639
3900.00,0.3638
3899.00,0.3637
3898.00,0.3635
3897.00,0.3633
3896.00,0.3631
3895.00,0.3630
3894.00,0.3629
3893.00,0.3628
3892.00,0.3627
3891.00,0.3626
3890.00,0.3627
3889.00,0.3628
3888.00,0.3628
3887.00,0.3629
3886.00,0.3629
3885.00,0.3629
3884.00,0.3630
3883.00,0.3630
3882.00,0.3630
3881.00,0.3628
3880.00,0.3627
3879.00,0.3625
3878.00,0.3623
3877.00,0.3621
3876.00,0.3619
3875.00,0.3617
3874.00,0.3616
3873.00,0.3616
3872.00,0.3616
3871.00,0.3615
3870.00,0.3615
3869.00,0.3615
3868.00,0.3615
3867.00,0.3614
3866.00,0.3613
3865.00,0.3610
3864.00,0.3607
3863.00,0.3605
3862.00,0.3603
3861.00,0.3600
3860.00,0.3599
3859.00,0.3599
3858.00,0.3599
3857.00,0.3600
3856.00,0.3601
3855.00,0.3601
3854.00,0.3602
3853.00,0.3604
3852.00,0.3605
3851.00,0.3605
3850.00,0.3603
3849.00,0.3600
3848.00,0.3597
3847.00,0.3594
3846.00,0.3592
3845.00,0.3590
3844.00,0.3589
3843.00,0.3589
3842.00,0.3590
3841.00,0.3592
3840.00,0.3594
3839.00,0.3594
3838.00,0.3594
3837.00,0.3594
3836.00,0.3593
3835.00,0.3591
3834.00,0.3589
3833.00,0.3587
3832.00,0.3584
3831.00,0.3581
3830.00,0.3578
3829.00,0.3576
3828.00,0.3573
3827.00,0.3571
3826.00,0.3569
3825.00,0.3569
3824.00,0.3570
3823.00,0.3570
3822.00,0.3570
3821.00,0.3570
3820.00,0.3570
3819.00,0.3569
3818.00,0.3568
3817.00,0.3566
3816.00,0.3564
3815.00,0.3561
3814.00,0.3558
3813.00,0.3554
3812.00,0.3551
3811.00,0.3548
3810.00,0.3547
3809.00,0.3545
3808.00,0.3544
3807.00,0.3542
3806.00,0.3542
3805.00,0.3543
3804.00,0.3544
3803.00,0.3544
3802.00,0.3543
3801.00,0.3540
3800.00,0.3538
3799.00,0.3536
3798.00,0.3534
3797.00,0.3532
3796.00,0.3529
3795.00,0.3525
3794.00,0.3521
3793.00,0.3518
3792.00,0.3515
3791.00,0.3513
3790.00,0.3511
3789.00,0.3509
3788.00,0.3507
3787.00,0.3505
3786.00,0.3503
3785.00,0.3501
3784.00,0.3500
3783.00,0.3499
3782.00,0.3498
3781.00,0.3497
3780.00,0.3496
3779.00,0.3493
3778.00,0.3491
3777.00,0.3489
3776.00,0.3487
3775.00,0.3486
3774.00,0.3485
3773.00,0.3484
3772.00,0.3482
3771.00,0.3481
3770.00,0.3480
3769.00,0.3481
3768.00,0.3481
3767.00,0.3482
3766.00,0.3482
3765.00,0.3481
3764.00,0.3480
3763.00,0.3479
3762.00,0.3477
3761.00,0.3475
3760.00,0.3474
3759.00,0.3473
3758.00,0.3471
3757.00,0.3470
3756.00,0.3469
3755.00,0.3468
3754.00,0.3468
3753.00,0.3469
3752.00,0.3469
3751.00,0.3469
3750.00,0.3470
3749.00,0.3470
3748.00,0.3470
3747.00,0.3470
3746.00,0.3469
3745.00,0.3465
3744.00,0.3462
3743.00,0.3459
3742.00,0.3456
3741.00,0.3454
3740.00,0.3453
3739.00,0.3452
3738.00,0.3451
3737.00,0.3450
3736.00,0.3449
3735.00,0.3449
3734.00,0.3449
3733.00,0.3448
3732.00,0.3447
3731.00,0.3446
3730.00,0.3444
3729.00,0.3442
3728.00,0.3440
3727.00,0.3438
3726.00,0.3436
3725.00,0.3434
3724.00,0.3432
3723.00,0.3429
3722.00,0.3427
3721.00,0.3426
3720.00,0.3424
3719.00,0.3422
3718.00,0.3420
3717.00,0.3418
3716.00,0.3417
3715.00,0.3416
3714.00,0.3416
3713.00,0.3417
3712.00,0.3418
3711.00,0.3418
3710.00,0.3418
3709.00,0.3418
3708.00,0.3417
3707.00,0.3415
3706.00,0.3414
3705.00,0.3413
3704.00,0.3412
3703.00,0.3411
3702.00,0.3411
3701.00,0.3410
3700.00,0.3411
3699.00,0.3411
3698.00,0.3411
3697.00,0.3411
3696.00,0.3411
3695.00,0.3413
3694.00,0.3414
3693.00,0.3416
3692.00,0.3418
3691.00,0.3420
3690.00,0.3422
3689.00,0.3424
3688.00,0.3425
3687.00,0.3425
3686.00,0.3424
3685.00,0.3422
3684.00,0.3420
3683.00,0.3418
3682.00,0.3417
3681.00,0.3416
3680.00,0.3416
3679.00,0.3417
3678.00,0.3419
3677.00,0.3420
3676.00,0.3422
3675.00,0.3424
3674.00,0.3426
3673.00,0.3427
3672.00,0.3427
3671.00,0.3427
3670.00,0.3426
3669.00,0.3425
3668.00,0.3423
3667.00,0.3422
3666.00,0.3420
3665.00,0.3418
3664.00,0.3417
3663.00,0.3417
3662.00,0.3417
3661.00,0.3419
3660.00,0.3421
3659.00,0.3423
3658.00,0.3425
3657.00,0.3427
3656.00,0.3430
3655.00,0.3433
3654.00,0.3437
3653.00,0.3442
3652.00,0.3445
3651.00,0.3448
3650.00,0.3451
3649.00,0.3454
3648.00,0.3456
3647.00,0.3456
3646.00,0.3455
3645.00,0.3454
3644.00,0.3452
3643.00,0.3450
3642.00,0.3449
3641.00,0.3449
3640.00,0.3449
3639.00,0.3449
3638.00,0.3450
3637.00,0.3452
3636.00,0.3454
3635.00,0.3457
3634.00,0.3460
3633.00,0.3464
3632.00,0.3467
3631.00,0.3471
3630.00,0.3473
3629.00,0.3476
3628.00,0.3478
3627.00,0.3480
3626.00,0.3480
3625.00,0.3480
3624.00,0.3480
3623.00,0.3480
3622.00,0.3480
3621.00,0.3481
3620.00,0.3482
3619.00,0.3484
3618.00,0.3485
3617.00,0.3487
3616.00,0.3488
3615.00,0.3489
3614.00,0.3490
3613.00,0.3490
3612.00,0.3490
3611.00,0.3490
3610.00,0.3489
3609.00,0.3489
3608.00,0.3487
3607.00,0.3485
3606.00,0.3483
3605.00,0.3480
3604.00,0.3476
3603.00,0.3472
3602.00,0.3467
3601.00,0.3461
3600.00,0.3456
3599.00,0.3450
3598.00,0.3445
3597.00,0.3440
3596.00,0.3434
3595.00,0.3429
3594.00,0.3425
3593.00,0.3422
3592.00,0.3420
3591.00,0.3419
3590.00,0.3417
3589.00,0.3415
3588.00,0.3414
3587.00,0.3414
3586.00,0.3413
3585.00,0.3412
3584.00,0.3411
3583.00,0.3410
3582.00,0.3408
3581.00,0.3408
3580.00,0.3408
3579.00,0.3409
3578.00,0.3409
3577.00,0.3410
3576.00,0.3410
3575.00,0.3411
3574.00,0.3412
3573.00,0.3413
3572.00,0.3416
3571.00,0.3418
3570.00,0.3420
3569.00,0.3423
3568.00,0.3425
3567.00,0.3428
3566.00,0.3430
3565.00,0.3433
3564.00,0.3434
3563.00,0.3436
3562.00,0.3437
3561.00,0.3437
3560.00,0.3438
3559.00,0.3439
3558.00,0.3440
3557.00,0.3442
3556.00,0.3445
3555.00,0.3448
3554.00,0.3451
3553.00,0.3454
3552.00,0.3457
3551.00,0.3460
3550.00,0.3463
3549.00,0.3467
3548.00,0.3471
3547.00,0.3475
3546.00,0.3479
3545.00,0.3482
3544.00,0.3485
3543.00,0.3489
3542.00,0.3492
3541.00,0.3495
3540.00,0.3499
3539.00,0.3502
3538.00,0.3506
3537.00,0.3509
3536.00,0.3513
3535.00,0.3517
3534.00,0.3521
3533.00,0.3524
3532.00,0.3528
3531.00,0.3531
3530.00,0.3535
3529.00,0.3539
3528.00,0.3543
3527.00,0.3547
3526.00,0.3551
3525.00,0.3556
3524.00,0.3560
3523.00,0.3564
3522.00,0.3568
3521.00,0.3572
3520.00,0.3576
3519.00,0.3580
3518.00,0.3584
3517.00,0.3588
3516.00,0.3592
3515.00,0.3596
3514.00,0.3601
3513.00,0.3605
3512.00,0.3609
3511.00,0.3613
3510.00,0.3617
3509.00,0.3621
3508.00,0.3624
3507.00,0.3628
3506.00,0.3632
3505.00,0.3635
3504.00,0.3639
3503.00,0.3643
3502.00,0.3647
3501.00,0.3651
3500.00,0.3655
3499.00,0.3659
3498.00,0.3663
3497.00,0.3667
3496.00,0.3672
3495.00,0.3676
3494.00,0.3680
3493.00,0.3685
3492.00,0.3690
3491.00,0.3696
3490.00,0.3701
3489.00,0.3706
3488.00,0.3711
3487.00,0.3716
3486.00,0.3721
3485.00,0.3726
3484.00,0.3732
3483.00,0.3738
3482.00,0.3744
3481.00,0.3749
3480.00,0.3754
3479.00,0.3759
3478.00,0.3765
3477.00,0.3771
3476.00,0.3777
3475.00,0.3782
3474.00,0.3788
3473.00,0.3794
3472.00,0.3800
3471.00,0.3806
3470.00,0.3813
3469.00,0.3820
3468.00,0.3827
3467.00,0.3834
3466.00,0.3842
3465.00,0.3849
3464.00,0.3855
3463.00,0.3862
3462.00,0.3868
3461.00,0.3875
3460.00,0.3881
3459.00,0.3887
3458.00,0.3894
3457.00,0.3900
3456.00,0.3906
3455.00,0.3912
3454.00,0.3918
3453.00,0.3925
3452.00,0.3931
3451.00,0.3938
3450.00,0.3945
3449.00,0.3952
3448.00,0.3958
3447.00,0.3964
3446.00,0.3971
3445.00,0.3979
3444.00,0.3987
3443.00,0.3995
3442.00,0.4003
3441.00,0.4010
3440.00,0.4018
3439.00,0.4025
3438.00,0.4033
3437.00,0.4042
3436.00,0.4050
3435.00,0.4058
3434.00,0.4066
3433.00,0.4075
3432.00,0.4084
3431.00,0.4094
3430.00,0.4104
3429.00,0.4115
3428.00,0.4126
3427.00,0.4138
3426.00,0.4150
3425.00,0.4163
3424.00,0.4176
3423.00,0.4189
3422.00,0.4202
3421.00,0.4217
3420.00,0.4232
3419.00,0.4248
3418.00,0.4265
3417.00,0.4283
3416.00,0.4301
3415.00,0.4319
3414.00,0.4337
3413.00,0.4356
3412.00,0.4375
3411.00,0.4395
3410.00,0.4416
3409.00,0.4437
3408.00,0.4459
3407.00,0.4482
3406.00,0.4506
3405.00,0.4530
3404.00,0.4555
3403.00,0.4581
3402.00,0.4607
3401.00,0.4634
3400.00,0.4663
3399.00,0.4692
3398.00,0.4723
3397.00,0.4754
3396.00,0.4786
3395.00,0.4819
3394.00,0.4854
3393.00,0.4890
3392.00,0.4928
3391.00,0.4967
3390.00,0.5008
3389.00,0.5050
3388.00,0.5094
3387.00,0.5139
3386.00,0.5187
3385.00,0.5235
3384.00,0.5284
3383.00,0.5335
3382.00,0.5386
3381.00,0.5440
3380.00,0.5494
3379.00,0.5550
3378.00,0.5607
3377.00,0.5666
3376.00,0.5726
3375.00,0.5787
3374.00,0.5849
3373.00,0.5912
3372.00,0.5977
3371.00,0.6044
3370.00,0.6114
3369.00,0.6186
3368.00,0.6259
3367.00,0.6333
3366.00,0.6410
3365.00,0.6489
3364.00,0.6572
3363.00,0.6657
3362.00,0.6745
3361.00,0.6835
3360.00,0.6927
3359.00,0.7023
3358.00,0.7124
3357.00,0.7228
3356.00,0.7336
3355.00,0.7447
3354.00,0.7560
3353.00,0.7675
3352.00,0.7793
3351.00,0.7915
3350.00,0.8040
3349.00,0.8171
3348.00,0.8305
3347.00,0.8440
3346.00,0.8577
3345.00,0.8717
3344.00,0.8859
3343.00,0.9003
3342.00,0.9148
3341.00,0.9293
3340.00,0.9438
3339.00,0.9582
3338.00,0.9727
3337.00,0.9872
3336.00,1.0014
3335.00,1.0151
3334.00,1.0282
3333.00,1.0408
3332.00,1.0530
3331.00,1.0647
3330.00,1.0757
3329.00,1.0858
3328.00,1.0950
3327.00,1.1032
3326.00,1.1103
3325.00,1.1164
3324.00,1.1213
3323.00,1.1249
3322.00,1.1274
3321.00,1.1289
3320.00,1.1294
3319.00,1.1290
3318.00,1.1276
3317.00,1.1253
3316.00,1.1222
3315.00,1.1184
3314.00,1.1143
3313.00,1.1099
3312.00,1.1053
3311.00,1.1005
3310.00,1.0955
3309.00,1.0905
3308.00,1.0855
3307.00,1.0805
3306.00,1.0755
3305.00,1.0705
3304.00,1.0656
3303.00,1.0607
3302.00,1.0558
3301.00,1.0507
3300.00,1.0452
3299.00,1.0393
3298.00,1.0333
3297.00,1.0274
3296.00,1.0217
3295.00,1.0158
3294.00,1.0097
3293.00,1.0030
3292.00,0.9957
3291.00,0.9880
3290.00,0.9799
3289.00,0.9717
3288.00,0.9634
3287.00,0.9548
3286.00,0.9461
3285.00,0.9373
3284.00,0.9283
3283.00,0.9193
3282.00,0.9103
3281.00,0.9013
3280.00,0.8923
3279.00,0.8833
3278.00,0.8745
3277.00,0.8657
3276.00,0.8568
3275.00,0.8478
3274.00,0.8388
3273.00,0.8298
3272.00,0.8209
3271.00,0.8121
3270.00,0.8033
3269.00,0.7946
3268.00,0.7860
3267.00,0.7773
3266.00,0.7687
3265.00,0.7602
3264.00,0.7517
3263.00,0.7433
3262.00,0.7350
3261.00,0.7270
3260.00,0.7190
3259.00,0.7113
3258.00,0.7036
3257.00,0.6962
3256.00,0.6890
3255.00,0.6820
3254.00,0.6753
3253.00,0.6689
3252.00,0.6628
3251.00,0.6568
3250.00,0.6511
3249.00,0.6456
3248.00,0.6404
3247.00,0.6354
3246.00,0.6307
3245.00,0.6261
3244.00,0.6217
3243.00,0.6175
3242.00,0.6136
3241.00,0.6099
3240.00,0.6064
3239.00,0.6031
3238.00,0.5998
3237.00,0.5967
3236.00,0.5938
3235.00,0.5910
3234.00,0.5885
3233.00,0.5862
3232.00,0.5841
3231.00,0.5820
3230.00,0.5800
3229.00,0.5781
3228.00,0.5763
3227.00,0.5745
3226.00,0.5729
3225.00,0.5714
3224.00,0.5702
3223.00,0.5691
3222.00,0.5681
3221.00,0.5671
3220.00,0.5663
3219.00,0.5656
3218.00,0.5651
3217.00,0.5646
3216.00,0.5642
3215.00,0.5638
3214.00,0.5636
3213.00,0.5635
3212.00,0.5634
3211.00,0.5635
3210.00,0.5637
3209.00,0.5639
3208.00,0.5641
3207.00,0.5644
3206.00,0.5647
3205.00,0.5650
3204.00,0.5654
3203.00,0.5659
3202.00,0.5664
3201.00,0.5669
3200.00,0.5674
3199.00,0.5678
3198.00,0.5682
3197.00,0.5686
3196.00,0.5691
3195.00,0.5694
3194.00,0.5697
3193.00,0.5699
3192.00,0.5701
3191.00,0.5702
3190.00,0.5703
3189.00,0.5705
3188.00,0.5706
3187.00,0.5706
3186.00,0.5706
3185.00,0.5706
3184.00,0.5705
3183.00,0.5704
3182.00,0.5701
3181.00,0.5698
3180.00,0.5695
3179.00,0.5691
3178.00,0.5686
3177.00,0.5680
3176.00,0.5674
3175.00,0.5667
3174.00,0.5659
3173.00,0.5650
3172.00,0.5641
3171.00,0.5632
3170.00,0.5624
3169.00,0.5616
3168.00,0.5607
3167.00,0.5599
3166.00,0.5589
3165.00,0.5579
3164.00,0.5569
3163.00,0.5559
3162.00,0.5549
3161.00,0.5540
3160.00,0.5531
3159.00,0.5523
3158.00,0.5515
3157.00,0.5508
3156.00,0.5502
3155.00,0.5496
3154.00,0.5489
3153.00,0.5482
3152.00,0.5477
3151.00,0.5473
3150.00,0.5471
3149.00,0.5469
3148.00,0.5466
3147.00,0.5464
3146.00,0.5463
3145.00,0.5462
3144.00,0.5462
3143.00,0.5463
3142.00,0.5464
3141.00,0.5465
3140.00,0.5468
3139.00,0.5471
3138.00,0.5475
3137.00,0.5480
3136.00,0.5485
3135.00,0.5490
3134.00,0.5496
3133.00,0.5503
3132.00,0.5511
3131.00,0.5520
3130.00,0.5529
3129.00,0.5538
3128.00,0.5547
3127.00,0.5556
3126.00,0.5565
3125.00,0.5573
3124.00,0.5581
3123.00,0.5589
3122.00,0.5596
3121.00,0.5604
3120.00,0.5610
3119.00,0.5617
3118.00,0.5623
3117.00,0.5628
3116.00,0.5632
3115.00,0.5635
3114.00,0.5637
3113.00,0.5640
3112.00,0.5642
3111.00,0.5643
3110.00,0.5643
3109.00,0.5642
3108.00,0.5640
3107.00,0.5638
3106.00,0.5635
3105.00,0.5632
3104.00,0.5630
3103.00,0.5628
3102.00,0.5626
3101.00,0.5624
3100.00,0.5622
3099.00,0.5620
3098.00,0.5618
3097.00,0.5616
3096.00,0.5614
3095.00,0.5613
3094.00,0.5613
3093.00,0.5614
3092.00,0.5617
3091.00,0.5620
3090.00,0.5624
3089.00,0.5629
3088.00,0.5636
3087.00,0.5643
3086.00,0.5651
3085.00,0.5661
3084.00,0.5672
3083.00,0.5683
3082.00,0.5696
3081.00,0.5709
3080.00,0.5723
3079.00,0.5737
3078.00,0.5752
3077.00,0.5768
3076.00,0.5785
3075.00,0.5803
3074.00,0.5821
3073.00,0.5840
3072.00,0.5859
3071.00,0.5876
3070.00,0.5894
3069.00,0.5914
3068.00,0.5934
3067.00,0.5954
3066.00,0.5975
3065.00,0.5995
3064.00,0.6015
3063.00,0.6035
3062.00,0.6055
3061.00,0.6076
3060.00,0.6097
3059.00,0.6118
3058.00,0.6139
3057.00,0.6160
3056.00,0.6182
3055.00,0.6206
3054.00,0.6230
3053.00,0.6255
3052.00,0.6282
3051.00,0.6309
3050.00,0.6338
3049.00,0.6367
3048.00,0.6397
3047.00,0.6428
3046.00,0.6460
3045.00,0.6495
3044.00,0.6531
3043.00,0.6568
3042.00,0.6608
3041.00,0.6649
3040.00,0.6690
3039.00,0.6733
3038.00,0.6776
3037.00,0.6820
3036.00,0.6865
3035.00,0.6911
3034.00,0.6957
3033.00,0.7003
3032.00,0.7052
3031.00,0.7101
3030.00,0.7152
3029.00,0.7202
3028.00,0.7253
3027.00,0.7303
3026.00,0.7354
3025.00,0.7408
3024.00,0.7464
3023.00,0.7524
3022.00,0.7588
3021.00,0.7657
3020.00,0.7731
3019.00,0.7809
3018.00,0.7893
3017.00,0.7982
3016.00,0.8077
3015.00,0.8178
3014.00,0.8284
3013.00,0.8397
3012.00,0.8515
3011.00,0.8636
3010.00,0.8760
3009.00,0.8887
3008.00,0.9018
3007.00,0.9154
3006.00,0.9294
3005.00,0.9437
3004.00,0.9584
3003.00,0.9737
3002.00,0.9899
3001.00,1.0071
3000.00,1.0256
2999.00,1.0453
2998.00,1.0666
2997.00,1.0898
2996.00,1.1154
2995.00,1.1437
2994.00,1.1750
2993.00,1.2093
2992.00,1.2468
2991.00,1.2880
2990.00,1.3336
2989.00,1.3844
2988.00,1.4410
2987.00,1.5035
2986.00,1.5724
2985.00,1.6478
2984.00,1.7304
2983.00,1.8210
2982.00,1.9214
2981.00,2.0331
2980.00,2.1579
2979.00,2.2982
2978.00,2.4579
2977.00,2.6401
2976.00,2.8446
2975.00,3.0666
2974.00,3.2970
2973.00,3.5193
2972.00,3.7153
2971.00,3.9329
2970.00,4.0538
2969.00,3.9167
2968.00,3.7879
2967.00,3.7714
2966.00,3.8900
2965.00,4.0229
2964.00,4.1326
2963.00,4.2170
2962.00,4.1354
2961.00,4.0033
2960.00,3.8640
2959.00,3.7795
2958.00,3.7831
2957.00,3.8679
2956.00,4.0873
2955.00,4.4304
2954.00,4.3900
2953.00,4.1795
2952.00,4.0805
2951.00,4.1162
2950.00,4.0817
2949.00,3.9927
2948.00,4.0175
2947.00,4.1531
2946.00,4.4240
2945.00,4.5302
2944.00,4.2428
2943.00,4.0182
2942.00,3.9427
2941.00,3.9668
2940.00,3.9556
2939.00,3.9026
2938.00,3.8796
2937.00,3.9324
2936.00,4.0837
2935.00,4.3382
2934.00,4.5304
2933.00,4.2584
2932.00,3.9813
2931.00,3.8685
2930.00,3.8932
2929.00,4.0074
2928.00,4.1243
2927.00,4.1140
2926.00,4.0577
2925.00,4.0934
2924.00,4.1993
2923.00,4.1607
2922.00,4.0088
2921.00,3.9372
2920.00,3.9703
2919.00,4.0578
2918.00,4.1655
2917.00,4.2454
2916.00,4.1927
2915.00,4.0609
2914.00,4.0190
2913.00,4.1208
2912.00,4.2383
2911.00,4.2272
2910.00,4.2114
2909.00,4.3838
2908.00,4.7410
2907.00,4.6441
2906.00,4.4399
2905.00,4.4784
2904.00,4.5586
2903.00,4.5216
2902.00,4.2155
2901.00,3.9490
2900.00,3.8057
2899.00,3.8528
2898.00,4.2067
2897.00,4.3637
2896.00,4.0813
2895.00,3.9063
2894.00,3.9860
2893.00,4.2033
2892.00,4.4391
2891.00,4.8328
2890.00,4.5693
2889.00,4.3139
2888.00,4.1751
2887.00,4.1285
2886.00,4.0669
2885.00,4.0197
2884.00,4.0247
2883.00,4.0166
2882.00,4.0115
2881.00,4.0125
2880.00,4.0614
2879.00,4.0506
2878.00,4.0823
2877.00,4.3207
2876.00,4.2368
2875.00,3.9232
2874.00,3.7223
2873.00,3.6888
2872.00,3.7183
2871.00,3.7497
2870.00,3.8705
2869.00,4.0797
2868.00,4.2565
2867.00,4.2187
2866.00,4.2458
2865.00,4.5051
2864.00,4.5602
2863.00,4.3003
2862.00,4.1324
2861.00,4.1612
2860.00,4.1791
2859.00,4.0814
2858.00,4.0108
2857.00,4.0071
2856.00,4.0388
2855.00,3.9778
2854.00,3.8983
2853.00,3.9380
2852.00,4.0892
2851.00,4.3092
2850.00,4.6094
2849.00,4.6985
2848.00,4.4845
2847.00,4.3262
2846.00,4.2749
2845.00,4.0531
2844.00,3.7705
2843.00,3.5974
2842.00,3.5375
2841.00,3.5930
2840.00,3.7494
2839.00,3.7646
2838.00,3.5043
2837.00,3.2212
2836.00,2.9899
2835.00,2.7847
2834.00,2.5936
2833.00,2.4194
2832.00,2.2619
2831.00,2.1216
2830.00,1.9978
2829.00,1.8887
2828.00,1.7928
2827.00,1.7087
2826.00,1.6349
2825.00,1.5697
2824.00,1.5118
2823.00,1.4597
2822.00,1.4123
2821.00,1.3686
2820.00,1.3283
2819.00,1.2911
2818.00,1.2568
2817.00,1.2250
2816.00,1.1951
2815.00,1.1670
2814.00,1.1403
2813.00,1.1148
2812.00,1.0905
2811.00,1.0675
2810.00,1.0457
2809.00,1.0250
2808.00,1.0051
2807.00,0.9859
2806.00,0.9677
2805.00,0.9503
2804.00,0.9336
2803.00,0.9177
2802.00,0.9024
2801.00,0.8879
2800.00,0.8740
2799.00,0.8606
2798.00,0.8476
2797.00,0.8350
2796.00,0.8228
2795.00,0.8109
2794.00,0.7992
2793.00,0.7878
2792.00,0.7765
2791.00,0.7654
2790.00,0.7546
2789.00,0.7442
2788.00,0.7339
2787.00,0.7237
2786.00,0.7137
2785.00,0.7038
2784.00,0.6943
2783.00,0.6850
2782.00,0.6761
2781.00,0.6676
2780.00,0.6595
2779.00,0.6518
2778.00,0.6444
2777.00,0.6373
2776.00,0.6306
2775.00,0.6244
2774.00,0.6185
2773.00,0.6130
2772.00,0.6080
2771.00,0.6032
2770.00,0.5989
2769.00,0.5949
2768.00,0.5915
2767.00,0.5884
2766.00,0.5857
2765.00,0.5832
2764.00,0.5809
2763.00,0.5789
2762.00,0.5773
2761.00,0.5758
2760.00,0.5745
2759.00,0.5733
2758.00,0.5722
2757.00,0.5711
2756.00,0.5700
2755.00,0.5691
2754.00,0.5683
2753.00,0.5677
2752.00,0.5673
2751.00,0.5671
2750.00,0.5672
2749.00,0.5674
2748.00,0.5678
2747.00,0.5683
2746.00,0.5690
2745.00,0.5700
2744.00,0.5713
2743.00,0.5729
2742.00,0.5748
2741.00,0.5770
2740.00,0.5794
2739.00,0.5822
2738.00,0.5851
2737.00,0.5884
2736.00,0.5920
2735.00,0.5958
2734.00,0.5998
2733.00,0.6039
2732.00,0.6077
2731.00,0.6110
2730.00,0.6137
2729.00,0.6157
2728.00,0.6170
2727.00,0.6178
2726.00,0.6179
2725.00,0.6175
2724.00,0.6165
2723.00,0.6152
2722.00,0.6135
2721.00,0.6115
2720.00,0.6089
2719.00,0.6059
2718.00,0.6025
2717.00,0.5987
2716.00,0.5947
2715.00,0.5904
2714.00,0.5861
2713.00,0.5819
2712.00,0.5782
2711.00,0.5748
2710.00,0.5717
2709.00,0.5690
2708.00,0.5667
2707.00,0.5648
2706.00,0.5633
2705.00,0.5620
2704.00,0.5610
2703.00,0.5603
2702.00,0.5598
2701.00,0.5596
2700.00,0.5596
2699.00,0.5598
2698.00,0.5602
2697.00,0.5609
2696.00,0.5617
2695.00,0.5628
2694.00,0.5639
2693.00,0.5651
2692.00,0.5663
2691.00,0.5675
2690.00,0.5687
2689.00,0.5699
2688.00,0.5710
2687.00,0.5719
2686.00,0.5726
2685.00,0.5732
2684.00,0.5737
2683.00,0.5742
2682.00,0.5745
2681.00,0.5747
2680.00,0.5748
2679.00,0.5747
2678.00,0.5747
2677.00,0.5748
2676.00,0.5749
2675.00,0.5750
2674.00,0.5749
2673.00,0.5747
2672.00,0.5744
2671.00,0.5738
2670.00,0.5729
2669.00,0.5717
2668.00,0.5703
2667.00,0.5687
2666.00,0.5669
2665.00,0.5649
2664.00,0.5627
2663.00,0.5603
2662.00,0.5578
2661.00,0.5554
2660.00,0.5531
2659.00,0.5509
2658.00,0.5488
2657.00,0.5466
2656.00,0.5444
2655.00,0.5422
2654.00,0.5403
2653.00,0.5386
2652.00,0.5370
2651.00,0.5355
2650.00,0.5340
2649.00,0.5325
2648.00,0.5311
2647.00,0.5297
2646.00,0.5285
2645.00,0.5273
2644.00,0.5262
2643.00,0.5252
2642.00,0.5241
2641.00,0.5231
2640.00,0.5219
2639.00,0.5208
2638.00,0.5197
2637.00,0.5188
2636.00,0.5178
2635.00,0.5169
2634.00,0.5159
2633.00,0.5150
2632.00,0.5140
2631.00,0.5131
2630.00,0.5122
2629.00,0.5113
2628.00,0.5104
2627.00,0.5095
2626.00,0.5086
2625.00,0.5077
2624.00,0.5068
2623.00,0.5060
2622.00,0.5052
2621.00,0.5043
2620.00,0.5034
2619.00,0.5025
2618.00,0.5016
2617.00,0.5006
2616.00,0.4997
2615.00,0.4987
2614.00,0.4978
2613.00,0.4968
2612.00,0.4959
2611.00,0.4949
2610.00,0.4939
2609.00,0.4928
2608.00,0.4916
2607.00,0.4904
2606.00,0.4892
2605.00,0.4879
2604.00,0.4867
2603.00,0.4854
2602.00,0.4840
2601.00,0.4826
2600.00,0.4810
2599.00,0.4794
2598.00,0.4778
2597.00,0.4763
2596.00,0.4747
2595.00,0.4730
2594.00,0.4713
2593.00,0.4695
2592.00,0.4678
2591.00,0.4660
2590.00,0.4642
2589.00,0.4624
2588.00,0.4607
2587.00,0.4589
2586.00,0.4571
2585.00,0.4553
2584.00,0.4534
2583.00,0.4515
2582.00,0.4496
2581.00,0.4478
2580.00,0.4460
2579.00,0.4443
2578.00,0.4425
2577.00,0.4407
2576.00,0.4390
2575.00,0.4372
2574.00,0.4354
2573.00,0.4337
2572.00,0.4320
2571.00,0.4303
2570.00,0.4286
2569.00,0.4269
2568.00,0.4251
2567.00,0.4234
2566.00,0.4218
2565.00,0.4202
2564.00,0.4186
2563.00,0.4171
2562.00,0.4157
2561.00,0.4144
2560.00,0.4131
2559.00,0.4117
2558.00,0.4105
2557.00,0.4092
2556.00,0.4081
2555.00,0.4069
2554.00,0.4059
2553.00,0.4049
2552.00,0.4039
2551.00,0.4029
2550.00,0.4020
2549.00,0.4012
2548.00,0.4003
2547.00,0.3995
2546.00,0.3987
2545.00,0.3979
2544.00,0.3971
2543.00,0.3963
2542.00,0.3955
2541.00,0.3948
2540.00,0.3942
2539.00,0.3936
2538.00,0.3929
2537.00,0.3923
2536.00,0.3916
2535.00,0.3909
2534.00,0.3902
2533.00,0.3894
2532.00,0.3886
2531.00,0.3878
2530.00,0.3869
2529.00,0.3860
2528.00,0.3850
2527.00,0.3839
2526.00,0.3828
2525.00,0.3818
2524.00,0.3808
2523.00,0.3797
2522.00,0.3787
2521.00,0.3777
2520.00,0.3766
2519.00,0.3756
2518.00,0.3745
2517.00,0.3735
2516.00,0.3725
2515.00,0.3716
2514.00,0.3706
2513.00,0.3698
2512.00,0.3690
2511.00,0.3682
2510.00,0.3674
2509.00,0.3667
2508.00,0.3661
2507.00,0.3654
2506.00,0.3647
2505.00,0.3640
2504.00,0.3634
2503.00,0.3627
2502.00,0.3621
2501.00,0.3615
2500.00,0.3609
2499.00,0.3604
2498.00,0.3598
2497.00,0.3592
2496.00,0.3586
2495.00,0.3580
2494.00,0.3574
2493.00,0.3569
2492.00,0.3564
2491.00,0.3559
2490.00,0.3553
2489.00,0.3548
2488.00,0.3543
2487.00,0.3538
2486.00,0.3532
2485.00,0.3528
2484.00,0.3524
2483.00,0.3520
2482.00,0.3516
2481.00,0.3512
2480.00,0.3508
2479.00,0.3504
2478.00,0.3500
2477.00,0.3497
2476.00,0.3494
2475.00,0.3490
2474.00,0.3487
2473.00,0.3485
2472.00,0.3482
2471.00,0.3480
2470.00,0.3478
2469.00,0.3476
2468.00,0.3474
2467.00,0.3472
2466.00,0.3471
2465.00,0.3469
2464.00,0.3467
2463.00,0.3466
2462.00,0.3464
2461.00,0.3463
2460.00,0.3461
2459.00,0.3460
2458.00,0.3459
2457.00,0.3458
2456.00,0.3457
2455.00,0.3456
2454.00,0.3455
2453.00,0.3454
2452.00,0.3453
2451.00,0.3452
2450.00,0.3452
2449.00,0.3451
2448.00,0.3449
2447.00,0.3448
2446.00,0.3447
2445.00,0.3447
2444.00,0.3447
2443.00,0.3447
2442.00,0.3446
2441.00,0.3446
2440.00,0.3446
2439.00,0.3446
2438.00,0.3447
2437.00,0.3448
2436.00,0.3449
2435.00,0.3449
2434.00,0.3450
2433.00,0.3451
2432.00,0.3452
2431.00,0.3452
2430.00,0.3453
2429.00,0.3454
2428.00,0.3455
2427.00,0.3457
2426.00,0.3458
2425.00,0.3460
2424.00,0.3461
2423.00,0.3462
2422.00,0.3463
2421.00,0.3464
2420.00,0.3465
2419.00,0.3466
2418.00,0.3467
2417.00,0.3468
2416.00,0.3468
2415.00,0.3468
2414.00,0.3467
2413.00,0.3467
2412.00,0.3466
2411.00,0.3466
2410.00,0.3466
2409.00,0.3465
2408.00,0.3465
2407.00,0.3464
2406.00,0.3463
2405.00,0.3462
2404.00,0.3461
2403.00,0.3460
2402.00,0.3459
2401.00,0.3457
2400.00,0.3456
2399.00,0.3455
2398.00,0.3453
2397.00,0.3452
2396.00,0.3450
2395.00,0.3449
2394.00,0.3447
2393.00,0.3445
2392.00,0.3444
2391.00,0.3443
2390.00,0.3442
2389.00,0.3441
2388.00,0.3440
2387.00,0.3439
2386.00,0.3439
2385.00,0.3440
2384.00,0.3441
2383.00,0.3442
2382.00,0.3443
2381.00,0.3445
2380.00,0.3447
2379.00,0.3449
2378.00,0.3451
2377.00,0.3453
2376.00,0.3454
2375.00,0.3454
2374.00,0.3453
2373.00,0.3451
2372.00,0.3451
2371.00,0.3450
2370.00,0.3450
2369.00,0.3450
2368.00,0.3450
2367.00,0.3450
2366.00,0.3451
2365.00,0.3452
2364.00,0.3453
2363.00,0.3453
2362.00,0.3453
2361.00,0.3454
2360.00,0.3454
2359.00,0.3453
2358.00,0.3452
2357.00,0.3452
2356.00,0.3452
2355.00,0.3451
2354.00,0.3451
2353.00,0.3450
2352.00,0.3450
2351.00,0.3449
2350.00,0.3448
2349.00,0.3448
2348.00,0.3447
2347.00,0.3446
2346.00,0.3445
2345.00,0.3444
2344.00,0.3444
2343.00,0.3443
2342.00,0.3442
2341.00,0.3441
2340.00,0.3441
2339.00,0.3440
2338.00,0.3438
2337.00,0.3437
2336.00,0.3435
2335.00,0.3433
2334.00,0.3432
2333.00,0.3431
2332.00,0.3430
2331.00,0.3429
2330.00,0.3427
2329.00,0.3425
2328.00,0.3422
2327.00,0.3420
2326.00,0.3418
2325.00,0.3416
2324.00,0.3415
2323.00,0.3414
2322.00,0.3412
2321.00,0.3410
2320.00,0.3407
2319.00,0.3404
2318.00,0.3400
2317.00,0.3397
2316.00,0.3395
2315.00,0.3393
2314.00,0.3391
2313.00,0.3389
2312.00,0.3387
2311.00,0.3384
2310.00,0.3381
2309.00,0.3377
2308.00,0.3373
2307.00,0.3369
2306.00,0.3365
2305.00,0.3362
2304.00,0.3359
2303.00,0.3356
2302.00,0.3353
2301.00,0.3349
2300.00,0.3346
2299.00,0.3342
2298.00,0.3338
2297.00,0.3335
2296.00,0.3332
2295.00,0.3329
2294.00,0.3326
2293.00,0.3322
2292.00,0.3319
2291.00,0.3315
2290.00,0.3312
2289.00,0.3309
2288.00,0.3306
2287.00,0.3302
2286.00,0.3299
2285.00,0.3296
2284.00,0.3293
2283.00,0.3290
2282.00,0.3287
2281.00,0.3284
2280.00,0.3281
2279.00,0.3278
2278.00,0.3275
2277.00,0.3273
2276.00,0.3271
2275.00,0.3269
2274.00,0.3268
2273.00,0.3266
2272.00,0.3264
2271.00,0.3262
2270.00,0.3260
2269.00,0.3259
2268.00,0.3257
2267.00,0.3256
2266.00,0.3254
2265.00,0.3252
2264.00,0.3251
2263.00,0.3249
2262.00,0.3247
2261.00,0.3246
2260.00,0.3243
2259.00,0.3241
2258.00,0.3238
2257.00,0.3235
2256.00,0.3234
2255.00,0.3232
2254.00,0.3229
2253.00,0.3226
2252.00,0.3223
2251.00,0.3220
2250.00,0.3217
2249.00,0.3214
2248.00,0.3211
2247.00,0.3207
2246.00,0.3204
2245.00,0.3201
2244.00,0.3199
2243.00,0.3197
2242.00,0.3195
2241.00,0.3192
2240.00,0.3190
2239.00,0.3188
2238.00,0.3187
2237.00,0.3185
2236.00,0.3184
2235.00,0.3183
2234.00,0.3182
2233.00,0.3181
2232.00,0.3180
2231.00,0.3180
2230.00,0.3180
2229.00,0.3180
2228.00,0.3181
2227.00,0.3180
2226.00,0.3180
2225.00,0.3179
2224.00,0.3179
2223.00,0.3179
2222.00,0.3179
2221.00,0.3178
2220.00,0.3178
2219.00,0.3177
2218.00,0.3174
2217.00,0.3172
2216.00,0.3170
2215.00,0.3168
2214.00,0.3167
2213.00,0.3166
2212.00,0.3165
2211.00,0.3164
2210.00,0.3163
2209.00,0.3162
2208.00,0.3161
2207.00,0.3159
2206.00,0.3157
2205.00,0.3156
2204.00,0.3154
2203.00,0.3153
2202.00,0.3152
2201.00,0.3151
2200.00,0.3149
2199.00,0.3149
2198.00,0.3148
2197.00,0.3149
2196.00,0.3150
2195.00,0.3150
2194.00,0.3151
2193.00,0.3152
2192.00,0.3153
2191.00,0.3153
2190.00,0.3153
2189.00,0.3153
2188.00,0.3154
2187.00,0.3155
2186.00,0.3155
2185.00,0.3155
2184.00,0.3155
2183.00,0.3154
2182.00,0.3154
2181.00,0.3153
2180.00,0.3152
2179.00,0.3151
2178.00,0.3149
2177.00,0.3147
2176.00,0.3145
2175.00,0.3143
2174.00,0.3141
2173.00,0.3138
2172.00,0.3136
2171.00,0.3133
2170.00,0.3131
2169.00,0.3129
2168.00,0.3127
2167.00,0.3126
2166.00,0.3124
2165.00,0.3122
2164.00,0.3120
2163.00,0.3118
2162.00,0.3117
2161.00,0.3116
2160.00,0.3115
2159.00,0.3114
2158.00,0.3113
2157.00,0.3113
2156.00,0.3112
2155.00,0.3111
2154.00,0.3110
2153.00,0.3109
2152.00,0.3108
2151.00,0.3107
2150.00,0.3106
2149.00,0.3104
2148.00,0.3102
2147.00,0.3099
2146.00,0.3096
2145.00,0.3092
2144.00,0.3088
2143.00,0.3083
2142.00,0.3079
2141.00,0.3075
2140.00,0.3071
2139.00,0.3067
2138.00,0.3063
2137.00,0.3059
2136.00,0.3055
2135.00,0.3051
2134.00,0.3047
2133.00,0.3044
2132.00,0.3041
2131.00,0.3038
2130.00,0.3035
2129.00,0.3032
2128.00,0.3030
2127.00,0.3028
2126.00,0.3026
2125.00,0.3024
2124.00,0.3023
2123.00,0.3021
2122.00,0.3020
2121.00,0.3019
2120.00,0.3018
2119.00,0.3018
2118.00,0.3017
2117.00,0.3017
2116.00,0.3017
2115.00,0.3016
2114.00,0.3016
2113.00,0.3015
2112.00,0.3015
2111.00,0.3014
2110.00,0.3013
2109.00,0.3013
2108.00,0.3013
2107.00,0.3013
2106.00,0.3013
2105.00,0.3013
2104.00,0.3013
2103.00,0.3013
2102.00,0.3012
2101.00,0.3012
2100.00,0.3011
2099.00,0.3010
2098.00,0.3009
2097.00,0.3008
2096.00,0.3007
2095.00,0.3007
2094.00,0.3006
2093.00,0.3005
2092.00,0.3005
2091.00,0.3004
2090.00,0.3002
2089.00,0.3001
2088.00,0.3000
2087.00,0.3000
2086.00,0.2999
2085.00,0.2998
2084.00,0.2998
2083.00,0.2998
2082.00,0.2998
2081.00,0.2999
2080.00,0.3000
2079.00,0.3001
2078.00,0.3002
2077.00,0.3003
2076.00,0.3004
2075.00,0.3005
2074.00,0.3006
2073.00,0.3007
2072.00,0.3008
2071.00,0.3009
2070.00,0.3010
2069.00,0.3013
2068.00,0.3015
2067.00,0.3017
2066.00,0.3018
2065.00,0.3018
2064.00,0.3019
2063.00,0.3020
2062.00,0.3021
2061.00,0.3022
2060.00,0.3023
2059.00,0.3023
2058.00,0.3024
2057.00,0.3025
2056.00,0.3026
2055.00,0.3027
2054.00,0.3028
2053.00,0.3029
2052.00,0.3031
2051.00,0.3032
2050.00,0.3034
2049.00,0.3036
2048.00,0.3038
2047.00,0.3039
2046.00,0.3041
2045.00,0.3044
2044.00,0.3046
2043.00,0.3047
2042.00,0.3048
2041.00,0.3049
2040.00,0.3050
2039.00,0.3052
2038.00,0.3053
2037.00,0.3055
2036.00,0.3056
2035.00,0.3057
2034.00,0.3058
2033.00,0.3059
2032.00,0.3061
2031.00,0.3062
2030.00,0.3062
2029.00,0.3063
2028.00,0.3063
2027.00,0.3063
2026.00,0.3061
2025.00,0.3059
2024.00,0.3057
2023.00,0.3055
2022.00,0.3052
2021.00,0.3050
2020.00,0.3047
2019.00,0.3041
2018.00,0.3033
2017.00,0.3025
2016.00,0.3017
2015.00,0.3010
2014.00,0.3002
2013.00,0.2996
2012.00,0.2990
2011.00,0.2984
2010.00,0.2978
2009.00,0.2972
2008.00,0.2968
2007.00,0.2964
2006.00,0.2960
2005.00,0.2957
2004.00,0.2954
2003.00,0.2951
2002.00,0.2949
2001.00,0.2947
2000.00,0.2946
1999.00,0.2944
1998.00,0.2943
1997.00,0.2944
1996.00,0.2946
1995.00,0.2947
1994.00,0.2946
1993.00,0.2944
1992.00,0.2943
1991.00,0.2943
1990.00,0.2943
1989.00,0.2943
1988.00,0.2942
1987.00,0.2941
1986.00,0.2941
1985.00,0.2941
1984.00,0.2942
1983.00,0.2942
1982.00,0.2942
1981.00,0.2942
1980.00,0.2942
1979.00,0.2941
1978.00,0.2940
1977.00,0.2939
1976.00,0.2938
1975.00,0.2937
1974.00,0.2936
1973.00,0.2936
1972.00,0.2937
1971.00,0.2939
1970.00,0.2939
1969.00,0.2939
1968.00,0.2936
1967.00,0.2933
1966.00,0.2932
1965.00,0.2932
1964.00,0.2933
1963.00,0.2932
1962.00,0.2932
1961.00,0.2932
1960.00,0.2933
1959.00,0.2934
1958.00,0.2935
1957.00,0.2936
1956.00,0.2937
1955.00,0.2938
1954.00,0.2939
1953.00,0.2940
1952.00,0.2942
1951.00,0.2943
1950.00,0.2945
1949.00,0.2947
1948.00,0.2949
1947.00,0.2952
1946.00,0.2956
1945.00,0.2959
1944.00,0.2960
1943.00,0.2958
1942.00,0.2958
1941.00,0.2959
1940.00,0.2961
1939.00,0.2962
1938.00,0.2962
1937.00,0.2962
1936.00,0.2963
1935.00,0.2963
1934.00,0.2962
1933.00,0.2962
1932.00,0.2962
1931.00,0.2962
1930.00,0.2962
1929.00,0.2962
1928.00,0.2962
1927.00,0.2962
1926.00,0.2970
1925.00,0.2972
1924.00,0.2970
1923.00,0.2967
1922.00,0.2964
1921.00,0.2964
1920.00,0.2965
1919.00,0.2967
1918.00,0.2971
1917.00,0.2977
1916.00,0.2983
1915.00,0.2986
1914.00,0.2989
1913.00,0.2992
1912.00,0.2995
1911.00,0.2997
1910.00,0.2999
1909.00,0.3001
1908.00,0.3004
1907.00,0.3006
1906.00,0.3008
1905.00,0.3010
1904.00,0.3013
1903.00,0.3014
1902.00,0.3014
1901.00,0.3015
1900.00,0.3017
1899.00,0.3019
1898.00,0.3021
1897.00,0.3017
1896.00,0.3017
1895.00,0.3017
1894.00,0.3017
1893.00,0.3017
1892.00,0.3017
1891.00,0.3017
1890.00,0.3015
1889.00,0.3014
1888.00,0.3016
1887.00,0.3017
1886.00,0.3016
1885.00,0.3014
1884.00,0.3013
1883.00,0.3012
1882.00,0.3010
1881.00,0.3009
1880.00,0.3009
1879.00,0.3008
1878.00,0.3007
1877.00,0.3006
1876.00,0.3006
1875.00,0.3004
1874.00,0.3001
1873.00,0.2999
1872.00,0.3001
1871.00,0.3003
1870.00,0.3004
1869.00,0.3005
1868.00,0.3006
1867.00,0.3007
1866.00,0.3007
1865.00,0.3007
1864.00,0.3008
1863.00,0.3008
1862.00,0.3007
1861.00,0.3007
1860.00,0.3006
1859.00,0.3005
1858.00,0.3003
1857.00,0.3002
1856.00,0.3001
1855.00,0.3001
1854.00,0.3000
1853.00,0.2999
1852.00,0.3000
1851.00,0.2999
1850.00,0.2999
1849.00,0.2999
1848.00,0.3000
1847.00,0.3000
1846.00,0.3001
1845.00,0.2986
1844.00,0.2993
1843.00,0.3004
1842.00,0.3009
1841.00,0.3013
1840.00,0.3015
1839.00,0.3017
1838.00,0.3018
1837.00,0.3020
1836.00,0.3022
1835.00,0.3022
1834.00,0.3022
1833.00,0.3025
1832.00,0.3029
1831.00,0.3034
1830.00,0.3039
1829.00,0.3048
1828.00,0.3057
1827.00,0.3063
1826.00,0.3066
1825.00,0.3072
1824.00,0.3079
1823.00,0.3085
1822.00,0.3089
1821.00,0.3093
1820.00,0.3098
1819.00,0.3102
1818.00,0.3104
1817.00,0.3108
1816.00,0.3113
1815.00,0.3118
1814.00,0.3123
1813.00,0.3128
1812.00,0.3133
1811.00,0.3139
1810.00,0.3145
1809.00,0.3151
1808.00,0.3158
1807.00,0.3165
1806.00,0.3173
1805.00,0.3184
1804.00,0.3195
1803.00,0.3203
1802.00,0.3212
1801.00,0.3225
1800.00,0.3245
1799.00,0.3264
1798.00,0.3279
1797.00,0.3288
1796.00,0.3296
1795.00,0.3310
1794.00,0.3332
1793.00,0.3359
1792.00,0.3390
1791.00,0.3419
1790.00,0.3443
1789.00,0.3464
1788.00,0.3485
1787.00,0.3505
1786.00,0.3524
1785.00,0.3548
1784.00,0.3575
1783.00,0.3601
1782.00,0.3625
1781.00,0.3648
1780.00,0.3672
1779.00,0.3694
1778.00,0.3710
1777.00,0.3720
1776.00,0.3726
1775.00,0.3734
1774.00,0.3745
1773.00,0.3763
1772.00,0.3786
1771.00,0.3809
1770.00,0.3824
1769.00,0.3834
1768.00,0.3842
1767.00,0.3851
1766.00,0.3860
1765.00,0.3872
1764.00,0.3887
1763.00,0.3909
1762.00,0.3938
1761.00,0.3975
1760.00,0.4015
1759.00,0.4057
1758.00,0.4102
1757.00,0.4157
1756.00,0.4224
1755.00,0.4297
1754.00,0.4378
1753.00,0.4476
1752.00,0.4601
1751.00,0.4756
1750.00,0.4934
1749.00,0.5136
1748.00,0.5368
1747.00,0.5626
1746.00,0.5904
1745.00,0.6189
1744.00,0.6469
1743.00,0.6720
1742.00,0.6925
1741.00,0.7071
1740.00,0.7149
1739.00,0.7157
1738.00,0.7114
1737.00,0.7050
1736.00,0.6977
1735.00,0.6890
1734.00,0.6798
1733.00,0.6718
1732.00,0.6654
1731.00,0.6599
1730.00,0.6556
1729.00,0.6531
1728.00,0.6531
1727.00,0.6550
1726.00,0.6589
1725.00,0.6647
1724.00,0.6716
1723.00,0.6790
1722.00,0.6865
1721.00,0.6946
1720.00,0.7036
1719.00,0.7132
1718.00,0.7238
1717.00,0.7349
1716.00,0.7452
1715.00,0.7541
1714.00,0.7619
1713.00,0.7686
1712.00,0.7735
1711.00,0.7759
1710.00,0.7761
1709.00,0.7742
1708.00,0.7699
1707.00,0.7627
1706.00,0.7526
1705.00,0.7403
1704.00,0.7273
1703.00,0.7156
1702.00,0.7058
1701.00,0.6976
1700.00,0.6906
1699.00,0.6848
1698.00,0.6803
1697.00,0.6771
1696.00,0.6759
1695.00,0.6764
1694.00,0.6779
1693.00,0.6798
1692.00,0.6819
1691.00,0.6838
1690.00,0.6850
1689.00,0.6858
1688.00,0.6864
1687.00,0.6877
1686.00,0.6903
1685.00,0.6949
1684.00,0.7020
1683.00,0.7093
1682.00,0.7146
1681.00,0.7184
1680.00,0.7217
1679.00,0.7248
1678.00,0.7287
1677.00,0.7342
1676.00,0.7419
1675.00,0.7506
1674.00,0.7587
1673.00,0.7659
1672.00,0.7731
1671.00,0.7811
1670.00,0.7905
1669.00,0.8014
1668.00,0.8121
1667.00,0.8213
1666.00,0.8298
1665.00,0.8394
1664.00,0.8511
1663.00,0.8648
1662.00,0.8797
1661.00,0.8949
1660.00,0.9102
1659.00,0.9248
1658.00,0.9386
1657.00,0.9524
1656.00,0.9678
1655.00,0.9872
1654.00,1.0163
1653.00,1.0585
1652.00,1.1036
1651.00,1.1411
1650.00,1.1737
1649.00,1.2104
1648.00,1.2589
1647.00,1.3232
1646.00,1.4004
1645.00,1.4849
1644.00,1.5734
1643.00,1.6650
1642.00,1.7631
1641.00,1.8743
1640.00,1.9993
1639.00,2.1283
1638.00,2.2554
1637.00,2.3952
1636.00,2.5548
1635.00,2.6800
1634.00,2.7173
1633.00,2.7033
1632.00,2.6530
1631.00,2.5427
1630.00,2.3903
1629.00,2.2310
1628.00,2.0796
1627.00,1.9422
1626.00,1.8233
1625.00,1.7218
1624.00,1.6319
1623.00,1.5523
1622.00,1.4872
1621.00,1.4379
1620.00,1.4002
1619.00,1.3693
1618.00,1.3434
1617.00,1.3238
1616.00,1.3110
1615.00,1.3030
1614.00,1.2988
1613.00,1.2978
1612.00,1.2992
1611.00,1.3017
1610.00,1.3049
1609.00,1.3093
1608.00,1.3143
1607.00,1.3185
1606.00,1.3220
1605.00,1.3259
1604.00,1.3303
1603.00,1.3342
1602.00,1.3375
1601.00,1.3415
1600.00,1.3458
1599.00,1.3495
1598.00,1.3534
1597.00,1.3591
1596.00,1.3674
1595.00,1.3776
1594.00,1.3905
1593.00,1.4079
1592.00,1.4298
1591.00,1.4548
1590.00,1.4828
1589.00,1.5155
1588.00,1.5525
1587.00,1.5918
1586.00,1.6331
1585.00,1.6789
1584.00,1.7295
1583.00,1.7805
1582.00,1.8289
1581.00,1.8769
1580.00,1.9239
1579.00,1.9650
1578.00,1.9984
1577.00,2.0308
1576.00,2.0623
1575.00,2.0797
1574.00,2.0800
1573.00,2.0747
1572.00,2.0676
1571.00,2.0503
1570.00,2.0196
1569.00,1.9851
1568.00,1.9506
1567.00,1.9106
1566.00,1.8634
1565.00,1.8144
1564.00,1.7665
1563.00,1.7186
1562.00,1.6710
1561.00,1.6238
1560.00,1.5697
1559.00,1.5093
1558.00,1.4555
1557.00,1.4149
1556.00,1.3810
1555.00,1.3465
1554.00,1.3113
1553.00,1.2788
1552.00,1.2494
1551.00,1.2207
1550.00,1.1923
1549.00,1.1666
1548.00,1.1450
1547.00,1.1257
1546.00,1.1068
1545.00,1.0880
1544.00,1.0706
1543.00,1.0555
1542.00,1.0421
1541.00,1.0288
1540.00,1.0153
1539.00,1.0015
1538.00,0.9879
1537.00,0.9753
1536.00,0.9631
1535.00,0.9499
1534.00,0.9353
1533.00,0.9215
1532.00,0.9096
1531.00,0.8993
1530.00,0.8901
1529.00,0.8819
1528.00,0.8744
1527.00,0.8675
1526.00,0.8616
1525.00,0.8580
1524.00,0.8570
1523.00,0.8580
1522.00,0.8611
1521.00,0.8670
1520.00,0.8746
1519.00,0.8825
1518.00,0.8903
1517.00,0.8989
1516.00,0.9083
1515.00,0.9178
1514.00,0.9278
1513.00,0.9392
1512.00,0.9518
1511.00,0.9645
1510.00,0.9765
1509.00,0.9870
1508.00,0.9933
1507.00,0.9940
1506.00,0.9876
1505.00,0.9745
1504.00,0.9568
1503.00,0.9358
1502.00,0.9135
1501.00,0.8918
1500.00,0.8722
1499.00,0.8549
1498.00,0.8401
1497.00,0.8285
1496.00,0.8199
1495.00,0.8133
1494.00,0.8087
1493.00,0.8066
1492.00,0.8067
1491.00,0.8081
1490.00,0.8112
1489.00,0.8175
1488.00,0.8270
1487.00,0.8395
1486.00,0.8550
1485.00,0.8746
1484.00,0.8984
1483.00,0.9261
1482.00,0.9588
1481.00,0.9977
1480.00,1.0427
1479.00,1.0937
1478.00,1.1535
1477.00,1.2261
1476.00,1.3128
1475.00,1.4145
1474.00,1.5392
1473.00,1.7028
1472.00,1.9163
1471.00,2.1716
1470.00,2.4542
1469.00,2.7651
1468.00,3.1045
1467.00,3.4095
1466.00,3.6123
1465.00,3.7651
1464.00,3.7983
1463.00,3.7248
1462.00,3.7587
1461.00,3.9979
1460.00,4.1309
1459.00,3.8887
1458.00,3.8078
1457.00,3.9754
1456.00,3.9269
1455.00,3.5839
1454.00,3.3952
1453.00,3.3195
1452.00,3.2319
1451.00,3.1050
1450.00,2.9930
1449.00,2.8967
1448.00,2.7851
1447.00,2.6668
1446.00,2.5669
1445.00,2.4808
1444.00,2.3881
1443.00,2.2858
1442.00,2.1859
1441.00,2.0945
1440.00,2.0089
1439.00,1.9254
1438.00,1.8396
1437.00,1.7481
1436.00,1.6547
1435.00,1.5677
1434.00,1.4885
1433.00,1.4128
1432.00,1.3383
1431.00,1.2673
1430.00,1.2035
1429.00,1.1490
1428.00,1.1048
1427.00,1.0705
1426.00,1.0435
1425.00,1.0210
1424.00,1.0021
1423.00,0.9872
1422.00,0.9761
1421.00,0.9675
1420.00,0.9600
1419.00,0.9530
1418.00,0.9468
1417.00,0.9409
1416.00,0.9352
1415.00,0.9298
1414.00,0.9244
1413.00,0.9183
1412.00,0.9114
1411.00,0.9040
1410.00,0.8960
1409.00,0.8875
1408.00,0.8789
1407.00,0.8706
1406.00,0.8625
1405.00,0.8546
1404.00,0.8474
1403.00,0.8418
1402.00,0.8377
1401.00,0.8346
1400.00,0.8323
1399.00,0.8309
1398.00,0.8299
1397.00,0.8287
1396.00,0.8274
1395.00,0.8268
1394.00,0.8277
1393.00,0.8306
1392.00,0.8369
1391.00,0.8487
1390.00,0.8683
1389.00,0.8991
1388.00,0.9451
1387.00,1.0089
1386.00,1.0889
1385.00,1.1815
1384.00,1.2860
1383.00,1.4053
1382.00,1.5430
1381.00,1.7019
1380.00,1.8828
1379.00,2.0724
1378.00,2.2252
1377.00,2.2764
1376.00,2.2100
1375.00,2.0691
1374.00,1.9063
1373.00,1.7581
1372.00,1.6393
1371.00,1.5504
1370.00,1.4875
1369.00,1.4467
1368.00,1.4216
1367.00,1.4018
1366.00,1.3751
1365.00,1.3343
1364.00,1.2803
1363.00,1.2207
1362.00,1.1650
1361.00,1.1190
1360.00,1.0837
1359.00,1.0572
1358.00,1.0376
1357.00,1.0234
1356.00,1.0133
1355.00,1.0059
1354.00,1.0000
1353.00,0.9943
1352.00,0.9881
1351.00,0.9808
1350.00,0.9723
1349.00,0.9631
1348.00,0.9539
1347.00,0.9456
1346.00,0.9385
1345.00,0.9329
1344.00,0.9286
1343.00,0.9252
1342.00,0.9215
1341.00,0.9162
1340.00,0.9084
1339.00,0.8985
1338.00,0.8877
1337.00,0.8769
1336.00,0.8668
1335.00,0.8578
1334.00,0.8504
1333.00,0.8446
1332.00,0.8405
1331.00,0.8379
1330.00,0.8369
1329.00,0.8372
1328.00,0.8388
1327.00,0.8417
1326.00,0.8456
1325.00,0.8503
1324.00,0.8561
1323.00,0.8630
1322.00,0.8710
1321.00,0.8796
1320.00,0.8884
1319.00,0.8971
1318.00,0.9054
1317.00,0.9133
1316.00,0.9204
1315.00,0.9270
1314.00,0.9330
1313.00,0.9386
1312.00,0.9440
1311.00,0.9494
1310.00,0.9551
1309.00,0.9610
1308.00,0.9673
1307.00,0.9741
1306.00,0.9814
1305.00,0.9895
1304.00,0.9985
1303.00,1.0083
1302.00,1.0185
1301.00,1.0285
1300.00,1.0375
1299.00,1.0443
1298.00,1.0479
1297.00,1.0476
1296.00,1.0432
1295.00,1.0346
1294.00,1.0225
1293.00,1.0077
1292.00,0.9913
1291.00,0.9744
1290.00,0.9579
1289.00,0.9426
1288.00,0.9292
1287.00,0.9182
1286.00,0.9100
1285.00,0.9046
1284.00,0.9021
1283.00,0.9027
1282.00,0.9065
1281.00,0.9132
1280.00,0.9225
1279.00,0.9337
1278.00,0.9456
1277.00,0.9567
1276.00,0.9660
1275.00,0.9727
1274.00,0.9767
1273.00,0.9785
1272.00,0.9792
1271.00,0.9799
1270.00,0.9812
1269.00,0.9838
1268.00,0.9878
1267.00,0.9935
1266.00,1.0002
1265.00,1.0075
1264.00,1.0146
1263.00,1.0206
1262.00,1.0251
1261.00,1.0273
1260.00,1.0271
1259.00,1.0247
1258.00,1.0207
1257.00,1.0156
1256.00,1.0101
1255.00,1.0049
1254.00,1.0004
1253.00,0.9973
1252.00,0.9959
1251.00,0.9965
1250.00,0.9991
1249.00,1.0034
1248.00,1.0090
1247.00,1.0155
1246.00,1.0221
1245.00,1.0283
1244.00,1.0330
1243.00,1.0357
1242.00,1.0359
1241.00,1.0338
1240.00,1.0298
1239.00,1.0240
1238.00,1.0162
1237.00,1.0064
1236.00,0.9949
1235.00,0.9820
1234.00,0.9682
1233.00,0.9539
1232.00,0.9396
1231.00,0.9254
1230.00,0.9115
1229.00,0.8976
1228.00,0.8836
1227.00,0.8697
1226.00,0.8559
1225.00,0.8426
1224.00,0.8299
1223.00,0.8180
1222.00,0.8066
1221.00,0.7956
1220.00,0.7853
1219.00,0.7758
1218.00,0.7673
1217.00,0.7597
1216.00,0.7533
1215.00,0.7481
1214.00,0.7441
1213.00,0.7414
1212.00,0.7398
1211.00,0.7391
1210.00,0.7389
1209.00,0.7384
1208.00,0.7372
1207.00,0.7348
1206.00,0.7312
1205.00,0.7262
1204.00,0.7204
1203.00,0.7141
1202.00,0.7078
1201.00,0.7013
1200.00,0.6945
1199.00,0.6876
1198.00,0.6807
1197.00,0.6740
1196.00,0.6679
1195.00,0.6627
1194.00,0.6585
1193.00,0.6553
1192.00,0.6528
1191.00,0.6507
1190.00,0.6487
1189.00,0.6465
1188.00,0.6439
1187.00,0.6413
1186.00,0.6391
1185.00,0.6377
1184.00,0.6371
1183.00,0.6374
1182.00,0.6380
1181.00,0.6389
1180.00,0.6398
1179.00,0.6410
1178.00,0.6422
1177.00,0.6433
1176.00,0.6441
1175.00,0.6450
1174.00,0.6464
1173.00,0.6480
1172.00,0.6497
1171.00,0.6509
1170.00,0.6511
1169.00,0.6500
1168.00,0.6477
1167.00,0.6446
1166.00,0.6413
1165.00,0.6384
1164.00,0.6361
1163.00,0.6345
1162.00,0.6333
1161.00,0.6325
1160.00,0.6320
1159.00,0.6317
1158.00,0.6318
1157.00,0.6320
1156.00,0.6322
1155.00,0.6320
1154.00,0.6313
1153.00,0.6297
1152.00,0.6274
1151.00,0.6246
1150.00,0.6216
1149.00,0.6185
1148.00,0.6153
1147.00,0.6123
1146.00,0.6095
1145.00,0.6067
1144.00,0.6041
1143.00,0.6016
1142.00,0.5990
1141.00,0.5964
1140.00,0.5938
1139.00,0.5914
1138.00,0.5891
1137.00,0.5868
1136.00,0.5844
1135.00,0.5822
1134.00,0.5801
1133.00,0.5782
1132.00,0.5764
1131.00,0.5748
1130.00,0.5734
1129.00,0.5719
1128.00,0.5704
1127.00,0.5690
1126.00,0.5677
1125.00,0.5666
1124.00,0.5656
1123.00,0.5647
1122.00,0.5639
1121.00,0.5631
1120.00,0.5623
1119.00,0.5617
1118.00,0.5613
1117.00,0.5612
1116.00,0.5613
1115.00,0.5617
1114.00,0.5621
1113.00,0.5627
1112.00,0.5632
1111.00,0.5637
1110.00,0.5641
1109.00,0.5642
1108.00,0.5639
1107.00,0.5632
1106.00,0.5621
1105.00,0.5603
1104.00,0.5578
1103.00,0.5550
1102.00,0.5520
1101.00,0.5491
1100.00,0.5464
1099.00,0.5442
1098.00,0.5423
1097.00,0.5407
1096.00,0.5391
1095.00,0.5376
1094.00,0.5364
1093.00,0.5354
1092.00,0.5347
1091.00,0.5344
1090.00,0.5343
1089.00,0.5344
1088.00,0.5348
1087.00,0.5355
1086.00,0.5364
1085.00,0.5376
1084.00,0.5388
1083.00,0.5400
1082.00,0.5413
1081.00,0.5425
1080.00,0.5436
1079.00,0.5445
1078.00,0.5453
1077.00,0.5457
1076.00,0.5458
1075.00,0.5458
1074.00,0.5456
1073.00,0.5453
1072.00,0.5447
1071.00,0.5440
1070.00,0.5432
1069.00,0.5423
1068.00,0.5415
1067.00,0.5407
1066.00,0.5398
1065.00,0.5385
1064.00,0.5368
1063.00,0.5348
1062.00,0.5326
1061.00,0.5300
1060.00,0.5274
1059.00,0.5250
1058.00,0.5229
1057.00,0.5210
1056.00,0.5193
1055.00,0.5176
1054.00,0.5159
1053.00,0.5143
1052.00,0.5130
1051.00,0.5121
1050.00,0.5116
1049.00,0.5111
1048.00,0.5105
1047.00,0.5099
1046.00,0.5095
1045.00,0.5093
1044.00,0.5092
1043.00,0.5092
1042.00,0.5093
1041.00,0.5093
1040.00,0.5092
1039.00,0.5091
1038.00,0.5090
1037.00,0.5089
1036.00,0.5088
1035.00,0.5086
1034.00,0.5083
1033.00,0.5077
1032.00,0.5068
1031.00,0.5060
1030.00,0.5052
1029.00,0.5043
1028.00,0.5035
1027.00,0.5030
1026.00,0.5028
1025.00,0.5029
1024.00,0.5033
1023.00,0.5040
1022.00,0.5050
1021.00,0.5060
1020.00,0.5065
1019.00,0.5067
1018.00,0.5066
1017.00,0.5064
1016.00,0.5062
1015.00,0.5061
1014.00,0.5059
1013.00,0.5051
1012.00,0.5034
1011.00,0.5009
1010.00,0.4977
1009.00,0.4939
1008.00,0.4898
1007.00,0.4857
1006.00,0.4820
1005.00,0.4785
1004.00,0.4752
1003.00,0.4719
1002.00,0.4688
1001.00,0.4658
1000.00,0.4628
999.00,0.4599
998.00,0.4573
997.00,0.4549
996.00,0.4528
995.00,0.4510
994.00,0.4495
993.00,0.4480
992.00,0.4467
991.00,0.4458
990.00,0.4453
989.00,0.4452
988.00,0.4452
987.00,0.4455
986.00,0.4462
985.00,0.4472
984.00,0.4486
983.00,0.4503
982.00,0.4523
981.00,0.4544
980.00,0.4569
979.00,0.4598
978.00,0.4633
977.00,0.4673
976.00,0.4719
975.00,0.4769
974.00,0.4824
973.00,0.4884
972.00,0.4949
971.00,0.5017
970.00,0.5085
969.00,0.5147
968.00,0.5197
967.00,0.5230
966.00,0.5238
965.00,0.5216
964.00,0.5164
963.00,0.5090
962.00,0.5005
961.00,0.4919
960.00,0.4839
959.00,0.4772
958.00,0.4719
957.00,0.4678
956.00,0.4647
955.00,0.4624
954.00,0.4606
953.00,0.4592
952.00,0.4580
951.00,0.4570
950.00,0.4562
949.00,0.4556
948.00,0.4552
947.00,0.4550
946.00,0.4548
945.00,0.4545
944.00,0.4542
943.00,0.4539
942.00,0.4536
941.00,0.4533
940.00,0.4532
939.00,0.4530
938.00,0.4529
937.00,0.4525
936.00,0.4519
935.00,0.4510
934.00,0.4500
933.00,0.4487
932.00,0.4471
931.00,0.4451
930.00,0.4428
929.00,0.4403
928.00,0.4377
927.00,0.4352
926.00,0.4329
925.00,0.4309
924.00,0.4295
923.00,0.4289
922.00,0.4290
921.00,0.4297
920.00,0.4303
919.00,0.4304
918.00,0.4297
917.00,0.4281
916.00,0.4257
915.00,0.4231
914.00,0.4205
913.00,0.4182
912.00,0.4163
911.00,0.4149
910.00,0.4139
909.00,0.4130
908.00,0.4121
907.00,0.4112
906.00,0.4105
905.00,0.4101
904.00,0.4099
903.00,0.4101
902.00,0.4108
901.00,0.4120
900.00,0.4138
899.00,0.4162
898.00,0.4191
897.00,0.4223
896.00,0.4254
895.00,0.4283
894.00,0.4311
893.00,0.4338
892.00,0.4362
891.00,0.4381
890.00,0.4394
889.00,0.4397
888.00,0.4392
887.00,0.4380
886.00,0.4365
885.00,0.4349
884.00,0.4335
883.00,0.4323
882.00,0.4311
881.00,0.4300
880.00,0.4287
879.00,0.4274
878.00,0.4259
877.00,0.4243
876.00,0.4226
875.00,0.4205
874.00,0.4182
873.00,0.4157
872.00,0.4131
871.00,0.4109
870.00,0.4092
869.00,0.4079
868.00,0.4067
867.00,0.4056
866.00,0.4044
865.00,0.4028
864.00,0.4010
863.00,0.3992
862.00,0.3977
861.00,0.3964
860.00,0.3954
859.00,0.3948
858.00,0.3945
857.00,0.3944
856.00,0.3945
855.00,0.3948
854.00,0.3952
853.00,0.3958
852.00,0.3966
851.00,0.3977
850.00,0.3991
849.00,0.4005
848.00,0.4017
847.00,0.4025
846.00,0.4030
845.00,0.4032
844.00,0.4033
843.00,0.4033
842.00,0.4034
841.00,0.4034
840.00,0.4034
839.00,0.4037
838.00,0.4046
837.00,0.4059
836.00,0.4074
835.00,0.4090
834.00,0.4107
833.00,0.4127
832.00,0.4148
831.00,0.4172
830.00,0.4198
829.00,0.4225
828.00,0.4255
827.00,0.4290
826.00,0.4329
825.00,0.4372
824.00,0.4416
823.00,0.4459
822.00,0.4502
821.00,0.4540
820.00,0.4575
819.00,0.4608
818.00,0.4641
817.00,0.4674
816.00,0.4708
815.00,0.4743
814.00,0.4778
813.00,0.4807
812.00,0.4827
811.00,0.4833
810.00,0.4823
809.00,0.4796
808.00,0.4754
807.00,0.4702
806.00,0.4643
805.00,0.4581
804.00,0.4520
803.00,0.4464
802.00,0.4412
801.00,0.4365
800.00,0.4321
799.00,0.4281
798.00,0.4245
797.00,0.4213
796.00,0.4183
795.00,0.4159
794.00,0.4142
793.00,0.4132
792.00,0.4130
791.00,0.4137
790.00,0.4153
789.00,0.4174
788.00,0.4201
787.00,0.4234
786.00,0.4274
785.00,0.4322
784.00,0.4376
783.00,0.4437
782.00,0.4505
781.00,0.4577
780.00,0.4650
779.00,0.4723
778.00,0.4793
777.00,0.4859
776.00,0.4922
775.00,0.4980
774.00,0.5033
773.00,0.5080
772.00,0.5119
771.00,0.5147
770.00,0.5164
769.00,0.5168
768.00,0.5165
767.00,0.5157
766.00,0.5146
765.00,0.5131
764.00,0.5112
763.00,0.5089
762.00,0.5065
761.00,0.5044
760.00,0.5028
759.00,0.5017
758.00,0.5012
757.00,0.5012
756.00,0.5018
755.00,0.5029
754.00,0.5043
753.00,0.5059
752.00,0.5077
751.00,0.5100
750.00,0.5126
749.00,0.5155
748.00,0.5190
747.00,0.5232
746.00,0.5283
745.00,0.5347
744.00,0.5426
743.00,0.5519
742.00,0.5622
741.00,0.5727
740.00,0.5831
739.00,0.5931
738.00,0.6028
737.00,0.6122
736.00,0.6216
735.00,0.6318
734.00,0.6437
733.00,0.6578
732.00,0.6744
731.00,0.6935
730.00,0.7145
729.00,0.7372
728.00,0.7619
727.00,0.7892
726.00,0.8192
725.00,0.8505
724.00,0.8799
723.00,0.9026
722.00,0.9127
721.00,0.9051
720.00,0.8788
719.00,0.8387
718.00,0.7927
717.00,0.7474
716.00,0.7068
715.00,0.6722
714.00,0.6433
713.00,0.6190
712.00,0.5982
711.00,0.5806
710.00,0.5658
709.00,0.5535
708.00,0.5432
707.00,0.5347
706.00,0.5281
705.00,0.5231
704.00,0.5196
703.00,0.5174
702.00,0.5162
701.00,0.5155
700.00,0.5150
699.00,0.5146
698.00,0.5140
697.00,0.5133
696.00,0.5130
695.00,0.5133
694.00,0.5143
693.00,0.5154
692.00,0.5164
691.00,0.5173
690.00,0.5183
689.00,0.5193
688.00,0.5207
687.00,0.5224
686.00,0.5241
685.00,0.5255
684.00,0.5265
683.00,0.5274
682.00,0.5285
681.00,0.5296
680.00,0.5304
679.00,0.5308
678.00,0.5309
677.00,0.5304
676.00,0.5295
675.00,0.5285
674.00,0.5275
673.00,0.5265
672.00,0.5254
671.00,0.5246
670.00,0.5239
669.00,0.5227
668.00,0.5199
667.00,0.5160
666.00,0.5130
665.00,0.5112
664.00,0.5098
663.00,0.5084
662.00,0.5070
661.00,0.5054
660.00,0.5033
659.00,0.5009
658.00,0.4986
657.00,0.4966
656.00,0.4945
655.00,0.4922
654.00,0.4898
653.00,0.4873
652.00,0.4847
651.00,0.4823
650.00,0.4800
649.00,0.4777
648.00,0.4755
647.00,0.4736
646.00,0.4720
645.00,0.4706
644.00,0.4693
643.00,0.4685
642.00,0.4682
641.00,0.4682
640.00,0.4681
639.00,0.4677
638.00,0.4670
637.00,0.4655
636.00,0.4634
635.00,0.4608
634.00,0.4582
633.00,0.4561
632.00,0.4544
631.00,0.4530
630.00,0.4516
629.00,0.4502
628.00,0.4489
627.00,0.4482
626.00,0.4482
625.00,0.4485
624.00,0.4489
623.00,0.4493
622.00,0.4495
621.00,0.4492
620.00,0.4485
619.00,0.4479
618.00,0.4476
617.00,0.4474
616.00,0.4468
615.00,0.4460
614.00,0.4452
613.00,0.4444
612.00,0.4432
611.00,0.4416
610.00,0.4397
609.00,0.4375
608.00,0.4354
607.00,0.4334
606.00,0.4314
605.00,0.4293
604.00,0.4272
603.00,0.4255
602.00,0.4245
601.00,0.4240
600.00,0.4240
599.00,0.4248
598.00,0.4264
597.00,0.4285
596.00,0.4308
595.00,0.4330
594.00,0.4352
593.00,0.4367
592.00,0.4372
591.00,0.4371
590.00,0.4366
589.00,0.4358
588.00,0.4349
587.00,0.4342
586.00,0.4342
585.00,0.4347
584.00,0.4357
583.00,0.4368
582.00,0.4376
581.00,0.4377
580.00,0.4373
579.00,0.4371
578.00,0.4379
577.00,0.4394
576.00,0.4407
575.00,0.4413
574.00,0.4413
573.00,0.4411
572.00,0.4408
571.00,0.4405
570.00,0.4402
569.00,0.4399
568.00,0.4398
567.00,0.4396
566.00,0.4389
565.00,0.4373
564.00,0.4354
563.00,0.4340
562.00,0.4332
561.00,0.4325
560.00,0.4317
559.00,0.4311
558.00,0.4306
557.00,0.4300
556.00,0.4289
555.00,0.4277
554.00,0.4272
553.00,0.4276
552.00,0.4284
551.00,0.4292
550.00,0.4300
