Created as New Dataset,
cm-1,A
4000.00,0.4338
3999.00,0.4334
3998.00,0.4331
3997.00,0.4327
3996.00,0.4323
3995.00,0.4320
3994.00,0.4316
3993.00,0.4312
3992.00,0.4308
3991.00,0.4304
3990.00,0.4300
3989.00,0.4296
3988.00,0.4292
3987.00,0.4287
3986.00,0.4283
3985.00,0.4279
3984.00,0.4275
3983.00,0.4272
3982.00,0.4269
3981.00,0.4266
3980.00,0.4262
3979.00,0.4258
3978.00,0.4253
3977.00,0.4250
3976.00,0.4246
3975.00,0.4243
3974.00,0.4240
3973.00,0.4237
3972.00,0.4234
3971.00,0.4231
3970.00,0.4230
3969.00,0.4228
3968.00,0.4226
3967.00,0.4223
3966.00,0.4220
3965.00,0.4216
3964.00,0.4214
3963.00,0.4211
3962.00,0.4210
3961.00,0.4208
3960.00,0.4206
3959.00,0.4204
3958.00,0.4202
3957.00,0.4200
3956.00,0.4198
3955.00,0.4197
3954.00,0.4195
3953.00,0.4194
3952.00,0.4192
3951.00,0.4191
3950.00,0.4191
3949.00,0.4190
3948.00,0.4189
3947.00,0.4187
3946.00,0.4186
3945.00,0.4185
3944.00,0.4185
3943.00,0.4185
3942.00,0.4184
3941.00,0.4184
3940.00,0.4184
3939.00,0.4184
3938.00,0.4184
3937.00,0.4184
3936.00,0.4184
3935.00,0.4184
3934.00,0.4185
3933.00,0.4185
3932.00,0.4185
3931.00,0.4185
3930.00,0.4184
3929.00,0.4184
3928.00,0.4184
3927.00,0.4183
3926.00,0.4183
3925.00,0.4182
3924.00,0.4182
3923.00,0.4182
3922.00,0.4182
3921.00,0.4181
3920.00,0.4180
3919.00,0.4180
3918.00,0.4179
3917.00,0.4179
3916.00,0.4178
3915.00,0.4178
3914.00,0.4177
3913.00,0.4176
3912.00,0.4175
3911.00,0.4174
3910.00,0.4173
3909.00,0.4173
3908.00,0.4174
3907.00,0.4175
3906.00,0.4176
3905.00,0.4177
3904.00,0.4178
3903.00,0.4178
3902.00,0.4178
3901.00,0.4177
3900.00,0.4176
3899.00,0.4174
3898.00,0.4173
3897.00,0.4171
3896.00,0.4170
3895.00,0.4168
3894.00,0.4167
3893.00,0.4166
3892.00,0.4166
3891.00,0.4165
3890.00,0.4165
3889.00,0.4164
3888.00,0.4163
3887.00,0.4161
3886.00,0.4160
3885.00,0.4161
3884.00,0.4161
3883.00,0.4160
3882.00,0.4158
3881.00,0.4155
3880.00,0.4153
3879.00,0.4151
3878.00,0.4150
3877.00,0.4148
3876.00,0.4147
3875.00,0.4146
3874.00,0.4145
3873.00,0.4145
3872.00,0.4144
3871.00,0.4144
3870.00,0.4144
3869.00,0.4144
3868.00,0.4145
3867.00,0.4145
3866.00,0.4144
3865.00,0.4143
3864.00,0.4143
3863.00,0.4141
3862.00,0.4140
3861.00,0.4138
3860.00,0.4137
3859.00,0.4137
3858.00,0.4137
3857.00,0.4138
3856.00,0.4139
3855.00,0.4140
3854.00,0.4141
3853.00,0.4144
3852.00,0.4145
3851.00,0.4143
3850.00,0.4141
3849.00,0.4138
3848.00,0.4136
3847.00,0.4134
3846.00,0.4132
3845.00,0.4130
3844.00,0.4128
3843.00,0.4126
3842.00,0.4126
3841.00,0.4127
3840.00,0.4127
3839.00,0.4128
3838.00,0.4129
3837.00,0.4129
3836.00,0.4128
3835.00,0.4127
3834.00,0.4125
3833.00,0.4123
3832.00,0.4121
3831.00,0.4119
3830.00,0.4117
3829.00,0.4116
3828.00,0.4115
3827.00,0.4114
3826.00,0.4113
3825.00,0.4113
3824.00,0.4114
3823.00,0.4114
3822.00,0.4114
3821.00,0.4114
3820.00,0.4114
3819.00,0.4113
3818.00,0.4111
3817.00,0.4108
3816.00,0.4105
3815.00,0.4102
3814.00,0.4098
3813.00,0.4093
3812.00,0.4090
3811.00,0.4087
3810.00,0.4086
3809.00,0.4084
3808.00,0.4081
3807.00,0.4078
3806.00,0.4077
3805.00,0.4075
3804.00,0.4074
3803.00,0.4073
3802.00,0.4071
3801.00,0.4069
3800.00,0.4067
3799.00,0.4064
3798.00,0.4062
3797.00,0.4059
3796.00,0.4057
3795.00,0.4055
3794.00,0.4052
3793.00,0.4049
3792.00,0.4046
3791.00,0.4044
3790.00,0.4042
3789.00,0.4040
3788.00,0.4038
3787.00,0.4037
3786.00,0.4036
3785.00,0.4035
3784.00,0.4035
3783.00,0.4035
3782.00,0.4034
3781.00,0.4032
3780.00,0.4030
3779.00,0.4028
3778.00,0.4026
3777.00,0.4023
3776.00,0.4022
3775.00,0.4020
3774.00,0.4019
3773.00,0.4017
3772.00,0.4016
3771.00,0.4015
3770.00,0.4013
3769.00,0.4012
3768.00,0.4010
3767.00,0.4008
3766.00,0.4006
3765.00,0.4003
3764.00,0.4002
3763.00,0.4000
3762.00,0.3999
3761.00,0.3998
3760.00,0.3997
3759.00,0.3995
3758.00,0.3994
3757.00,0.3993
3756.00,0.3993
3755.00,0.3993
3754.00,0.3993
3753.00,0.3994
3752.00,0.3994
3751.00,0.3995
3750.00,0.3997
3749.00,0.3998
3748.00,0.3999
3747.00,0.3999
3746.00,0.3997
3745.00,0.3995
3744.00,0.3993
3743.00,0.3991
3742.00,0.3989
3741.00,0.3986
3740.00,0.3984
3739.00,0.3983
3738.00,0.3982
3737.00,0.3980
3736.00,0.3980
3735.00,0.3979
3734.00,0.3978
3733.00,0.3976
3732.00,0.3974
3731.00,0.3972
3730.00,0.3970
3729.00,0.3967
3728.00,0.3964
3727.00,0.3962
3726.00,0.3960
3725.00,0.3957
3724.00,0.3955
3723.00,0.3953
3722.00,0.3952
3721.00,0.3951
3720.00,0.3949
3719.00,0.3947
3718.00,0.3946
3717.00,0.3945
3716.00,0.3945
3715.00,0.3945
3714.00,0.3945
3713.00,0.3944
3712.00,0.3944
3711.00,0.3945
3710.00,0.3946
3709.00,0.3946
3708.00,0.3946
3707.00,0.3946
3706.00,0.3945
3705.00,0.3944
3704.00,0.3943
3703.00,0.3942
3702.00,0.3941
3701.00,0.3940
3700.00,0.3939
3699.00,0.3939
3698.00,0.3939
3697.00,0.3939
3696.00,0.3940
3695.00,0.3940
3694.00,0.3940
3693.00,0.3940
3692.00,0.3940
3691.00,0.3941
3690.00,0.3941
3689.00,0.3941
3688.00,0.3941
3687.00,0.3941
3686.00,0.3940
3685.00,0.3939
3684.00,0.3937
3683.00,0.3936
3682.00,0.3935
3681.00,0.3934
3680.00,0.3935
3679.00,0.3936
3678.00,0.3938
3677.00,0.3940
3676.00,0.3942
3675.00,0.3945
3674.00,0.3947
3673.00,0.3949
3672.00,0.3950
3671.00,0.3951
3670.00,0.3953
3669.00,0.3953
3668.00,0.3952
3667.00,0.3950
3666.00,0.3948
3665.00,0.3947
3664.00,0.3945
3663.00,0.3944
3662.00,0.3942
3661.00,0.3941
3660.00,0.3940
3659.00,0.3940
3658.00,0.3940
3657.00,0.3942
3656.00,0.3944
3655.00,0.3946
3654.00,0.3948
3653.00,0.3951
3652.00,0.3953
3651.00,0.3954
3650.00,0.3955
3649.00,0.3956
3648.00,0.3958
3647.00,0.3959
3646.00,0.3960
3645.00,0.3961
3644.00,0.3960
3643.00,0.3958
3642.00,0.3955
3641.00,0.3953
3640.00,0.3951
3639.00,0.3950
3638.00,0.3950
3637.00,0.3951
3636.00,0.3952
3635.00,0.3953
3634.00,0.3955
3633.00,0.3957
3632.00,0.3958
3631.00,0.3959
3630.00,0.3960
3629.00,0.3961
3628.00,0.3962
3627.00,0.3962
3626.00,0.3962
3625.00,0.3962
3624.00,0.3962
3623.00,0.3962
3622.00,0.3961
3621.00,0.3960
3620.00,0.3960
3619.00,0.3959
3618.00,0.3959
3617.00,0.3958
3616.00,0.3958
3615.00,0.3958
3614.00,0.3958
3613.00,0.3957
3612.00,0.3957
3611.00,0.3956
3610.00,0.3955
3609.00,0.3953
3608.00,0.3951
3607.00,0.3947
3606.00,0.3943
3605.00,0.3939
3604.00,0.3935
3603.00,0.3930
3602.00,0.3924
3601.00,0.3918
3600.00,0.3912
3599.00,0.3905
3598.00,0.3899
3597.00,0.3893
3596.00,0.3886
3595.00,0.3880
3594.00,0.3874
3593.00,0.3869
3592.00,0.3865
3591.00,0.3861
3590.00,0.3858
3589.00,0.3855
3588.00,0.3852
3587.00,0.3850
3586.00,0.3847
3585.00,0.3845
3584.00,0.3842
3583.00,0.3840
3582.00,0.3837
3581.00,0.3835
3580.00,0.3833
3579.00,0.3832
3578.00,0.3830
3577.00,0.3829
3576.00,0.3828
3575.00,0.3828
3574.00,0.3827
3573.00,0.3828
3572.00,0.3828
3571.00,0.3829
3570.00,0.3830
3569.00,0.3830
3568.00,0.3829
3567.00,0.3829
3566.00,0.3829
3565.00,0.3830
3564.00,0.3830
3563.00,0.3830
3562.00,0.3830
3561.00,0.3829
3560.00,0.3827
3559.00,0.3826
3558.00,0.3826
3557.00,0.3826
3556.00,0.3826
3555.00,0.3826
3554.00,0.3827
3553.00,0.3828
3552.00,0.3828
3551.00,0.3829
3550.00,0.3829
3549.00,0.3830
3548.00,0.3831
3547.00,0.3832
3546.00,0.3832
3545.00,0.3833
3544.00,0.3834
3543.00,0.3836
3542.00,0.3837
3541.00,0.3838
3540.00,0.3839
3539.00,0.3840
3538.00,0.3841
3537.00,0.3843
3536.00,0.3845
3535.00,0.3846
3534.00,0.3847
3533.00,0.3849
3532.00,0.3851
3531.00,0.3853
3530.00,0.3855
3529.00,0.3858
3528.00,0.3860
3527.00,0.3862
3526.00,0.3863
3525.00,0.3864
3524.00,0.3865
3523.00,0.3866
3522.00,0.3867
3521.00,0.3867
3520.00,0.3868
3519.00,0.3869
3518.00,0.3871
3517.00,0.3873
3516.00,0.3874
3515.00,0.3876
3514.00,0.3877
3513.00,0.3878
3512.00,0.3880
3511.00,0.3882
3510.00,0.3884
3509.00,0.3887
3508.00,0.3889
3507.00,0.3891
3506.00,0.3892
3505.00,0.3895
3504.00,0.3897
3503.00,0.3900
3502.00,0.3903
3501.00,0.3905
3500.00,0.3907
3499.00,0.3910
3498.00,0.3912
3497.00,0.3915
3496.00,0.3917
3495.00,0.3920
3494.00,0.3922
3493.00,0.3924
3492.00,0.3927
3491.00,0.3930
3490.00,0.3933
3489.00,0.3936
3488.00,0.3939
3487.00,0.3942
3486.00,0.3944
3485.00,0.3946
3484.00,0.3948
3483.00,0.3950
3482.00,0.3952
3481.00,0.3955
3480.00,0.3958
3479.00,0.3961
3478.00,0.3964
3477.00,0.3966
3476.00,0.3969
3475.00,0.3972
3474.00,0.3975
3473.00,0.3978
3472.00,0.3982
3471.00,0.3986
3470.00,0.3990
3469.00,0.3994
3468.00,0.3998
3467.00,0.4002
3466.00,0.4006
3465.00,0.4011
3464.00,0.4015
3463.00,0.4020
3462.00,0.4026
3461.00,0.4032
3460.00,0.4039
3459.00,0.4045
3458.00,0.4051
3457.00,0.4057
3456.00,0.4064
3455.00,0.4070
3454.00,0.4075
3453.00,0.4081
3452.00,0.4086
3451.00,0.4092
3450.00,0.4098
3449.00,0.4103
3448.00,0.4107
3447.00,0.4110
3446.00,0.4114
3445.00,0.4117
3444.00,0.4120
3443.00,0.4123
3442.00,0.4127
3441.00,0.4131
3440.00,0.4135
3439.00,0.4139
3438.00,0.4143
3437.00,0.4147
3436.00,0.4151
3435.00,0.4155
3434.00,0.4160
3433.00,0.4165
3432.00,0.4170
3431.00,0.4176
3430.00,0.4182
3429.00,0.4189
3428.00,0.4195
3427.00,0.4202
3426.00,0.4209
3425.00,0.4218
3424.00,0.4227
3423.00,0.4237
3422.00,0.4248
3421.00,0.4258
3420.00,0.4269
3419.00,0.4280
3418.00,0.4292
3417.00,0.4305
3416.00,0.4319
3415.00,0.4333
3414.00,0.4348
3413.00,0.4364
3412.00,0.4381
3411.00,0.4400
3410.00,0.4420
3409.00,0.4441
3408.00,0.4463
3407.00,0.4486
3406.00,0.4509
3405.00,0.4534
3404.00,0.4561
3403.00,0.4588
3402.00,0.4617
3401.00,0.4647
3400.00,0.4679
3399.00,0.4713
3398.00,0.4749
3397.00,0.4786
3396.00,0.4824
3395.00,0.4862
3394.00,0.4901
3393.00,0.4941
3392.00,0.4984
3391.00,0.5027
3390.00,0.5071
3389.00,0.5116
3388.00,0.5163
3387.00,0.5211
3386.00,0.5261
3385.00,0.5313
3384.00,0.5365
3383.00,0.5419
3382.00,0.5475
3381.00,0.5532
3380.00,0.5589
3379.00,0.5648
3378.00,0.5709
3377.00,0.5772
3376.00,0.5837
3375.00,0.5905
3374.00,0.5974
3373.00,0.6045
3372.00,0.6118
3371.00,0.6193
3370.00,0.6270
3369.00,0.6349
3368.00,0.6429
3367.00,0.6508
3366.00,0.6587
3365.00,0.6666
3364.00,0.6745
3363.00,0.6824
3362.00,0.6901
3361.00,0.6977
3360.00,0.7051
3359.00,0.7123
3358.00,0.7193
3357.00,0.7261
3356.00,0.7328
3355.00,0.7391
3354.00,0.7452
3353.00,0.7510
3352.00,0.7564
3351.00,0.7616
3350.00,0.7667
3349.00,0.7716
3348.00,0.7764
3347.00,0.7810
3346.00,0.7853
3345.00,0.7894
3344.00,0.7933
3343.00,0.7970
3342.00,0.8003
3341.00,0.8034
3340.00,0.8061
3339.00,0.8087
3338.00,0.8110
3337.00,0.8131
3336.00,0.8148
3335.00,0.8163
3334.00,0.8177
3333.00,0.8189
3332.00,0.8200
3331.00,0.8210
3330.00,0.8220
3329.00,0.8231
3328.00,0.8244
3327.00,0.8259
3326.00,0.8277
3325.00,0.8297
3324.00,0.8321
3323.00,0.8347
3322.00,0.8378
3321.00,0.8414
3320.00,0.8456
3319.00,0.8504
3318.00,0.8560
3317.00,0.8624
3316.00,0.8695
3315.00,0.8775
3314.00,0.8863
3313.00,0.8960
3312.00,0.9065
3311.00,0.9178
3310.00,0.9301
3309.00,0.9434
3308.00,0.9575
3307.00,0.9721
3306.00,0.9871
3305.00,1.0025
3304.00,1.0184
3303.00,1.0345
3302.00,1.0508
3301.00,1.0669
3300.00,1.0824
3299.00,1.0971
3298.00,1.1108
3297.00,1.1232
3296.00,1.1336
3295.00,1.1416
3294.00,1.1468
3293.00,1.1492
3292.00,1.1484
3291.00,1.1444
3290.00,1.1371
3289.00,1.1267
3288.00,1.1133
3287.00,1.0969
3286.00,1.0781
3285.00,1.0573
3284.00,1.0351
3283.00,1.0119
3282.00,0.9880
3281.00,0.9638
3280.00,0.9395
3279.00,0.9155
3278.00,0.8921
3277.00,0.8696
3276.00,0.8481
3275.00,0.8277
3274.00,0.8084
3273.00,0.7903
3272.00,0.7732
3271.00,0.7573
3270.00,0.7426
3269.00,0.7289
3268.00,0.7163
3267.00,0.7045
3266.00,0.6935
3265.00,0.6833
3264.00,0.6738
3263.00,0.6649
3262.00,0.6566
3261.00,0.6489
3260.00,0.6417
3259.00,0.6349
3258.00,0.6286
3257.00,0.6227
3256.00,0.6172
3255.00,0.6121
3254.00,0.6073
3253.00,0.6029
3252.00,0.5987
3251.00,0.5948
3250.00,0.5912
3249.00,0.5880
3248.00,0.5850
3247.00,0.5822
3246.00,0.5797
3245.00,0.5773
3244.00,0.5751
3243.00,0.5731
3242.00,0.5712
3241.00,0.5695
3240.00,0.5678
3239.00,0.5663
3238.00,0.5648
3237.00,0.5634
3236.00,0.5621
3235.00,0.5608
3234.00,0.5595
3233.00,0.5582
3232.00,0.5570
3231.00,0.5557
3230.00,0.5545
3229.00,0.5533
3228.00,0.5522
3227.00,0.5510
3226.00,0.5499
3225.00,0.5488
3224.00,0.5478
3223.00,0.5469
3222.00,0.5460
3221.00,0.5451
3220.00,0.5442
3219.00,0.5433
3218.00,0.5426
3217.00,0.5419
3216.00,0.5413
3215.00,0.5407
3214.00,0.5401
3213.00,0.5395
3212.00,0.5390
3211.00,0.5385
3210.00,0.5382
3209.00,0.5379
3208.00,0.5376
3207.00,0.5374
3206.00,0.5371
3205.00,0.5369
3204.00,0.5367
3203.00,0.5365
3202.00,0.5364
3201.00,0.5363
3200.00,0.5361
3199.00,0.5359
3198.00,0.5357
3197.00,0.5355
3196.00,0.5353
3195.00,0.5350
3194.00,0.5346
3193.00,0.5341
3192.00,0.5337
3191.00,0.5334
3190.00,0.5331
3189.00,0.5328
3188.00,0.5325
3187.00,0.5322
3186.00,0.5319
3185.00,0.5316
3184.00,0.5313
3183.00,0.5311
3182.00,0.5308
3181.00,0.5305
3180.00,0.5302
3179.00,0.5299
3178.00,0.5296
3177.00,0.5292
3176.00,0.5290
3175.00,0.5287
3174.00,0.5285
3173.00,0.5283
3172.00,0.5281
3171.00,0.5279
3170.00,0.5276
3169.00,0.5274
3168.00,0.5272
3167.00,0.5270
3166.00,0.5268
3165.00,0.5267
3164.00,0.5265
3163.00,0.5265
3162.00,0.5264
3161.00,0.5264
3160.00,0.5264
3159.00,0.5265
3158.00,0.5266
3157.00,0.5268
3156.00,0.5270
3155.00,0.5272
3154.00,0.5275
3153.00,0.5279
3152.00,0.5283
3151.00,0.5288
3150.00,0.5294
3149.00,0.5300
3148.00,0.5307
3147.00,0.5314
3146.00,0.5322
3145.00,0.5331
3144.00,0.5340
3143.00,0.5350
3142.00,0.5361
3141.00,0.5373
3140.00,0.5386
3139.00,0.5401
3138.00,0.5417
3137.00,0.5434
3136.00,0.5452
3135.00,0.5471
3134.00,0.5491
3133.00,0.5512
3132.00,0.5534
3131.00,0.5556
3130.00,0.5579
3129.00,0.5602
3128.00,0.5625
3127.00,0.5648
3126.00,0.5670
3125.00,0.5692
3124.00,0.5713
3123.00,0.5733
3122.00,0.5752
3121.00,0.5770
3120.00,0.5786
3119.00,0.5802
3118.00,0.5817
3117.00,0.5832
3116.00,0.5847
3115.00,0.5861
3114.00,0.5876
3113.00,0.5891
3112.00,0.5907
3111.00,0.5923
3110.00,0.5940
3109.00,0.5956
3108.00,0.5973
3107.00,0.5990
3106.00,0.6007
3105.00,0.6023
3104.00,0.6037
3103.00,0.6048
3102.00,0.6056
3101.00,0.6062
3100.00,0.6064
3099.00,0.6064
3098.00,0.6060
3097.00,0.6053
3096.00,0.6043
3095.00,0.6031
3094.00,0.6017
3093.00,0.6004
3092.00,0.5992
3091.00,0.5980
3090.00,0.5971
3089.00,0.5963
3088.00,0.5958
3087.00,0.5955
3086.00,0.5955
3085.00,0.5958
3084.00,0.5963
3083.00,0.5972
3082.00,0.5984
3081.00,0.6000
3080.00,0.6020
3079.00,0.6043
3078.00,0.6067
3077.00,0.6094
3076.00,0.6122
3075.00,0.6153
3074.00,0.6185
3073.00,0.6219
3072.00,0.6253
3071.00,0.6287
3070.00,0.6319
3069.00,0.6351
3068.00,0.6383
3067.00,0.6414
3066.00,0.6445
3065.00,0.6476
3064.00,0.6506
3063.00,0.6534
3062.00,0.6561
3061.00,0.6586
3060.00,0.6611
3059.00,0.6636
3058.00,0.6662
3057.00,0.6690
3056.00,0.6720
3055.00,0.6754
3054.00,0.6790
3053.00,0.6827
3052.00,0.6863
3051.00,0.6899
3050.00,0.6934
3049.00,0.6970
3048.00,0.7008
3047.00,0.7047
3046.00,0.7089
3045.00,0.7135
3044.00,0.7185
3043.00,0.7237
3042.00,0.7290
3041.00,0.7343
3040.00,0.7396
3039.00,0.7448
3038.00,0.7498
3037.00,0.7549
3036.00,0.7602
3035.00,0.7659
3034.00,0.7721
3033.00,0.7790
3032.00,0.7864
3031.00,0.7940
3030.00,0.8016
3029.00,0.8089
3028.00,0.8156
3027.00,0.8215
3026.00,0.8266
3025.00,0.8313
3024.00,0.8360
3023.00,0.8411
3022.00,0.8467
3021.00,0.8530
3020.00,0.8602
3019.00,0.8683
3018.00,0.8772
3017.00,0.8867
3016.00,0.8967
3015.00,0.9074
3014.00,0.9186
3013.00,0.9306
3012.00,0.9432
3011.00,0.9563
3010.00,0.9701
3009.00,0.9847
3008.00,1.0000
3007.00,1.0162
3006.00,1.0331
3005.00,1.0506
3004.00,1.0689
3003.00,1.0878
3002.00,1.1073
3001.00,1.1276
3000.00,1.1489
2999.00,1.1714
2998.00,1.1956
2997.00,1.2219
2996.00,1.2506
2995.00,1.2818
2994.00,1.3159
2993.00,1.3530
2992.00,1.3937
2991.00,1.4387
2990.00,1.4885
2989.00,1.5440
2988.00,1.6054
2987.00,1.6731
2986.00,1.7478
2985.00,1.8306
2984.00,1.9229
2983.00,2.0261
2982.00,2.1415
2981.00,2.2692
2980.00,2.4080
2979.00,2.5556
2978.00,2.7109
2977.00,2.8763
2976.00,3.0600
2975.00,3.2770
2974.00,3.5233
2973.00,3.7118
2972.00,3.7484
2971.00,3.6991
2970.00,3.6896
2969.00,3.7700
2968.00,3.9689
2967.00,4.3093
2966.00,4.5147
2965.00,4.3016
2964.00,4.0394
2963.00,3.8528
2962.00,3.7671
2961.00,3.7977
2960.00,3.9662
2959.00,4.2848
2958.00,4.5403
2957.00,4.3206
2956.00,4.0070
2955.00,3.7833
2954.00,3.6444
2953.00,3.5863
2952.00,3.6051
2951.00,3.6657
2950.00,3.7242
2949.00,3.7733
2948.00,3.8724
2947.00,3.9536
2946.00,3.9569
2945.00,3.9136
2944.00,4.0535
2943.00,4.5451
2942.00,4.3481
2941.00,3.9808
2940.00,3.7561
2939.00,3.7449
2938.00,3.8344
2937.00,3.9231
2936.00,4.0020
2935.00,3.9826
2934.00,3.9782
2933.00,3.9953
2932.00,4.0358
2931.00,4.1281
2930.00,4.2056
2929.00,4.0947
2928.00,3.9322
2927.00,3.8553
2926.00,4.0218
2925.00,4.2401
2924.00,3.9498
2923.00,3.7154
2922.00,3.6300
2921.00,3.6748
2920.00,3.7115
2919.00,3.7404
2918.00,3.8093
2917.00,3.8825
2916.00,4.0186
2915.00,4.1436
2914.00,4.0738
2913.00,3.9408
2912.00,3.8922
2911.00,4.0140
2910.00,4.3872
2909.00,4.4454
2908.00,4.1633
2907.00,3.9842
2906.00,4.1316
2905.00,4.5281
2904.00,4.2594
2903.00,4.0940
2902.00,4.1166
2901.00,4.4043
2900.00,4.4061
2899.00,4.1875
2898.00,4.2311
2897.00,4.3635
2896.00,4.2744
2895.00,4.1372
2894.00,4.1018
2893.00,4.1473
2892.00,4.2998
2891.00,4.5149
2890.00,4.4643
2889.00,4.2607
2888.00,4.1844
2887.00,4.3395
2886.00,4.4621
2885.00,4.2845
2884.00,4.0725
2883.00,3.9536
2882.00,4.0049
2881.00,4.1923
2880.00,4.3944
2879.00,4.4359
2878.00,4.3438
2877.00,4.2301
2876.00,4.1074
2875.00,4.0203
2874.00,4.0125
2873.00,4.0859
2872.00,4.1489
2871.00,4.0842
2870.00,3.9891
2869.00,4.0024
2868.00,4.2581
2867.00,4.7038
2866.00,4.9224
2865.00,4.8048
2864.00,4.4117
2863.00,4.1318
2862.00,3.9286
2861.00,3.8944
2860.00,3.9311
2859.00,3.9668
2858.00,3.9832
2857.00,3.9539
2856.00,3.9716
2855.00,4.0463
2854.00,4.1192
2853.00,4.1214
2852.00,4.0844
2851.00,4.0438
2850.00,3.9702
2849.00,3.8723
2848.00,3.8110
2847.00,3.8154
2846.00,3.8629
2845.00,3.9089
2844.00,3.9024
2843.00,3.8344
2842.00,3.7436
2841.00,3.7100
2840.00,3.6700
2839.00,3.4746
2838.00,3.2232
2837.00,3.0042
2836.00,2.8154
2835.00,2.6324
2834.00,2.4560
2833.00,2.2955
2832.00,2.1543
2831.00,2.0324
2830.00,1.9265
2829.00,1.8332
2828.00,1.7502
2827.00,1.6760
2826.00,1.6096
2825.00,1.5503
2824.00,1.4969
2823.00,1.4484
2822.00,1.4039
2821.00,1.3626
2820.00,1.3242
2819.00,1.2885
2818.00,1.2553
2817.00,1.2245
2816.00,1.1958
2815.00,1.1689
2814.00,1.1433
2813.00,1.1189
2812.00,1.0955
2811.00,1.0733
2810.00,1.0521
2809.00,1.0319
2808.00,1.0127
2807.00,0.9941
2806.00,0.9763
2805.00,0.9592
2804.00,0.9430
2803.00,0.9276
2802.00,0.9130
2801.00,0.8991
2800.00,0.8860
2799.00,0.8735
2798.00,0.8617
2797.00,0.8504
2796.00,0.8395
2795.00,0.8289
2794.00,0.8187
2793.00,0.8088
2792.00,0.7991
2791.00,0.7894
2790.00,0.7799
2789.00,0.7704
2788.00,0.7610
2787.00,0.7515
2786.00,0.7420
2785.00,0.7327
2784.00,0.7237
2783.00,0.7150
2782.00,0.7066
2781.00,0.6986
2780.00,0.6907
2779.00,0.6831
2778.00,0.6759
2777.00,0.6690
2776.00,0.6625
2775.00,0.6564
2774.00,0.6508
2773.00,0.6455
2772.00,0.6405
2771.00,0.6360
2770.00,0.6318
2769.00,0.6281
2768.00,0.6246
2767.00,0.6215
2766.00,0.6187
2765.00,0.6162
2764.00,0.6141
2763.00,0.6123
2762.00,0.6107
2761.00,0.6092
2760.00,0.6077
2759.00,0.6063
2758.00,0.6050
2757.00,0.6038
2756.00,0.6027
2755.00,0.6016
2754.00,0.6006
2753.00,0.5997
2752.00,0.5991
2751.00,0.5987
2750.00,0.5985
2749.00,0.5986
2748.00,0.5988
2747.00,0.5992
2746.00,0.5998
2745.00,0.6007
2744.00,0.6018
2743.00,0.6033
2742.00,0.6050
2741.00,0.6071
2740.00,0.6096
2739.00,0.6125
2738.00,0.6158
2737.00,0.6194
2736.00,0.6233
2735.00,0.6276
2734.00,0.6320
2733.00,0.6365
2732.00,0.6408
2731.00,0.6445
2730.00,0.6472
2729.00,0.6490
2728.00,0.6497
2727.00,0.6496
2726.00,0.6489
2725.00,0.6475
2724.00,0.6457
2723.00,0.6435
2722.00,0.6409
2721.00,0.6381
2720.00,0.6350
2719.00,0.6317
2718.00,0.6281
2717.00,0.6244
2716.00,0.6204
2715.00,0.6162
2714.00,0.6120
2713.00,0.6078
2712.00,0.6038
2711.00,0.6003
2710.00,0.5970
2709.00,0.5942
2708.00,0.5918
2707.00,0.5898
2706.00,0.5881
2705.00,0.5868
2704.00,0.5857
2703.00,0.5849
2702.00,0.5842
2701.00,0.5839
2700.00,0.5838
2699.00,0.5840
2698.00,0.5846
2697.00,0.5853
2696.00,0.5862
2695.00,0.5872
2694.00,0.5884
2693.00,0.5895
2692.00,0.5907
2691.00,0.5918
2690.00,0.5929
2689.00,0.5939
2688.00,0.5949
2687.00,0.5957
2686.00,0.5962
2685.00,0.5967
2684.00,0.5972
2683.00,0.5975
2682.00,0.5978
2681.00,0.5980
2680.00,0.5980
2679.00,0.5978
2678.00,0.5977
2677.00,0.5977
2676.00,0.5978
2675.00,0.5978
2674.00,0.5979
2673.00,0.5978
2672.00,0.5977
2671.00,0.5973
2670.00,0.5968
2669.00,0.5960
2668.00,0.5947
2667.00,0.5931
2666.00,0.5911
2665.00,0.5890
2664.00,0.5868
2663.00,0.5845
2662.00,0.5823
2661.00,0.5800
2660.00,0.5777
2659.00,0.5752
2658.00,0.5728
2657.00,0.5705
2656.00,0.5684
2655.00,0.5663
2654.00,0.5643
2653.00,0.5624
2652.00,0.5606
2651.00,0.5591
2650.00,0.5577
2649.00,0.5564
2648.00,0.5551
2647.00,0.5539
2646.00,0.5527
2645.00,0.5515
2644.00,0.5505
2643.00,0.5495
2642.00,0.5487
2641.00,0.5479
2640.00,0.5471
2639.00,0.5463
2638.00,0.5454
2637.00,0.5446
2636.00,0.5437
2635.00,0.5429
2634.00,0.5421
2633.00,0.5414
2632.00,0.5407
2631.00,0.5400
2630.00,0.5392
2629.00,0.5385
2628.00,0.5377
2627.00,0.5369
2626.00,0.5361
2625.00,0.5354
2624.00,0.5346
2623.00,0.5339
2622.00,0.5331
2621.00,0.5322
2620.00,0.5315
2619.00,0.5308
2618.00,0.5301
2617.00,0.5295
2616.00,0.5289
2615.00,0.5282
2614.00,0.5275
2613.00,0.5268
2612.00,0.5262
2611.00,0.5256
2610.00,0.5248
2609.00,0.5240
2608.00,0.5231
2607.00,0.5222
2606.00,0.5213
2605.00,0.5204
2604.00,0.5195
2603.00,0.5186
2602.00,0.5175
2601.00,0.5164
2600.00,0.5153
2599.00,0.5141
2598.00,0.5128
2597.00,0.5115
2596.00,0.5102
2595.00,0.5088
2594.00,0.5074
2593.00,0.5059
2592.00,0.5044
2591.00,0.5028
2590.00,0.5011
2589.00,0.4992
2588.00,0.4972
2587.00,0.4951
2586.00,0.4931
2585.00,0.4910
2584.00,0.4890
2583.00,0.4870
2582.00,0.4850
2581.00,0.4830
2580.00,0.4810
2579.00,0.4791
2578.00,0.4773
2577.00,0.4755
2576.00,0.4738
2575.00,0.4721
2574.00,0.4705
2573.00,0.4690
2572.00,0.4674
2571.00,0.4658
2570.00,0.4642
2569.00,0.4627
2568.00,0.4612
2567.00,0.4598
2566.00,0.4583
2565.00,0.4569
2564.00,0.4555
2563.00,0.4541
2562.00,0.4528
2561.00,0.4515
2560.00,0.4503
2559.00,0.4490
2558.00,0.4478
2557.00,0.4466
2556.00,0.4455
2555.00,0.4445
2554.00,0.4434
2553.00,0.4423
2552.00,0.4413
2551.00,0.4403
2550.00,0.4393
2549.00,0.4385
2548.00,0.4377
2547.00,0.4370
2546.00,0.4363
2545.00,0.4357
2544.00,0.4351
2543.00,0.4346
2542.00,0.4340
2541.00,0.4335
2540.00,0.4331
2539.00,0.4327
2538.00,0.4323
2537.00,0.4319
2536.00,0.4315
2535.00,0.4311
2534.00,0.4307
2533.00,0.4303
2532.00,0.4299
2531.00,0.4294
2530.00,0.4288
2529.00,0.4281
2528.00,0.4274
2527.00,0.4266
2526.00,0.4257
2525.00,0.4248
2524.00,0.4239
2523.00,0.4230
2522.00,0.4220
2521.00,0.4210
2520.00,0.4200
2519.00,0.4190
2518.00,0.4180
2517.00,0.4169
2516.00,0.4159
2515.00,0.4149
2514.00,0.4139
2513.00,0.4129
2512.00,0.4120
2511.00,0.4111
2510.00,0.4102
2509.00,0.4094
2508.00,0.4087
2507.00,0.4079
2506.00,0.4071
2505.00,0.4064
2504.00,0.4057
2503.00,0.4050
2502.00,0.4043
2501.00,0.4037
2500.00,0.4031
2499.00,0.4026
2498.00,0.4021
2497.00,0.4016
2496.00,0.4010
2495.00,0.4004
2494.00,0.3998
2493.00,0.3993
2492.00,0.3987
2491.00,0.3982
2490.00,0.3977
2489.00,0.3971
2488.00,0.3965
2487.00,0.3960
2486.00,0.3955
2485.00,0.3950
2484.00,0.3945
2483.00,0.3940
2482.00,0.3935
2481.00,0.3930
2480.00,0.3925
2479.00,0.3920
2478.00,0.3915
2477.00,0.3912
2476.00,0.3908
2475.00,0.3904
2474.00,0.3901
2473.00,0.3898
2472.00,0.3896
2471.00,0.3895
2470.00,0.3894
2469.00,0.3893
2468.00,0.3892
2467.00,0.3890
2466.00,0.3889
2465.00,0.3888
2464.00,0.3887
2463.00,0.3886
2462.00,0.3885
2461.00,0.3884
2460.00,0.3883
2459.00,0.3882
2458.00,0.3881
2457.00,0.3879
2456.00,0.3878
2455.00,0.3876
2454.00,0.3876
2453.00,0.3875
2452.00,0.3875
2451.00,0.3874
2450.00,0.3873
2449.00,0.3871
2448.00,0.3868
2447.00,0.3866
2446.00,0.3864
2445.00,0.3863
2444.00,0.3862
2443.00,0.3862
2442.00,0.3861
2441.00,0.3861
2440.00,0.3861
2439.00,0.3861
2438.00,0.3861
2437.00,0.3861
2436.00,0.3862
2435.00,0.3863
2434.00,0.3864
2433.00,0.3865
2432.00,0.3866
2431.00,0.3867
2430.00,0.3869
2429.00,0.3871
2428.00,0.3873
2427.00,0.3875
2426.00,0.3876
2425.00,0.3877
2424.00,0.3879
2423.00,0.3879
2422.00,0.3880
2421.00,0.3881
2420.00,0.3883
2419.00,0.3884
2418.00,0.3885
2417.00,0.3886
2416.00,0.3886
2415.00,0.3887
2414.00,0.3886
2413.00,0.3886
2412.00,0.3885
2411.00,0.3884
2410.00,0.3883
2409.00,0.3882
2408.00,0.3881
2407.00,0.3881
2406.00,0.3881
2405.00,0.3881
2404.00,0.3881
2403.00,0.3881
2402.00,0.3881
2401.00,0.3880
2400.00,0.3880
2399.00,0.3879
2398.00,0.3879
2397.00,0.3878
2396.00,0.3878
2395.00,0.3878
2394.00,0.3877
2393.00,0.3876
2392.00,0.3875
2391.00,0.3874
2390.00,0.3874
2389.00,0.3873
2388.00,0.3873
2387.00,0.3873
2386.00,0.3872
2385.00,0.3873
2384.00,0.3873
2383.00,0.3873
2382.00,0.3873
2381.00,0.3873
2380.00,0.3874
2379.00,0.3875
2378.00,0.3876
2377.00,0.3878
2376.00,0.3879
2375.00,0.3880
2374.00,0.3880
2373.00,0.3879
2372.00,0.3877
2371.00,0.3876
2370.00,0.3874
2369.00,0.3874
2368.00,0.3874
2367.00,0.3874
2366.00,0.3875
2365.00,0.3876
2364.00,0.3876
2363.00,0.3876
2362.00,0.3876
2361.00,0.3876
2360.00,0.3877
2359.00,0.3878
2358.00,0.3879
2357.00,0.3879
2356.00,0.3879
2355.00,0.3879
2354.00,0.3878
2353.00,0.3877
2352.00,0.3876
2351.00,0.3876
2350.00,0.3876
2349.00,0.3875
2348.00,0.3875
2347.00,0.3874
2346.00,0.3873
2345.00,0.3874
2344.00,0.3875
2343.00,0.3875
2342.00,0.3874
2341.00,0.3874
2340.00,0.3874
2339.00,0.3873
2338.00,0.3872
2337.00,0.3870
2336.00,0.3867
2335.00,0.3865
2334.00,0.3864
2333.00,0.3862
2332.00,0.3861
2331.00,0.3860
2330.00,0.3859
2329.00,0.3858
2328.00,0.3856
2327.00,0.3855
2326.00,0.3853
2325.00,0.3852
2324.00,0.3851
2323.00,0.3850
2322.00,0.3849
2321.00,0.3848
2320.00,0.3847
2319.00,0.3844
2318.00,0.3841
2317.00,0.3837
2316.00,0.3834
2315.00,0.3831
2314.00,0.3830
2313.00,0.3828
2312.00,0.3826
2311.00,0.3824
2310.00,0.3821
2309.00,0.3818
2308.00,0.3815
2307.00,0.3812
2306.00,0.3808
2305.00,0.3806
2304.00,0.3803
2303.00,0.3801
2302.00,0.3799
2301.00,0.3797
2300.00,0.3794
2299.00,0.3792
2298.00,0.3789
2297.00,0.3786
2296.00,0.3784
2295.00,0.3782
2294.00,0.3780
2293.00,0.3777
2292.00,0.3775
2291.00,0.3773
2290.00,0.3770
2289.00,0.3767
2288.00,0.3764
2287.00,0.3761
2286.00,0.3758
2285.00,0.3755
2284.00,0.3752
2283.00,0.3749
2282.00,0.3745
2281.00,0.3742
2280.00,0.3739
2279.00,0.3735
2278.00,0.3731
2277.00,0.3727
2276.00,0.3724
2275.00,0.3721
2274.00,0.3719
2273.00,0.3717
2272.00,0.3714
2271.00,0.3712
2270.00,0.3710
2269.00,0.3708
2268.00,0.3707
2267.00,0.3705
2266.00,0.3704
2265.00,0.3703
2264.00,0.3702
2263.00,0.3701
2262.00,0.3699
2261.00,0.3698
2260.00,0.3696
2259.00,0.3693
2258.00,0.3691
2257.00,0.3688
2256.00,0.3686
2255.00,0.3684
2254.00,0.3682
2253.00,0.3679
2252.00,0.3676
2251.00,0.3673
2250.00,0.3671
2249.00,0.3669
2248.00,0.3666
2247.00,0.3663
2246.00,0.3659
2245.00,0.3656
2244.00,0.3654
2243.00,0.3651
2242.00,0.3649
2241.00,0.3647
2240.00,0.3646
2239.00,0.3643
2238.00,0.3641
2237.00,0.3638
2236.00,0.3637
2235.00,0.3635
2234.00,0.3634
2233.00,0.3633
2232.00,0.3633
2231.00,0.3632
2230.00,0.3631
2229.00,0.3631
2228.00,0.3630
2227.00,0.3628
2226.00,0.3627
2225.00,0.3625
2224.00,0.3624
2223.00,0.3623
2222.00,0.3621
2221.00,0.3620
2220.00,0.3619
2219.00,0.3617
2218.00,0.3616
2217.00,0.3614
2216.00,0.3613
2215.00,0.3611
2214.00,0.3609
2213.00,0.3607
2212.00,0.3606
2211.00,0.3605
2210.00,0.3604
2209.00,0.3603
2208.00,0.3602
2207.00,0.3601
2206.00,0.3600
2205.00,0.3599
2204.00,0.3598
2203.00,0.3598
2202.00,0.3598
2201.00,0.3598
2200.00,0.3598
2199.00,0.3597
2198.00,0.3597
2197.00,0.3598
2196.00,0.3599
2195.00,0.3600
2194.00,0.3601
2193.00,0.3602
2192.00,0.3603
2191.00,0.3604
2190.00,0.3605
2189.00,0.3606
2188.00,0.3607
2187.00,0.3608
2186.00,0.3609
2185.00,0.3609
2184.00,0.3609
2183.00,0.3609
2182.00,0.3609
2181.00,0.3608
2180.00,0.3607
2179.00,0.3606
2178.00,0.3604
2177.00,0.3603
2176.00,0.3602
2175.00,0.3601
2174.00,0.3599
2173.00,0.3598
2172.00,0.3596
2171.00,0.3594
2170.00,0.3591
2169.00,0.3590
2168.00,0.3589
2167.00,0.3587
2166.00,0.3586
2165.00,0.3584
2164.00,0.3583
2163.00,0.3582
2162.00,0.3581
2161.00,0.3580
2160.00,0.3580
2159.00,0.3579
2158.00,0.3579
2157.00,0.3579
2156.00,0.3579
2155.00,0.3579
2154.00,0.3579
2153.00,0.3578
2152.00,0.3578
2151.00,0.3577
2150.00,0.3575
2149.00,0.3574
2148.00,0.3572
2147.00,0.3569
2146.00,0.3565
2145.00,0.3561
2144.00,0.3557
2143.00,0.3552
2142.00,0.3546
2141.00,0.3541
2140.00,0.3536
2139.00,0.3532
2138.00,0.3527
2137.00,0.3523
2136.00,0.3519
2135.00,0.3514
2134.00,0.3510
2133.00,0.3506
2132.00,0.3503
2131.00,0.3499
2130.00,0.3496
2129.00,0.3494
2128.00,0.3493
2127.00,0.3491
2126.00,0.3490
2125.00,0.3488
2124.00,0.3486
2123.00,0.3484
2122.00,0.3482
2121.00,0.3481
2120.00,0.3480
2119.00,0.3479
2118.00,0.3479
2117.00,0.3480
2116.00,0.3480
2115.00,0.3480
2114.00,0.3479
2113.00,0.3479
2112.00,0.3480
2111.00,0.3480
2110.00,0.3480
2109.00,0.3479
2108.00,0.3479
2107.00,0.3478
2106.00,0.3477
2105.00,0.3476
2104.00,0.3476
2103.00,0.3475
2102.00,0.3474
2101.00,0.3473
2100.00,0.3471
2099.00,0.3470
2098.00,0.3468
2097.00,0.3467
2096.00,0.3467
2095.00,0.3466
2094.00,0.3465
2093.00,0.3465
2092.00,0.3465
2091.00,0.3464
2090.00,0.3462
2089.00,0.3461
2088.00,0.3461
2087.00,0.3461
2086.00,0.3460
2085.00,0.3460
2084.00,0.3460
2083.00,0.3460
2082.00,0.3460
2081.00,0.3461
2080.00,0.3462
2079.00,0.3463
2078.00,0.3464
2077.00,0.3465
2076.00,0.3466
2075.00,0.3468
2074.00,0.3469
2073.00,0.3471
2072.00,0.3472
2071.00,0.3473
2070.00,0.3473
2069.00,0.3474
2068.00,0.3475
2067.00,0.3476
2066.00,0.3476
2065.00,0.3476
2064.00,0.3475
2063.00,0.3475
2062.00,0.3475
2061.00,0.3474
2060.00,0.3474
2059.00,0.3473
2058.00,0.3473
2057.00,0.3473
2056.00,0.3475
2055.00,0.3476
2054.00,0.3477
2053.00,0.3479
2052.00,0.3481
2051.00,0.3482
2050.00,0.3484
2049.00,0.3486
2048.00,0.3488
2047.00,0.3489
2046.00,0.3491
2045.00,0.3494
2044.00,0.3497
2043.00,0.3499
2042.00,0.3500
2041.00,0.3502
2040.00,0.3503
2039.00,0.3505
2038.00,0.3506
2037.00,0.3506
2036.00,0.3507
2035.00,0.3508
2034.00,0.3509
2033.00,0.3511
2032.00,0.3512
2031.00,0.3512
2030.00,0.3512
2029.00,0.3511
2028.00,0.3509
2027.00,0.3507
2026.00,0.3506
2025.00,0.3504
2024.00,0.3502
2023.00,0.3500
2022.00,0.3496
2021.00,0.3493
2020.00,0.3489
2019.00,0.3484
2018.00,0.3477
2017.00,0.3469
2016.00,0.3461
2015.00,0.3453
2014.00,0.3445
2013.00,0.3439
2012.00,0.3433
2011.00,0.3428
2010.00,0.3423
2009.00,0.3418
2008.00,0.3414
2007.00,0.3410
2006.00,0.3406
2005.00,0.3403
2004.00,0.3400
2003.00,0.3398
2002.00,0.3396
2001.00,0.3394
2000.00,0.3392
1999.00,0.3390
1998.00,0.3388
1997.00,0.3388
1996.00,0.3388
1995.00,0.3389
1994.00,0.3390
1993.00,0.3389
1992.00,0.3387
1991.00,0.3385
1990.00,0.3384
1989.00,0.3382
1988.00,0.3380
1987.00,0.3377
1986.00,0.3374
1985.00,0.3373
1984.00,0.3372
1983.00,0.3371
1982.00,0.3370
1981.00,0.3370
1980.00,0.3369
1979.00,0.3368
1978.00,0.3368
1977.00,0.3368
1976.00,0.3369
1975.00,0.3369
1974.00,0.3368
1973.00,0.3369
1972.00,0.3369
1971.00,0.3371
1970.00,0.3372
1969.00,0.3375
1968.00,0.3376
1967.00,0.3375
1966.00,0.3373
1965.00,0.3373
1964.00,0.3374
1963.00,0.3374
1962.00,0.3374
1961.00,0.3374
1960.00,0.3374
1959.00,0.3374
1958.00,0.3375
1957.00,0.3376
1956.00,0.3377
1955.00,0.3378
1954.00,0.3378
1953.00,0.3379
1952.00,0.3381
1951.00,0.3382
1950.00,0.3383
1949.00,0.3385
1948.00,0.3388
1947.00,0.3392
1946.00,0.3396
1945.00,0.3401
1944.00,0.3405
1943.00,0.3408
1942.00,0.3409
1941.00,0.3410
1940.00,0.3412
1939.00,0.3413
1938.00,0.3414
1937.00,0.3415
1936.00,0.3416
1935.00,0.3417
1934.00,0.3417
1933.00,0.3417
1932.00,0.3418
1931.00,0.3419
1930.00,0.3420
1929.00,0.3423
1928.00,0.3426
1927.00,0.3431
1926.00,0.3437
1925.00,0.3444
1924.00,0.3449
1923.00,0.3452
1922.00,0.3454
1921.00,0.3458
1920.00,0.3465
1919.00,0.3474
1918.00,0.3483
1917.00,0.3494
1916.00,0.3505
1915.00,0.3516
1914.00,0.3527
1913.00,0.3540
1912.00,0.3554
1911.00,0.3568
1910.00,0.3582
1909.00,0.3593
1908.00,0.3603
1907.00,0.3610
1906.00,0.3615
1905.00,0.3618
1904.00,0.3618
1903.00,0.3615
1902.00,0.3608
1901.00,0.3600
1900.00,0.3590
1899.00,0.3579
1898.00,0.3569
1897.00,0.3559
1896.00,0.3549
1895.00,0.3538
1894.00,0.3527
1893.00,0.3518
1892.00,0.3512
1891.00,0.3506
1890.00,0.3499
1889.00,0.3492
1888.00,0.3487
1887.00,0.3482
1886.00,0.3478
1885.00,0.3474
1884.00,0.3471
1883.00,0.3469
1882.00,0.3467
1881.00,0.3465
1880.00,0.3464
1879.00,0.3463
1878.00,0.3460
1877.00,0.3459
1876.00,0.3458
1875.00,0.3457
1874.00,0.3456
1873.00,0.3455
1872.00,0.3456
1871.00,0.3458
1870.00,0.3461
1869.00,0.3461
1868.00,0.3458
1867.00,0.3454
1866.00,0.3449
1865.00,0.3445
1864.00,0.3443
1863.00,0.3441
1862.00,0.3440
1861.00,0.3438
1860.00,0.3437
1859.00,0.3435
1858.00,0.3433
1857.00,0.3431
1856.00,0.3429
1855.00,0.3428
1854.00,0.3426
1853.00,0.3426
1852.00,0.3427
1851.00,0.3429
1850.00,0.3430
1849.00,0.3432
1848.00,0.3432
1847.00,0.3430
1846.00,0.3428
1845.00,0.3430
1844.00,0.3434
1843.00,0.3436
1842.00,0.3435
1841.00,0.3435
1840.00,0.3436
1839.00,0.3438
1838.00,0.3439
1837.00,0.3441
1836.00,0.3443
1835.00,0.3445
1834.00,0.3446
1833.00,0.3448
1832.00,0.3452
1831.00,0.3457
1830.00,0.3460
1829.00,0.3462
1828.00,0.3465
1827.00,0.3468
1826.00,0.3469
1825.00,0.3471
1824.00,0.3474
1823.00,0.3476
1822.00,0.3477
1821.00,0.3480
1820.00,0.3484
1819.00,0.3488
1818.00,0.3491
1817.00,0.3494
1816.00,0.3500
1815.00,0.3506
1814.00,0.3513
1813.00,0.3521
1812.00,0.3530
1811.00,0.3537
1810.00,0.3544
1809.00,0.3552
1808.00,0.3561
1807.00,0.3571
1806.00,0.3583
1805.00,0.3598
1804.00,0.3617
1803.00,0.3634
1802.00,0.3649
1801.00,0.3666
1800.00,0.3685
1799.00,0.3706
1798.00,0.3725
1797.00,0.3742
1796.00,0.3755
1795.00,0.3767
1794.00,0.3782
1793.00,0.3799
1792.00,0.3815
1791.00,0.3828
1790.00,0.3837
1789.00,0.3847
1788.00,0.3857
1787.00,0.3868
1786.00,0.3880
1785.00,0.3893
1784.00,0.3908
1783.00,0.3924
1782.00,0.3940
1781.00,0.3956
1780.00,0.3972
1779.00,0.3987
1778.00,0.4003
1777.00,0.4019
1776.00,0.4035
1775.00,0.4048
1774.00,0.4060
1773.00,0.4073
1772.00,0.4086
1771.00,0.4097
1770.00,0.4104
1769.00,0.4109
1768.00,0.4113
1767.00,0.4115
1766.00,0.4117
1765.00,0.4121
1764.00,0.4127
1763.00,0.4136
1762.00,0.4146
1761.00,0.4159
1760.00,0.4174
1759.00,0.4190
1758.00,0.4208
1757.00,0.4231
1756.00,0.4260
1755.00,0.4294
1754.00,0.4332
1753.00,0.4377
1752.00,0.4430
1751.00,0.4489
1750.00,0.4548
1749.00,0.4608
1748.00,0.4670
1747.00,0.4733
1746.00,0.4796
1745.00,0.4860
1744.00,0.4921
1743.00,0.4977
1742.00,0.5030
1741.00,0.5087
1740.00,0.5148
1739.00,0.5204
1738.00,0.5251
1737.00,0.5292
1736.00,0.5335
1735.00,0.5384
1734.00,0.5430
1733.00,0.5466
1732.00,0.5489
1731.00,0.5504
1730.00,0.5515
1729.00,0.5529
1728.00,0.5547
1727.00,0.5570
1726.00,0.5600
1725.00,0.5637
1724.00,0.5681
1723.00,0.5725
1722.00,0.5771
1721.00,0.5822
1720.00,0.5885
1719.00,0.5960
1718.00,0.6037
1717.00,0.6108
1716.00,0.6170
1715.00,0.6222
1714.00,0.6270
1713.00,0.6314
1712.00,0.6349
1711.00,0.6374
1710.00,0.6386
1709.00,0.6385
1708.00,0.6375
1707.00,0.6356
1706.00,0.6328
1705.00,0.6294
1704.00,0.6255
1703.00,0.6212
1702.00,0.6172
1701.00,0.6143
1700.00,0.6123
1699.00,0.6107
1698.00,0.6091
1697.00,0.6069
1696.00,0.6044
1695.00,0.6023
1694.00,0.6010
1693.00,0.6007
1692.00,0.6014
1691.00,0.6023
1690.00,0.6033
1689.00,0.6043
1688.00,0.6053
1687.00,0.6062
1686.00,0.6071
1685.00,0.6079
1684.00,0.6087
1683.00,0.6097
1682.00,0.6110
1681.00,0.6122
1680.00,0.6133
1679.00,0.6140
1678.00,0.6147
1677.00,0.6160
1676.00,0.6185
1675.00,0.6216
1674.00,0.6244
1673.00,0.6269
1672.00,0.6293
1671.00,0.6318
1670.00,0.6346
1669.00,0.6381
1668.00,0.6420
1667.00,0.6455
1666.00,0.6487
1665.00,0.6524
1664.00,0.6570
1663.00,0.6622
1662.00,0.6676
1661.00,0.6733
1660.00,0.6795
1659.00,0.6858
1658.00,0.6922
1657.00,0.6989
1656.00,0.7062
1655.00,0.7148
1654.00,0.7261
1653.00,0.7419
1652.00,0.7593
1651.00,0.7743
1650.00,0.7885
1649.00,0.8063
1648.00,0.8307
1647.00,0.8635
1646.00,0.9048
1645.00,0.9529
1644.00,1.0072
1643.00,1.0699
1642.00,1.1454
1641.00,1.2384
1640.00,1.3500
1639.00,1.4776
1638.00,1.6214
1637.00,1.7923
1636.00,2.0034
1635.00,2.2418
1634.00,2.4509
1633.00,2.5692
1632.00,2.5536
1631.00,2.3941
1630.00,2.1576
1629.00,1.9099
1628.00,1.6861
1627.00,1.5013
1626.00,1.3556
1625.00,1.2408
1624.00,1.1488
1623.00,1.0776
1622.00,1.0280
1621.00,0.9973
1620.00,0.9802
1619.00,0.9728
1618.00,0.9757
1617.00,0.9906
1616.00,1.0166
1615.00,1.0497
1614.00,1.0875
1613.00,1.1294
1612.00,1.1718
1611.00,1.2068
1610.00,1.2269
1609.00,1.2293
1608.00,1.2150
1607.00,1.1885
1606.00,1.1573
1605.00,1.1278
1604.00,1.1025
1603.00,1.0818
1602.00,1.0667
1601.00,1.0578
1600.00,1.0545
1599.00,1.0560
1598.00,1.0628
1597.00,1.0767
1596.00,1.0983
1595.00,1.1279
1594.00,1.1660
1593.00,1.2135
1592.00,1.2691
1591.00,1.3294
1590.00,1.3906
1589.00,1.4504
1588.00,1.5045
1587.00,1.5476
1586.00,1.5773
1585.00,1.5942
1584.00,1.5957
1583.00,1.5773
1582.00,1.5443
1581.00,1.5102
1580.00,1.4842
1579.00,1.4685
1578.00,1.4639
1577.00,1.4716
1576.00,1.4880
1575.00,1.5025
1574.00,1.5097
1573.00,1.5123
1572.00,1.5108
1571.00,1.5002
1570.00,1.4779
1569.00,1.4487
1568.00,1.4165
1567.00,1.3798
1566.00,1.3378
1565.00,1.2932
1564.00,1.2497
1563.00,1.2090
1562.00,1.1709
1561.00,1.1333
1560.00,1.0910
1559.00,1.0424
1558.00,1.0000
1557.00,0.9701
1556.00,0.9470
1555.00,0.9252
1554.00,0.9040
1553.00,0.8854
1552.00,0.8698
1551.00,0.8556
1550.00,0.8421
1549.00,0.8302
1548.00,0.8204
1547.00,0.8125
1546.00,0.8061
1545.00,0.8006
1544.00,0.7958
1543.00,0.7919
1542.00,0.7895
1541.00,0.7878
1540.00,0.7857
1539.00,0.7837
1538.00,0.7824
1537.00,0.7820
1536.00,0.7827
1535.00,0.7846
1534.00,0.7887
1533.00,0.7954
1532.00,0.8044
1531.00,0.8156
1530.00,0.8303
1529.00,0.8498
1528.00,0.8750
1527.00,0.9065
1526.00,0.9453
1525.00,0.9906
1524.00,1.0405
1523.00,1.0948
1522.00,1.1539
1521.00,1.2109
1520.00,1.2509
1519.00,1.2653
1518.00,1.2558
1517.00,1.2272
1516.00,1.1869
1515.00,1.1436
1514.00,1.1023
1513.00,1.0645
1512.00,1.0306
1511.00,1.0017
1510.00,0.9780
1509.00,0.9584
1508.00,0.9397
1507.00,0.9210
1506.00,0.9073
1505.00,0.9015
1504.00,0.9016
1503.00,0.9054
1502.00,0.9120
1501.00,0.9211
1500.00,0.9325
1499.00,0.9452
1498.00,0.9583
1497.00,0.9709
1496.00,0.9816
1495.00,0.9893
1494.00,0.9941
1493.00,0.9973
1492.00,0.9990
1491.00,0.9988
1490.00,0.9970
1489.00,0.9957
1488.00,0.9963
1487.00,0.9996
1486.00,1.0067
1485.00,1.0189
1484.00,1.0364
1483.00,1.0596
1482.00,1.0892
1481.00,1.1259
1480.00,1.1692
1479.00,1.2189
1478.00,1.2781
1477.00,1.3505
1476.00,1.4371
1475.00,1.5389
1474.00,1.6643
1473.00,1.8296
1472.00,2.0452
1471.00,2.3019
1470.00,2.5802
1469.00,2.8743
1468.00,3.1850
1467.00,3.5357
1466.00,4.0962
1465.00,4.1175
1464.00,3.9064
1463.00,4.2260
1462.00,4.5136
1461.00,4.0731
1460.00,3.8157
1459.00,3.7006
1458.00,3.7998
1457.00,4.1230
1456.00,4.3123
1455.00,3.8908
1454.00,3.5314
1453.00,3.3551
1452.00,3.1994
1451.00,3.0449
1450.00,2.9270
1449.00,2.8318
1448.00,2.7327
1447.00,2.6300
1446.00,2.5370
1445.00,2.4482
1444.00,2.3525
1443.00,2.2533
1442.00,2.1600
1441.00,2.0737
1440.00,1.9905
1439.00,1.9087
1438.00,1.8274
1437.00,1.7454
1436.00,1.6665
1435.00,1.5977
1434.00,1.5391
1433.00,1.4836
1432.00,1.4232
1431.00,1.3547
1430.00,1.2817
1429.00,1.2113
1428.00,1.1505
1427.00,1.1025
1426.00,1.0658
1425.00,1.0368
1424.00,1.0141
1423.00,0.9973
1422.00,0.9855
1421.00,0.9773
1420.00,0.9721
1419.00,0.9699
1418.00,0.9707
1417.00,0.9749
1416.00,0.9829
1415.00,0.9950
1414.00,1.0105
1413.00,1.0273
1412.00,1.0425
1411.00,1.0513
1410.00,1.0483
1409.00,1.0308
1408.00,1.0012
1407.00,0.9654
1406.00,0.9290
1405.00,0.8955
1404.00,0.8677
1403.00,0.8464
1402.00,0.8310
1401.00,0.8195
1400.00,0.8111
1399.00,0.8054
1398.00,0.8018
1397.00,0.7997
1396.00,0.7996
1395.00,0.8022
1394.00,0.8086
1393.00,0.8196
1392.00,0.8364
1391.00,0.8609
1390.00,0.8948
1389.00,0.9404
1388.00,1.0000
1387.00,1.0745
1386.00,1.1611
1385.00,1.2563
1384.00,1.3606
1383.00,1.4779
1382.00,1.6116
1381.00,1.7640
1380.00,1.9356
1379.00,2.1131
1378.00,2.2508
1377.00,2.2888
1376.00,2.2165
1375.00,2.0728
1374.00,1.9052
1373.00,1.7505
1372.00,1.6255
1371.00,1.5315
1370.00,1.4650
1369.00,1.4221
1368.00,1.3966
1367.00,1.3769
1366.00,1.3491
1365.00,1.3044
1364.00,1.2446
1363.00,1.1793
1362.00,1.1193
1361.00,1.0706
1360.00,1.0337
1359.00,1.0066
1358.00,0.9868
1357.00,0.9726
1356.00,0.9629
1355.00,0.9567
1354.00,0.9529
1353.00,0.9503
1352.00,0.9479
1351.00,0.9450
1350.00,0.9410
1349.00,0.9355
1348.00,0.9286
1347.00,0.9208
1346.00,0.9127
1345.00,0.9053
1344.00,0.8991
1343.00,0.8944
1342.00,0.8901
1341.00,0.8848
1340.00,0.8774
1339.00,0.8678
1338.00,0.8572
1337.00,0.8468
1336.00,0.8373
1335.00,0.8292
1334.00,0.8227
1333.00,0.8181
1332.00,0.8160
1331.00,0.8166
1330.00,0.8198
1329.00,0.8247
1328.00,0.8304
1327.00,0.8357
1326.00,0.8398
1325.00,0.8429
1324.00,0.8459
1323.00,0.8499
1322.00,0.8556
1321.00,0.8632
1320.00,0.8727
1319.00,0.8841
1318.00,0.8971
1317.00,0.9111
1316.00,0.9256
1315.00,0.9403
1314.00,0.9545
1313.00,0.9670
1312.00,0.9769
1311.00,0.9830
1310.00,0.9851
1309.00,0.9842
1308.00,0.9825
1307.00,0.9822
1306.00,0.9838
1305.00,0.9854
1304.00,0.9839
1303.00,0.9767
1302.00,0.9629
1301.00,0.9444
1300.00,0.9239
1299.00,0.9041
1298.00,0.8865
1297.00,0.8713
1296.00,0.8587
1295.00,0.8483
1294.00,0.8400
1293.00,0.8334
1292.00,0.8283
1291.00,0.8246
1290.00,0.8223
1289.00,0.8211
1288.00,0.8210
1287.00,0.8223
1286.00,0.8248
1285.00,0.8282
1284.00,0.8325
1283.00,0.8377
1282.00,0.8438
1281.00,0.8503
1280.00,0.8567
1279.00,0.8624
1278.00,0.8670
1277.00,0.8697
1276.00,0.8702
1275.00,0.8681
1274.00,0.8636
1273.00,0.8568
1272.00,0.8481
1271.00,0.8380
1270.00,0.8269
1269.00,0.8154
1268.00,0.8044
1267.00,0.7946
1266.00,0.7865
1265.00,0.7801
1264.00,0.7757
1263.00,0.7732
1262.00,0.7724
1261.00,0.7730
1260.00,0.7748
1259.00,0.7776
1258.00,0.7812
1257.00,0.7856
1256.00,0.7909
1255.00,0.7974
1254.00,0.8054
1253.00,0.8149
1252.00,0.8262
1251.00,0.8397
1250.00,0.8558
1249.00,0.8743
1248.00,0.8946
1247.00,0.9151
1246.00,0.9330
1245.00,0.9449
1244.00,0.9494
1243.00,0.9479
1242.00,0.9444
1241.00,0.9428
1240.00,0.9455
1239.00,0.9523
1238.00,0.9618
1237.00,0.9720
1236.00,0.9817
1235.00,0.9900
1234.00,0.9963
1233.00,0.9999
1232.00,1.0001
1231.00,0.9963
1230.00,0.9879
1229.00,0.9752
1228.00,0.9587
1227.00,0.9393
1226.00,0.9180
1225.00,0.8959
1224.00,0.8741
1223.00,0.8533
1222.00,0.8341
1221.00,0.8165
1220.00,0.8006
1219.00,0.7863
1218.00,0.7736
1217.00,0.7623
1216.00,0.7524
1215.00,0.7439
1214.00,0.7366
1213.00,0.7306
1212.00,0.7260
1211.00,0.7229
1210.00,0.7216
1209.00,0.7220
1208.00,0.7235
1207.00,0.7247
1206.00,0.7237
1205.00,0.7192
1204.00,0.7115
1203.00,0.7024
1202.00,0.6937
1201.00,0.6861
1200.00,0.6797
1199.00,0.6744
1198.00,0.6701
1197.00,0.6666
1196.00,0.6640
1195.00,0.6626
1194.00,0.6623
1193.00,0.6629
1192.00,0.6642
1191.00,0.6659
1190.00,0.6676
1189.00,0.6690
1188.00,0.6695
1187.00,0.6692
1186.00,0.6682
1185.00,0.6667
1184.00,0.6650
1183.00,0.6634
1182.00,0.6621
1181.00,0.6611
1180.00,0.6606
1179.00,0.6607
1178.00,0.6611
1177.00,0.6620
1176.00,0.6636
1175.00,0.6664
1174.00,0.6705
1173.00,0.6753
1172.00,0.6800
1171.00,0.6839
1170.00,0.6863
1169.00,0.6869
1168.00,0.6861
1167.00,0.6846
1166.00,0.6830
1165.00,0.6817
1164.00,0.6807
1163.00,0.6803
1162.00,0.6806
1161.00,0.6815
1160.00,0.6830
1159.00,0.6848
1158.00,0.6868
1157.00,0.6888
1156.00,0.6907
1155.00,0.6923
1154.00,0.6929
1153.00,0.6918
1152.00,0.6887
1151.00,0.6839
1150.00,0.6779
1149.00,0.6713
1148.00,0.6648
1147.00,0.6589
1146.00,0.6538
1145.00,0.6493
1144.00,0.6455
1143.00,0.6422
1142.00,0.6393
1141.00,0.6368
1140.00,0.6346
1139.00,0.6330
1138.00,0.6320
1137.00,0.6313
1136.00,0.6308
1135.00,0.6305
1134.00,0.6304
1133.00,0.6304
1132.00,0.6308
1131.00,0.6314
1130.00,0.6323
1129.00,0.6332
1128.00,0.6341
1127.00,0.6352
1126.00,0.6363
1125.00,0.6372
1124.00,0.6378
1123.00,0.6380
1122.00,0.6378
1121.00,0.6374
1120.00,0.6371
1119.00,0.6373
1118.00,0.6383
1117.00,0.6403
1116.00,0.6438
1115.00,0.6494
1114.00,0.6571
1113.00,0.6661
1112.00,0.6744
1111.00,0.6795
1110.00,0.6795
1109.00,0.6738
1108.00,0.6640
1107.00,0.6527
1106.00,0.6420
1105.00,0.6333
1104.00,0.6269
1103.00,0.6227
1102.00,0.6201
1101.00,0.6188
1100.00,0.6180
1099.00,0.6176
1098.00,0.6176
1097.00,0.6180
1096.00,0.6188
1095.00,0.6202
1094.00,0.6219
1093.00,0.6235
1092.00,0.6249
1091.00,0.6260
1090.00,0.6269
1089.00,0.6277
1088.00,0.6287
1087.00,0.6300
1086.00,0.6317
1085.00,0.6337
1084.00,0.6361
1083.00,0.6390
1082.00,0.6419
1081.00,0.6446
1080.00,0.6470
1079.00,0.6493
1078.00,0.6514
1077.00,0.6531
1076.00,0.6542
1075.00,0.6549
1074.00,0.6552
1073.00,0.6548
1072.00,0.6536
1071.00,0.6516
1070.00,0.6491
1069.00,0.6465
1068.00,0.6445
1067.00,0.6432
1066.00,0.6426
1065.00,0.6424
1064.00,0.6423
1063.00,0.6423
1062.00,0.6423
1061.00,0.6426
1060.00,0.6434
1059.00,0.6450
1058.00,0.6477
1057.00,0.6512
1056.00,0.6550
1055.00,0.6584
1054.00,0.6609
1053.00,0.6622
1052.00,0.6628
1051.00,0.6636
1050.00,0.6648
1049.00,0.6658
1048.00,0.6653
1047.00,0.6623
1046.00,0.6567
1045.00,0.6491
1044.00,0.6408
1043.00,0.6330
1042.00,0.6263
1041.00,0.6208
1040.00,0.6166
1039.00,0.6135
1038.00,0.6114
1037.00,0.6099
1036.00,0.6089
1035.00,0.6084
1034.00,0.6085
1033.00,0.6088
1032.00,0.6091
1031.00,0.6091
1030.00,0.6089
1029.00,0.6085
1028.00,0.6081
1027.00,0.6085
1026.00,0.6102
1025.00,0.6140
1024.00,0.6204
1023.00,0.6287
1022.00,0.6367
1021.00,0.6412
1020.00,0.6406
1019.00,0.6357
1018.00,0.6290
1017.00,0.6227
1016.00,0.6177
1015.00,0.6138
1014.00,0.6104
1013.00,0.6071
1012.00,0.6037
1011.00,0.6005
1010.00,0.5975
1009.00,0.5945
1008.00,0.5913
1007.00,0.5882
1006.00,0.5852
1005.00,0.5823
1004.00,0.5793
1003.00,0.5761
1002.00,0.5727
1001.00,0.5692
1000.00,0.5656
999.00,0.5622
998.00,0.5589
997.00,0.5555
996.00,0.5520
995.00,0.5485
994.00,0.5449
993.00,0.5414
992.00,0.5380
991.00,0.5350
990.00,0.5325
989.00,0.5304
988.00,0.5286
987.00,0.5273
986.00,0.5264
985.00,0.5258
984.00,0.5255
983.00,0.5257
982.00,0.5265
981.00,0.5276
980.00,0.5292
979.00,0.5312
978.00,0.5337
977.00,0.5364
976.00,0.5392
975.00,0.5417
974.00,0.5438
973.00,0.5457
972.00,0.5473
971.00,0.5488
970.00,0.5504
969.00,0.5520
968.00,0.5534
967.00,0.5543
966.00,0.5541
965.00,0.5523
964.00,0.5487
963.00,0.5436
962.00,0.5374
961.00,0.5310
960.00,0.5249
959.00,0.5196
958.00,0.5153
957.00,0.5119
956.00,0.5091
955.00,0.5068
954.00,0.5048
953.00,0.5030
952.00,0.5013
951.00,0.4999
950.00,0.4988
949.00,0.4979
948.00,0.4969
947.00,0.4958
946.00,0.4944
945.00,0.4928
944.00,0.4912
943.00,0.4899
942.00,0.4888
941.00,0.4878
940.00,0.4870
939.00,0.4863
938.00,0.4858
937.00,0.4851
936.00,0.4844
935.00,0.4837
934.00,0.4828
933.00,0.4817
932.00,0.4804
931.00,0.4788
930.00,0.4771
929.00,0.4750
928.00,0.4724
927.00,0.4696
926.00,0.4671
925.00,0.4652
924.00,0.4641
923.00,0.4637
922.00,0.4641
921.00,0.4650
920.00,0.4661
919.00,0.4669
918.00,0.4668
917.00,0.4658
916.00,0.4641
915.00,0.4623
914.00,0.4608
913.00,0.4598
912.00,0.4591
911.00,0.4585
910.00,0.4574
909.00,0.4555
908.00,0.4527
907.00,0.4498
906.00,0.4469
905.00,0.4444
904.00,0.4426
903.00,0.4419
902.00,0.4424
901.00,0.4444
900.00,0.4478
899.00,0.4527
898.00,0.4587
897.00,0.4654
896.00,0.4722
895.00,0.4791
894.00,0.4859
893.00,0.4922
892.00,0.4968
891.00,0.4982
890.00,0.4957
889.00,0.4900
888.00,0.4832
887.00,0.4777
886.00,0.4745
885.00,0.4738
884.00,0.4750
883.00,0.4777
882.00,0.4815
881.00,0.4862
880.00,0.4917
879.00,0.4973
878.00,0.5023
877.00,0.5063
876.00,0.5091
875.00,0.5108
874.00,0.5119
873.00,0.5126
872.00,0.5137
871.00,0.5163
870.00,0.5212
869.00,0.5284
868.00,0.5366
867.00,0.5432
866.00,0.5451
865.00,0.5402
864.00,0.5289
863.00,0.5142
862.00,0.4990
861.00,0.4857
860.00,0.4751
859.00,0.4674
858.00,0.4621
857.00,0.4586
856.00,0.4564
855.00,0.4549
854.00,0.4539
853.00,0.4531
852.00,0.4526
851.00,0.4527
850.00,0.4532
849.00,0.4538
848.00,0.4544
847.00,0.4549
846.00,0.4553
845.00,0.4554
844.00,0.4551
843.00,0.4545
842.00,0.4538
841.00,0.4530
840.00,0.4525
839.00,0.4529
838.00,0.4543
837.00,0.4565
836.00,0.4592
835.00,0.4625
834.00,0.4664
833.00,0.4709
832.00,0.4761
831.00,0.4816
830.00,0.4871
829.00,0.4920
828.00,0.4961
827.00,0.4991
826.00,0.5011
825.00,0.5024
824.00,0.5033
823.00,0.5042
822.00,0.5052
821.00,0.5062
820.00,0.5069
819.00,0.5073
818.00,0.5074
817.00,0.5072
816.00,0.5067
815.00,0.5056
814.00,0.5038
813.00,0.5012
812.00,0.4981
811.00,0.4947
810.00,0.4915
809.00,0.4887
808.00,0.4863
807.00,0.4843
806.00,0.4823
805.00,0.4798
804.00,0.4768
803.00,0.4735
802.00,0.4700
801.00,0.4664
800.00,0.4628
799.00,0.4589
798.00,0.4547
797.00,0.4503
796.00,0.4461
795.00,0.4427
794.00,0.4403
793.00,0.4389
792.00,0.4386
791.00,0.4395
790.00,0.4413
789.00,0.4438
788.00,0.4468
787.00,0.4505
786.00,0.4549
785.00,0.4597
784.00,0.4646
783.00,0.4697
782.00,0.4753
781.00,0.4817
780.00,0.4890
779.00,0.4976
778.00,0.5078
777.00,0.5198
776.00,0.5337
775.00,0.5494
774.00,0.5660
773.00,0.5818
772.00,0.5943
771.00,0.6012
770.00,0.6018
769.00,0.5981
768.00,0.5932
767.00,0.5897
766.00,0.5886
765.00,0.5893
764.00,0.5909
763.00,0.5927
762.00,0.5944
761.00,0.5962
760.00,0.5986
759.00,0.6020
758.00,0.6065
757.00,0.6116
756.00,0.6160
755.00,0.6191
754.00,0.6204
753.00,0.6201
752.00,0.6189
751.00,0.6173
750.00,0.6155
749.00,0.6135
748.00,0.6112
747.00,0.6094
746.00,0.6086
745.00,0.6090
744.00,0.6105
743.00,0.6128
742.00,0.6158
741.00,0.6192
740.00,0.6228
739.00,0.6266
738.00,0.6305
737.00,0.6343
736.00,0.6385
735.00,0.6437
734.00,0.6503
733.00,0.6584
732.00,0.6682
731.00,0.6803
730.00,0.6952
729.00,0.7131
728.00,0.7337
727.00,0.7569
726.00,0.7829
725.00,0.8110
724.00,0.8384
723.00,0.8603
722.00,0.8707
721.00,0.8641
720.00,0.8396
719.00,0.8019
718.00,0.7588
717.00,0.7169
716.00,0.6799
715.00,0.6489
714.00,0.6232
713.00,0.6012
712.00,0.5822
711.00,0.5655
710.00,0.5513
709.00,0.5391
708.00,0.5286
707.00,0.5191
706.00,0.5098
705.00,0.5005
704.00,0.4914
703.00,0.4835
702.00,0.4773
701.00,0.4732
700.00,0.4709
699.00,0.4696
698.00,0.4680
697.00,0.4655
696.00,0.4627
695.00,0.4603
694.00,0.4592
693.00,0.4591
692.00,0.4598
691.00,0.4611
690.00,0.4626
689.00,0.4641
688.00,0.4656
687.00,0.4670
686.00,0.4685
685.00,0.4702
684.00,0.4723
683.00,0.4746
682.00,0.4768
681.00,0.4788
680.00,0.4809
679.00,0.4833
678.00,0.4859
677.00,0.4884
676.00,0.4908
675.00,0.4929
674.00,0.4950
673.00,0.4971
672.00,0.4993
671.00,0.5019
670.00,0.5047
669.00,0.5074
668.00,0.5094
667.00,0.5107
666.00,0.5115
665.00,0.5124
664.00,0.5131
663.00,0.5134
662.00,0.5133
661.00,0.5128
660.00,0.5115
659.00,0.5096
658.00,0.5077
657.00,0.5059
656.00,0.5040
655.00,0.5018
654.00,0.4988
653.00,0.4952
652.00,0.4913
651.00,0.4876
650.00,0.4842
649.00,0.4810
648.00,0.4778
647.00,0.4748
646.00,0.4721
645.00,0.4704
644.00,0.4701
643.00,0.4715
642.00,0.4738
641.00,0.4752
640.00,0.4750
639.00,0.4730
638.00,0.4699
637.00,0.4659
636.00,0.4612
635.00,0.4565
634.00,0.4521
633.00,0.4484
632.00,0.4455
631.00,0.4434
630.00,0.4420
629.00,0.4413
628.00,0.4411
627.00,0.4415
626.00,0.4422
625.00,0.4429
624.00,0.4434
623.00,0.4438
622.00,0.4444
621.00,0.4450
620.00,0.4455
619.00,0.4462
618.00,0.4470
617.00,0.4479
616.00,0.4489
615.00,0.4501
614.00,0.4515
613.00,0.4527
612.00,0.4531
611.00,0.4523
610.00,0.4500
609.00,0.4460
608.00,0.4411
607.00,0.4361
606.00,0.4316
605.00,0.4277
604.00,0.4242
603.00,0.4213
602.00,0.4193
601.00,0.4180
600.00,0.4171
599.00,0.4167
598.00,0.4167
597.00,0.4168
596.00,0.4167
595.00,0.4165
594.00,0.4169
593.00,0.4178
592.00,0.4190
591.00,0.4203
590.00,0.4214
589.00,0.4220
588.00,0.4222
587.00,0.4225
586.00,0.4235
585.00,0.4253
584.00,0.4275
583.00,0.4297
582.00,0.4317
581.00,0.4335
580.00,0.4353
579.00,0.4372
578.00,0.4394
577.00,0.4412
576.00,0.4424
575.00,0.4434
574.00,0.4446
573.00,0.4458
572.00,0.4468
571.00,0.4476
570.00,0.4484
569.00,0.4490
568.00,0.4497
567.00,0.4506
566.00,0.4519
565.00,0.4537
564.00,0.4564
563.00,0.4608
562.00,0.4672
561.00,0.4750
560.00,0.4829
559.00,0.4897
558.00,0.4939
557.00,0.4941
556.00,0.4897
555.00,0.4817
554.00,0.4729
553.00,0.4653
552.00,0.4597
551.00,0.4562
550.00,0.4542
