Created as New Dataset,
cm-1,A
4000.00,0.3911
3999.00,0.3911
3998.00,0.3911
3997.00,0.3910
3996.00,0.3909
3995.00,0.3907
3994.00,0.3905
3993.00,0.3903
3992.00,0.3900
3991.00,0.3897
3990.00,0.3894
3989.00,0.3889
3988.00,0.3884
3987.00,0.3879
3986.00,0.3873
3985.00,0.3868
3984.00,0.3864
3983.00,0.3859
3982.00,0.3854
3981.00,0.3850
3980.00,0.3845
3979.00,0.3841
3978.00,0.3836
3977.00,0.3831
3976.00,0.3827
3975.00,0.3824
3974.00,0.3820
3973.00,0.3817
3972.00,0.3814
3971.00,0.3811
3970.00,0.3808
3969.00,0.3805
3968.00,0.3801
3967.00,0.3798
3966.00,0.3794
3965.00,0.3789
3964.00,0.3785
3963.00,0.3779
3962.00,0.3774
3961.00,0.3769
3960.00,0.3764
3959.00,0.3760
3958.00,0.3757
3957.00,0.3754
3956.00,0.3751
3955.00,0.3748
3954.00,0.3745
3953.00,0.3741
3952.00,0.3737
3951.00,0.3733
3950.00,0.3729
3949.00,0.3726
3948.00,0.3723
3947.00,0.3719
3946.00,0.3716
3945.00,0.3713
3944.00,0.3710
3943.00,0.3708
3942.00,0.3707
3941.00,0.3706
3940.00,0.3704
3939.00,0.3703
3938.00,0.3702
3937.00,0.3701
3936.00,0.3700
3935.00,0.3699
3934.00,0.3698
3933.00,0.3697
3932.00,0.3697
3931.00,0.3698
3930.00,0.3699
3929.00,0.3700
3928.00,0.3701
3927.00,0.3702
3926.00,0.3702
3925.00,0.3703
3924.00,0.3703
3923.00,0.3702
3922.00,0.3702
3921.00,0.3702
3920.00,0.3703
3919.00,0.3703
3918.00,0.3703
3917.00,0.3702
3916.00,0.3701
3915.00,0.3700
3914.00,0.3698
3913.00,0.3696
3912.00,0.3694
3911.00,0.3693
3910.00,0.3692
3909.00,0.3691
3908.00,0.3690
3907.00,0.3688
3906.00,0.3686
3905.00,0.3685
3904.00,0.3683
3903.00,0.3682
3902.00,0.3680
3901.00,0.3679
3900.00,0.3678
3899.00,0.3677
3898.00,0.3677
3897.00,0.3676
3896.00,0.3675
3895.00,0.3673
3894.00,0.3672
3893.00,0.3670
3892.00,0.3669
3891.00,0.3668
3890.00,0.3667
3889.00,0.3666
3888.00,0.3664
3887.00,0.3663
3886.00,0.3663
3885.00,0.3663
3884.00,0.3662
3883.00,0.3661
3882.00,0.3660
3881.00,0.3659
3880.00,0.3659
3879.00,0.3658
3878.00,0.3657
3877.00,0.3655
3876.00,0.3654
3875.00,0.3654
3874.00,0.3654
3873.00,0.3653
3872.00,0.3651
3871.00,0.3649
3870.00,0.3648
3869.00,0.3648
3868.00,0.3646
3867.00,0.3643
3866.00,0.3641
3865.00,0.3639
3864.00,0.3638
3863.00,0.3637
3862.00,0.3635
3861.00,0.3633
3860.00,0.3632
3859.00,0.3632
3858.00,0.3631
3857.00,0.3629
3856.00,0.3628
3855.00,0.3627
3854.00,0.3628
3853.00,0.3629
3852.00,0.3630
3851.00,0.3631
3850.00,0.3631
3849.00,0.3632
3848.00,0.3633
3847.00,0.3634
3846.00,0.3634
3845.00,0.3633
3844.00,0.3632
3843.00,0.3631
3842.00,0.3631
3841.00,0.3631
3840.00,0.3631
3839.00,0.3631
3838.00,0.3631
3837.00,0.3630
3836.00,0.3628
3835.00,0.3625
3834.00,0.3622
3833.00,0.3620
3832.00,0.3618
3831.00,0.3616
3830.00,0.3613
3829.00,0.3610
3828.00,0.3608
3827.00,0.3607
3826.00,0.3606
3825.00,0.3605
3824.00,0.3603
3823.00,0.3601
3822.00,0.3600
3821.00,0.3601
3820.00,0.3601
3819.00,0.3599
3818.00,0.3597
3817.00,0.3596
3816.00,0.3596
3815.00,0.3596
3814.00,0.3595
3813.00,0.3592
3812.00,0.3590
3811.00,0.3589
3810.00,0.3588
3809.00,0.3586
3808.00,0.3584
3807.00,0.3584
3806.00,0.3583
3805.00,0.3581
3804.00,0.3579
3803.00,0.3578
3802.00,0.3578
3801.00,0.3577
3800.00,0.3574
3799.00,0.3570
3798.00,0.3566
3797.00,0.3563
3796.00,0.3561
3795.00,0.3559
3794.00,0.3557
3793.00,0.3554
3792.00,0.3552
3791.00,0.3549
3790.00,0.3547
3789.00,0.3545
3788.00,0.3543
3787.00,0.3542
3786.00,0.3541
3785.00,0.3542
3784.00,0.3542
3783.00,0.3543
3782.00,0.3543
3781.00,0.3543
3780.00,0.3543
3779.00,0.3544
3778.00,0.3544
3777.00,0.3543
3776.00,0.3543
3775.00,0.3544
3774.00,0.3545
3773.00,0.3546
3772.00,0.3547
3771.00,0.3547
3770.00,0.3548
3769.00,0.3548
3768.00,0.3547
3767.00,0.3546
3766.00,0.3545
3765.00,0.3544
3764.00,0.3543
3763.00,0.3542
3762.00,0.3540
3761.00,0.3538
3760.00,0.3536
3759.00,0.3535
3758.00,0.3533
3757.00,0.3531
3756.00,0.3530
3755.00,0.3528
3754.00,0.3526
3753.00,0.3524
3752.00,0.3523
3751.00,0.3522
3750.00,0.3521
3749.00,0.3521
3748.00,0.3521
3747.00,0.3520
3746.00,0.3519
3745.00,0.3519
3744.00,0.3520
3743.00,0.3520
3742.00,0.3518
3741.00,0.3516
3740.00,0.3516
3739.00,0.3517
3738.00,0.3518
3737.00,0.3519
3736.00,0.3519
3735.00,0.3518
3734.00,0.3516
3733.00,0.3515
3732.00,0.3514
3731.00,0.3513
3730.00,0.3512
3729.00,0.3510
3728.00,0.3507
3727.00,0.3506
3726.00,0.3504
3725.00,0.3502
3724.00,0.3500
3723.00,0.3497
3722.00,0.3494
3721.00,0.3492
3720.00,0.3490
3719.00,0.3489
3718.00,0.3489
3717.00,0.3488
3716.00,0.3488
3715.00,0.3487
3714.00,0.3487
3713.00,0.3489
3712.00,0.3491
3711.00,0.3493
3710.00,0.3494
3709.00,0.3495
3708.00,0.3496
3707.00,0.3498
3706.00,0.3500
3705.00,0.3502
3704.00,0.3503
3703.00,0.3504
3702.00,0.3505
3701.00,0.3506
3700.00,0.3507
3699.00,0.3509
3698.00,0.3510
3697.00,0.3512
3696.00,0.3513
3695.00,0.3514
3694.00,0.3516
3693.00,0.3517
3692.00,0.3518
3691.00,0.3519
3690.00,0.3520
3689.00,0.3520
3688.00,0.3520
3687.00,0.3521
3686.00,0.3522
3685.00,0.3523
3684.00,0.3524
3683.00,0.3525
3682.00,0.3525
3681.00,0.3525
3680.00,0.3525
3679.00,0.3524
3678.00,0.3523
3677.00,0.3523
3676.00,0.3523
3675.00,0.3525
3674.00,0.3525
3673.00,0.3525
3672.00,0.3524
3671.00,0.3525
3670.00,0.3527
3669.00,0.3528
3668.00,0.3528
3667.00,0.3528
3666.00,0.3529
3665.00,0.3532
3664.00,0.3534
3663.00,0.3537
3662.00,0.3540
3661.00,0.3542
3660.00,0.3544
3659.00,0.3545
3658.00,0.3547
3657.00,0.3549
3656.00,0.3552
3655.00,0.3554
3654.00,0.3556
3653.00,0.3558
3652.00,0.3562
3651.00,0.3566
3650.00,0.3570
3649.00,0.3573
3648.00,0.3576
3647.00,0.3578
3646.00,0.3581
3645.00,0.3584
3644.00,0.3586
3643.00,0.3588
3642.00,0.3591
3641.00,0.3594
3640.00,0.3598
3639.00,0.3602
3638.00,0.3607
3637.00,0.3612
3636.00,0.3617
3635.00,0.3622
3634.00,0.3628
3633.00,0.3633
3632.00,0.3638
3631.00,0.3643
3630.00,0.3651
3629.00,0.3663
3628.00,0.3676
3627.00,0.3689
3626.00,0.3702
3625.00,0.3713
3624.00,0.3722
3623.00,0.3728
3622.00,0.3726
3621.00,0.3719
3620.00,0.3706
3619.00,0.3691
3618.00,0.3676
3617.00,0.3664
3616.00,0.3655
3615.00,0.3648
3614.00,0.3644
3613.00,0.3642
3612.00,0.3642
3611.00,0.3643
3610.00,0.3644
3609.00,0.3647
3608.00,0.3650
3607.00,0.3652
3606.00,0.3652
3605.00,0.3651
3604.00,0.3649
3603.00,0.3646
3602.00,0.3641
3601.00,0.3634
3600.00,0.3624
3599.00,0.3613
3598.00,0.3602
3597.00,0.3591
3596.00,0.3581
3595.00,0.3571
3594.00,0.3561
3593.00,0.3552
3592.00,0.3544
3591.00,0.3538
3590.00,0.3532
3589.00,0.3526
3588.00,0.3521
3587.00,0.3515
3586.00,0.3510
3585.00,0.3506
3584.00,0.3502
3583.00,0.3498
3582.00,0.3493
3581.00,0.3488
3580.00,0.3484
3579.00,0.3479
3578.00,0.3476
3577.00,0.3472
3576.00,0.3470
3575.00,0.3468
3574.00,0.3467
3573.00,0.3467
3572.00,0.3467
3571.00,0.3466
3570.00,0.3467
3569.00,0.3467
3568.00,0.3468
3567.00,0.3469
3566.00,0.3470
3565.00,0.3472
3564.00,0.3473
3563.00,0.3474
3562.00,0.3474
3561.00,0.3475
3560.00,0.3476
3559.00,0.3477
3558.00,0.3478
3557.00,0.3480
3556.00,0.3482
3555.00,0.3485
3554.00,0.3488
3553.00,0.3490
3552.00,0.3493
3551.00,0.3495
3550.00,0.3498
3549.00,0.3502
3548.00,0.3506
3547.00,0.3510
3546.00,0.3514
3545.00,0.3518
3544.00,0.3522
3543.00,0.3526
3542.00,0.3530
3541.00,0.3534
3540.00,0.3539
3539.00,0.3544
3538.00,0.3549
3537.00,0.3554
3536.00,0.3559
3535.00,0.3564
3534.00,0.3569
3533.00,0.3574
3532.00,0.3579
3531.00,0.3585
3530.00,0.3591
3529.00,0.3597
3528.00,0.3603
3527.00,0.3609
3526.00,0.3615
3525.00,0.3621
3524.00,0.3628
3523.00,0.3635
3522.00,0.3642
3521.00,0.3648
3520.00,0.3654
3519.00,0.3661
3518.00,0.3668
3517.00,0.3676
3516.00,0.3682
3515.00,0.3689
3514.00,0.3695
3513.00,0.3701
3512.00,0.3708
3511.00,0.3715
3510.00,0.3722
3509.00,0.3730
3508.00,0.3738
3507.00,0.3746
3506.00,0.3753
3505.00,0.3761
3504.00,0.3768
3503.00,0.3776
3502.00,0.3785
3501.00,0.3794
3500.00,0.3803
3499.00,0.3811
3498.00,0.3819
3497.00,0.3827
3496.00,0.3836
3495.00,0.3846
3494.00,0.3856
3493.00,0.3866
3492.00,0.3875
3491.00,0.3884
3490.00,0.3893
3489.00,0.3903
3488.00,0.3912
3487.00,0.3922
3486.00,0.3932
3485.00,0.3942
3484.00,0.3952
3483.00,0.3962
3482.00,0.3972
3481.00,0.3983
3480.00,0.3993
3479.00,0.4004
3478.00,0.4014
3477.00,0.4026
3476.00,0.4036
3475.00,0.4047
3474.00,0.4058
3473.00,0.4069
3472.00,0.4080
3471.00,0.4092
3470.00,0.4105
3469.00,0.4117
3468.00,0.4130
3467.00,0.4142
3466.00,0.4155
3465.00,0.4168
3464.00,0.4181
3463.00,0.4195
3462.00,0.4209
3461.00,0.4225
3460.00,0.4241
3459.00,0.4257
3458.00,0.4272
3457.00,0.4289
3456.00,0.4305
3455.00,0.4322
3454.00,0.4340
3453.00,0.4358
3452.00,0.4376
3451.00,0.4395
3450.00,0.4415
3449.00,0.4436
3448.00,0.4459
3447.00,0.4483
3446.00,0.4508
3445.00,0.4535
3444.00,0.4562
3443.00,0.4589
3442.00,0.4617
3441.00,0.4645
3440.00,0.4673
3439.00,0.4699
3438.00,0.4724
3437.00,0.4748
3436.00,0.4770
3435.00,0.4791
3434.00,0.4810
3433.00,0.4828
3432.00,0.4845
3431.00,0.4861
3430.00,0.4877
3429.00,0.4893
3428.00,0.4910
3427.00,0.4927
3426.00,0.4945
3425.00,0.4963
3424.00,0.4981
3423.00,0.4999
3422.00,0.5017
3421.00,0.5034
3420.00,0.5052
3419.00,0.5071
3418.00,0.5090
3417.00,0.5110
3416.00,0.5130
3415.00,0.5150
3414.00,0.5171
3413.00,0.5193
3412.00,0.5216
3411.00,0.5238
3410.00,0.5260
3409.00,0.5282
3408.00,0.5304
3407.00,0.5326
3406.00,0.5348
3405.00,0.5370
3404.00,0.5394
3403.00,0.5418
3402.00,0.5441
3401.00,0.5465
3400.00,0.5488
3399.00,0.5511
3398.00,0.5533
3397.00,0.5555
3396.00,0.5577
3395.00,0.5599
3394.00,0.5622
3393.00,0.5644
3392.00,0.5667
3391.00,0.5690
3390.00,0.5713
3389.00,0.5736
3388.00,0.5759
3387.00,0.5783
3386.00,0.5807
3385.00,0.5831
3384.00,0.5855
3383.00,0.5880
3382.00,0.5905
3381.00,0.5930
3380.00,0.5955
3379.00,0.5979
3378.00,0.6004
3377.00,0.6030
3376.00,0.6055
3375.00,0.6081
3374.00,0.6107
3373.00,0.6134
3372.00,0.6162
3371.00,0.6189
3370.00,0.6217
3369.00,0.6244
3368.00,0.6270
3367.00,0.6297
3366.00,0.6324
3365.00,0.6352
3364.00,0.6381
3363.00,0.6410
3362.00,0.6440
3361.00,0.6470
3360.00,0.6501
3359.00,0.6532
3358.00,0.6563
3357.00,0.6593
3356.00,0.6623
3355.00,0.6652
3354.00,0.6681
3353.00,0.6709
3352.00,0.6737
3351.00,0.6766
3350.00,0.6796
3349.00,0.6824
3348.00,0.6851
3347.00,0.6877
3346.00,0.6902
3345.00,0.6928
3344.00,0.6953
3343.00,0.6977
3342.00,0.6998
3341.00,0.7019
3340.00,0.7037
3339.00,0.7053
3338.00,0.7069
3337.00,0.7085
3336.00,0.7099
3335.00,0.7112
3334.00,0.7121
3333.00,0.7129
3332.00,0.7134
3331.00,0.7138
3330.00,0.7140
3329.00,0.7141
3328.00,0.7140
3327.00,0.7138
3326.00,0.7135
3325.00,0.7130
3324.00,0.7123
3323.00,0.7115
3322.00,0.7105
3321.00,0.7094
3320.00,0.7082
3319.00,0.7069
3318.00,0.7054
3317.00,0.7039
3316.00,0.7023
3315.00,0.7006
3314.00,0.6990
3313.00,0.6974
3312.00,0.6957
3311.00,0.6940
3310.00,0.6924
3309.00,0.6909
3308.00,0.6893
3307.00,0.6876
3306.00,0.6857
3305.00,0.6838
3304.00,0.6820
3303.00,0.6804
3302.00,0.6790
3301.00,0.6776
3300.00,0.6763
3299.00,0.6750
3298.00,0.6737
3297.00,0.6724
3296.00,0.6712
3295.00,0.6701
3294.00,0.6691
3293.00,0.6682
3292.00,0.6674
3291.00,0.6666
3290.00,0.6659
3289.00,0.6652
3288.00,0.6646
3287.00,0.6641
3286.00,0.6638
3285.00,0.6636
3284.00,0.6635
3283.00,0.6635
3282.00,0.6636
3281.00,0.6637
3280.00,0.6637
3279.00,0.6638
3278.00,0.6640
3277.00,0.6643
3276.00,0.6646
3275.00,0.6648
3274.00,0.6651
3273.00,0.6656
3272.00,0.6662
3271.00,0.6668
3270.00,0.6673
3269.00,0.6679
3268.00,0.6683
3267.00,0.6687
3266.00,0.6691
3265.00,0.6695
3264.00,0.6700
3263.00,0.6705
3262.00,0.6709
3261.00,0.6713
3260.00,0.6716
3259.00,0.6719
3258.00,0.6722
3257.00,0.6724
3256.00,0.6726
3255.00,0.6728
3254.00,0.6729
3253.00,0.6730
3252.00,0.6730
3251.00,0.6730
3250.00,0.6729
3249.00,0.6727
3248.00,0.6726
3247.00,0.6724
3246.00,0.6722
3245.00,0.6719
3244.00,0.6714
3243.00,0.6708
3242.00,0.6701
3241.00,0.6694
3240.00,0.6686
3239.00,0.6678
3238.00,0.6669
3237.00,0.6660
3236.00,0.6651
3235.00,0.6641
3234.00,0.6631
3233.00,0.6618
3232.00,0.6605
3231.00,0.6591
3230.00,0.6577
3229.00,0.6563
3228.00,0.6548
3227.00,0.6532
3226.00,0.6515
3225.00,0.6497
3224.00,0.6480
3223.00,0.6462
3222.00,0.6445
3221.00,0.6427
3220.00,0.6409
3219.00,0.6390
3218.00,0.6371
3217.00,0.6351
3216.00,0.6331
3215.00,0.6312
3214.00,0.6293
3213.00,0.6274
3212.00,0.6254
3211.00,0.6234
3210.00,0.6214
3209.00,0.6195
3208.00,0.6175
3207.00,0.6154
3206.00,0.6134
3205.00,0.6114
3204.00,0.6095
3203.00,0.6076
3202.00,0.6056
3201.00,0.6036
3200.00,0.6017
3199.00,0.5998
3198.00,0.5978
3197.00,0.5958
3196.00,0.5937
3195.00,0.5915
3194.00,0.5893
3193.00,0.5872
3192.00,0.5850
3191.00,0.5829
3190.00,0.5808
3189.00,0.5786
3188.00,0.5765
3187.00,0.5743
3186.00,0.5721
3185.00,0.5699
3184.00,0.5677
3183.00,0.5655
3182.00,0.5633
3181.00,0.5611
3180.00,0.5590
3179.00,0.5569
3178.00,0.5549
3177.00,0.5529
3176.00,0.5508
3175.00,0.5488
3174.00,0.5468
3173.00,0.5449
3172.00,0.5430
3171.00,0.5411
3170.00,0.5392
3169.00,0.5374
3168.00,0.5356
3167.00,0.5338
3166.00,0.5321
3165.00,0.5304
3164.00,0.5288
3163.00,0.5271
3162.00,0.5255
3161.00,0.5239
3160.00,0.5223
3159.00,0.5207
3158.00,0.5192
3157.00,0.5177
3156.00,0.5163
3155.00,0.5149
3154.00,0.5136
3153.00,0.5122
3152.00,0.5108
3151.00,0.5094
3150.00,0.5080
3149.00,0.5066
3148.00,0.5053
3147.00,0.5041
3146.00,0.5029
3145.00,0.5018
3144.00,0.5007
3143.00,0.4997
3142.00,0.4986
3141.00,0.4975
3140.00,0.4965
3139.00,0.4955
3138.00,0.4945
3137.00,0.4937
3136.00,0.4929
3135.00,0.4921
3134.00,0.4913
3133.00,0.4905
3132.00,0.4898
3131.00,0.4891
3130.00,0.4883
3129.00,0.4877
3128.00,0.4870
3127.00,0.4864
3126.00,0.4857
3125.00,0.4850
3124.00,0.4844
3123.00,0.4838
3122.00,0.4834
3121.00,0.4829
3120.00,0.4826
3119.00,0.4823
3118.00,0.4821
3117.00,0.4819
3116.00,0.4818
3115.00,0.4817
3114.00,0.4817
3113.00,0.4818
3112.00,0.4820
3111.00,0.4821
3110.00,0.4824
3109.00,0.4827
3108.00,0.4831
3107.00,0.4836
3106.00,0.4842
3105.00,0.4848
3104.00,0.4854
3103.00,0.4860
3102.00,0.4867
3101.00,0.4875
3100.00,0.4882
3099.00,0.4890
3098.00,0.4897
3097.00,0.4904
3096.00,0.4911
3095.00,0.4917
3094.00,0.4923
3093.00,0.4929
3092.00,0.4936
3091.00,0.4943
3090.00,0.4951
3089.00,0.4960
3088.00,0.4970
3087.00,0.4980
3086.00,0.4991
3085.00,0.5003
3084.00,0.5015
3083.00,0.5028
3082.00,0.5042
3081.00,0.5058
3080.00,0.5074
3079.00,0.5091
3078.00,0.5109
3077.00,0.5128
3076.00,0.5150
3075.00,0.5172
3074.00,0.5196
3073.00,0.5220
3072.00,0.5246
3071.00,0.5274
3070.00,0.5303
3069.00,0.5333
3068.00,0.5363
3067.00,0.5393
3066.00,0.5424
3065.00,0.5456
3064.00,0.5489
3063.00,0.5523
3062.00,0.5558
3061.00,0.5593
3060.00,0.5628
3059.00,0.5661
3058.00,0.5693
3057.00,0.5726
3056.00,0.5758
3055.00,0.5790
3054.00,0.5821
3053.00,0.5851
3052.00,0.5880
3051.00,0.5907
3050.00,0.5935
3049.00,0.5964
3048.00,0.5993
3047.00,0.6024
3046.00,0.6055
3045.00,0.6088
3044.00,0.6122
3043.00,0.6158
3042.00,0.6196
3041.00,0.6237
3040.00,0.6281
3039.00,0.6327
3038.00,0.6375
3037.00,0.6425
3036.00,0.6477
3035.00,0.6531
3034.00,0.6587
3033.00,0.6645
3032.00,0.6705
3031.00,0.6765
3030.00,0.6825
3029.00,0.6886
3028.00,0.6947
3027.00,0.7008
3026.00,0.7070
3025.00,0.7132
3024.00,0.7194
3023.00,0.7257
3022.00,0.7323
3021.00,0.7393
3020.00,0.7466
3019.00,0.7543
3018.00,0.7623
3017.00,0.7705
3016.00,0.7789
3015.00,0.7879
3014.00,0.7973
3013.00,0.8075
3012.00,0.8182
3011.00,0.8295
3010.00,0.8414
3009.00,0.8539
3008.00,0.8672
3007.00,0.8814
3006.00,0.8966
3005.00,0.9127
3004.00,0.9295
3003.00,0.9469
3002.00,0.9651
3001.00,0.9843
3000.00,1.0049
2999.00,1.0269
2998.00,1.0506
2997.00,1.0759
2996.00,1.1030
2995.00,1.1319
2994.00,1.1628
2993.00,1.1958
2992.00,1.2314
2991.00,1.2700
2990.00,1.3122
2989.00,1.3581
2988.00,1.4081
2987.00,1.4625
2986.00,1.5225
2985.00,1.5889
2984.00,1.6625
2983.00,1.7440
2982.00,1.8343
2981.00,1.9336
2980.00,2.0413
2979.00,2.1564
2978.00,2.2793
2977.00,2.4115
2976.00,2.5577
2975.00,2.7247
2974.00,2.9187
2973.00,3.1385
2972.00,3.3728
2971.00,3.6149
2970.00,3.8456
2969.00,3.9326
2968.00,3.8354
2967.00,3.7538
2966.00,3.8042
2965.00,3.9863
2964.00,4.1203
2963.00,4.0172
2962.00,3.8360
2961.00,3.7100
2960.00,3.6383
2959.00,3.6241
2958.00,3.6836
2957.00,3.8545
2956.00,4.0807
2955.00,4.0694
2954.00,3.9817
2953.00,4.0190
2952.00,4.2836
2951.00,4.3844
2950.00,4.1557
2949.00,4.0988
2948.00,4.3161
2947.00,4.5640
2946.00,4.3784
2945.00,4.3543
2944.00,4.3990
2943.00,4.1797
2942.00,3.9344
2941.00,3.8434
2940.00,3.7972
2939.00,3.7174
2938.00,3.7051
2937.00,3.7967
2936.00,3.9283
2935.00,3.9724
2934.00,3.9073
2933.00,3.8274
2932.00,3.7963
2931.00,3.8814
2930.00,4.1002
2929.00,4.2084
2928.00,4.0724
2927.00,3.9409
2926.00,3.9333
2925.00,3.9929
2924.00,4.1060
2923.00,4.3972
2922.00,5.0250
2921.00,5.3246
2920.00,4.6091
2919.00,4.2408
2918.00,4.0710
2917.00,4.0275
2916.00,4.1167
2915.00,4.4212
2914.00,4.8957
2913.00,4.7716
2912.00,4.4309
2911.00,4.1821
2910.00,4.0302
2909.00,3.9888
2908.00,4.0926
2907.00,4.1939
2906.00,4.2335
2905.00,4.3940
2904.00,4.7460
2903.00,4.6815
2902.00,4.3979
2901.00,4.2876
2900.00,4.4052
2899.00,4.5652
2898.00,4.4320
2897.00,4.2688
2896.00,4.3069
2895.00,4.6259
2894.00,4.8637
2893.00,4.6722
2892.00,4.2075
2891.00,3.9738
2890.00,3.8358
2889.00,3.8110
2888.00,3.8736
2887.00,4.1083
2886.00,4.6165
2885.00,4.8337
2884.00,4.7955
2883.00,4.4326
2882.00,4.1882
2881.00,4.0404
2880.00,4.1002
2879.00,4.1424
2878.00,3.9962
2877.00,3.8888
2876.00,3.8913
2875.00,4.0264
2874.00,4.2583
2873.00,4.4435
2872.00,4.4416
2871.00,4.3419
2870.00,4.1928
2869.00,4.0120
2868.00,3.8764
2867.00,3.8409
2866.00,3.9231
2865.00,4.0164
2864.00,3.9060
2863.00,3.7569
2862.00,3.7169
2861.00,3.8355
2860.00,4.0658
2859.00,4.1776
2858.00,4.2028
2857.00,4.2713
2856.00,4.3435
2855.00,4.2463
2854.00,4.0661
2853.00,3.9707
2852.00,3.9090
2851.00,3.9013
2850.00,4.0392
2849.00,4.3475
2848.00,4.5054
2847.00,4.1657
2846.00,4.0759
2845.00,4.3854
2844.00,4.3657
2843.00,4.0492
2842.00,3.8193
2841.00,3.7220
2840.00,3.5327
2839.00,3.2866
2838.00,3.0567
2837.00,2.8405
2836.00,2.6497
2835.00,2.4813
2834.00,2.3311
2833.00,2.1967
2832.00,2.0775
2831.00,1.9725
2830.00,1.8792
2829.00,1.7951
2828.00,1.7186
2827.00,1.6492
2826.00,1.5864
2825.00,1.5294
2824.00,1.4771
2823.00,1.4290
2822.00,1.3846
2821.00,1.3436
2820.00,1.3059
2819.00,1.2711
2818.00,1.2387
2817.00,1.2081
2816.00,1.1792
2815.00,1.1520
2814.00,1.1263
2813.00,1.1018
2812.00,1.0785
2811.00,1.0563
2810.00,1.0352
2809.00,1.0149
2808.00,0.9954
2807.00,0.9766
2806.00,0.9584
2805.00,0.9407
2804.00,0.9236
2803.00,0.9071
2802.00,0.8911
2801.00,0.8757
2800.00,0.8608
2799.00,0.8465
2798.00,0.8328
2797.00,0.8197
2796.00,0.8072
2795.00,0.7953
2794.00,0.7840
2793.00,0.7733
2792.00,0.7631
2791.00,0.7534
2790.00,0.7441
2789.00,0.7352
2788.00,0.7266
2787.00,0.7181
2786.00,0.7097
2785.00,0.7014
2784.00,0.6932
2783.00,0.6851
2782.00,0.6771
2781.00,0.6693
2780.00,0.6616
2779.00,0.6542
2778.00,0.6469
2777.00,0.6400
2776.00,0.6335
2775.00,0.6273
2774.00,0.6215
2773.00,0.6160
2772.00,0.6110
2771.00,0.6064
2770.00,0.6024
2769.00,0.5987
2768.00,0.5955
2767.00,0.5924
2766.00,0.5897
2765.00,0.5872
2764.00,0.5850
2763.00,0.5831
2762.00,0.5815
2761.00,0.5801
2760.00,0.5789
2759.00,0.5779
2758.00,0.5771
2757.00,0.5766
2756.00,0.5762
2755.00,0.5759
2754.00,0.5759
2753.00,0.5760
2752.00,0.5763
2751.00,0.5768
2750.00,0.5775
2749.00,0.5784
2748.00,0.5794
2747.00,0.5805
2746.00,0.5817
2745.00,0.5831
2744.00,0.5847
2743.00,0.5864
2742.00,0.5883
2741.00,0.5906
2740.00,0.5932
2739.00,0.5963
2738.00,0.5998
2737.00,0.6037
2736.00,0.6080
2735.00,0.6126
2734.00,0.6173
2733.00,0.6217
2732.00,0.6251
2731.00,0.6270
2730.00,0.6268
2729.00,0.6246
2728.00,0.6205
2727.00,0.6152
2726.00,0.6092
2725.00,0.6033
2724.00,0.5977
2723.00,0.5928
2722.00,0.5886
2721.00,0.5851
2720.00,0.5822
2719.00,0.5799
2718.00,0.5779
2717.00,0.5760
2716.00,0.5742
2715.00,0.5721
2714.00,0.5698
2713.00,0.5672
2712.00,0.5646
2711.00,0.5620
2710.00,0.5595
2709.00,0.5572
2708.00,0.5552
2707.00,0.5533
2706.00,0.5517
2705.00,0.5503
2704.00,0.5492
2703.00,0.5484
2702.00,0.5479
2701.00,0.5476
2700.00,0.5476
2699.00,0.5479
2698.00,0.5484
2697.00,0.5492
2696.00,0.5502
2695.00,0.5515
2694.00,0.5530
2693.00,0.5548
2692.00,0.5568
2691.00,0.5587
2690.00,0.5606
2689.00,0.5624
2688.00,0.5639
2687.00,0.5652
2686.00,0.5663
2685.00,0.5672
2684.00,0.5678
2683.00,0.5683
2682.00,0.5688
2681.00,0.5692
2680.00,0.5696
2679.00,0.5699
2678.00,0.5702
2677.00,0.5705
2676.00,0.5706
2675.00,0.5707
2674.00,0.5707
2673.00,0.5706
2672.00,0.5703
2671.00,0.5698
2670.00,0.5690
2669.00,0.5677
2668.00,0.5660
2667.00,0.5639
2666.00,0.5615
2665.00,0.5588
2664.00,0.5560
2663.00,0.5529
2662.00,0.5499
2661.00,0.5470
2660.00,0.5442
2659.00,0.5416
2658.00,0.5391
2657.00,0.5368
2656.00,0.5346
2655.00,0.5324
2654.00,0.5302
2653.00,0.5281
2652.00,0.5262
2651.00,0.5243
2650.00,0.5226
2649.00,0.5210
2648.00,0.5194
2647.00,0.5177
2646.00,0.5161
2645.00,0.5145
2644.00,0.5130
2643.00,0.5116
2642.00,0.5103
2641.00,0.5091
2640.00,0.5079
2639.00,0.5067
2638.00,0.5056
2637.00,0.5046
2636.00,0.5034
2635.00,0.5022
2634.00,0.5009
2633.00,0.4996
2632.00,0.4983
2631.00,0.4969
2630.00,0.4956
2629.00,0.4942
2628.00,0.4928
2627.00,0.4914
2626.00,0.4900
2625.00,0.4886
2624.00,0.4872
2623.00,0.4859
2622.00,0.4847
2621.00,0.4836
2620.00,0.4826
2619.00,0.4816
2618.00,0.4805
2617.00,0.4795
2616.00,0.4784
2615.00,0.4774
2614.00,0.4765
2613.00,0.4755
2612.00,0.4746
2611.00,0.4736
2610.00,0.4727
2609.00,0.4718
2608.00,0.4710
2607.00,0.4701
2606.00,0.4692
2605.00,0.4682
2604.00,0.4673
2603.00,0.4664
2602.00,0.4655
2601.00,0.4646
2600.00,0.4635
2599.00,0.4624
2598.00,0.4611
2597.00,0.4599
2596.00,0.4585
2595.00,0.4572
2594.00,0.4557
2593.00,0.4543
2592.00,0.4529
2591.00,0.4515
2590.00,0.4503
2589.00,0.4490
2588.00,0.4477
2587.00,0.4464
2586.00,0.4451
2585.00,0.4437
2584.00,0.4424
2583.00,0.4409
2582.00,0.4393
2581.00,0.4378
2580.00,0.4362
2579.00,0.4347
2578.00,0.4332
2577.00,0.4317
2576.00,0.4303
2575.00,0.4288
2574.00,0.4274
2573.00,0.4261
2572.00,0.4248
2571.00,0.4236
2570.00,0.4223
2569.00,0.4211
2568.00,0.4198
2567.00,0.4185
2566.00,0.4171
2565.00,0.4158
2564.00,0.4145
2563.00,0.4132
2562.00,0.4119
2561.00,0.4106
2560.00,0.4093
2559.00,0.4081
2558.00,0.4069
2557.00,0.4057
2556.00,0.4046
2555.00,0.4035
2554.00,0.4025
2553.00,0.4015
2552.00,0.4005
2551.00,0.3997
2550.00,0.3988
2549.00,0.3980
2548.00,0.3973
2547.00,0.3966
2546.00,0.3960
2545.00,0.3955
2544.00,0.3950
2543.00,0.3945
2542.00,0.3941
2541.00,0.3937
2540.00,0.3933
2539.00,0.3928
2538.00,0.3924
2537.00,0.3919
2536.00,0.3914
2535.00,0.3908
2534.00,0.3903
2533.00,0.3896
2532.00,0.3888
2531.00,0.3878
2530.00,0.3867
2529.00,0.3855
2528.00,0.3842
2527.00,0.3828
2526.00,0.3814
2525.00,0.3801
2524.00,0.3787
2523.00,0.3774
2522.00,0.3761
2521.00,0.3749
2520.00,0.3737
2519.00,0.3725
2518.00,0.3713
2517.00,0.3702
2516.00,0.3692
2515.00,0.3682
2514.00,0.3673
2513.00,0.3663
2512.00,0.3653
2511.00,0.3643
2510.00,0.3634
2509.00,0.3626
2508.00,0.3619
2507.00,0.3612
2506.00,0.3606
2505.00,0.3601
2504.00,0.3596
2503.00,0.3592
2502.00,0.3588
2501.00,0.3585
2500.00,0.3582
2499.00,0.3578
2498.00,0.3575
2497.00,0.3571
2496.00,0.3568
2495.00,0.3564
2494.00,0.3560
2493.00,0.3555
2492.00,0.3550
2491.00,0.3545
2490.00,0.3540
2489.00,0.3534
2488.00,0.3529
2487.00,0.3524
2486.00,0.3519
2485.00,0.3513
2484.00,0.3507
2483.00,0.3501
2482.00,0.3496
2481.00,0.3490
2480.00,0.3485
2479.00,0.3479
2478.00,0.3473
2477.00,0.3467
2476.00,0.3462
2475.00,0.3456
2474.00,0.3451
2473.00,0.3445
2472.00,0.3439
2471.00,0.3434
2470.00,0.3429
2469.00,0.3425
2468.00,0.3421
2467.00,0.3418
2466.00,0.3415
2465.00,0.3412
2464.00,0.3409
2463.00,0.3406
2462.00,0.3404
2461.00,0.3401
2460.00,0.3399
2459.00,0.3397
2458.00,0.3395
2457.00,0.3394
2456.00,0.3394
2455.00,0.3393
2454.00,0.3393
2453.00,0.3393
2452.00,0.3393
2451.00,0.3393
2450.00,0.3393
2449.00,0.3393
2448.00,0.3393
2447.00,0.3393
2446.00,0.3393
2445.00,0.3393
2444.00,0.3394
2443.00,0.3395
2442.00,0.3396
2441.00,0.3397
2440.00,0.3398
2439.00,0.3399
2438.00,0.3400
2437.00,0.3401
2436.00,0.3401
2435.00,0.3401
2434.00,0.3402
2433.00,0.3402
2432.00,0.3403
2431.00,0.3403
2430.00,0.3403
2429.00,0.3404
2428.00,0.3405
2427.00,0.3406
2426.00,0.3407
2425.00,0.3408
2424.00,0.3410
2423.00,0.3411
2422.00,0.3412
2421.00,0.3413
2420.00,0.3414
2419.00,0.3415
2418.00,0.3416
2417.00,0.3417
2416.00,0.3418
2415.00,0.3418
2414.00,0.3418
2413.00,0.3418
2412.00,0.3419
2411.00,0.3419
2410.00,0.3420
2409.00,0.3421
2408.00,0.3421
2407.00,0.3422
2406.00,0.3422
2405.00,0.3423
2404.00,0.3424
2403.00,0.3424
2402.00,0.3425
2401.00,0.3426
2400.00,0.3426
2399.00,0.3427
2398.00,0.3427
2397.00,0.3428
2396.00,0.3428
2395.00,0.3429
2394.00,0.3430
2393.00,0.3430
2392.00,0.3432
2391.00,0.3434
2390.00,0.3437
2389.00,0.3440
2388.00,0.3443
2387.00,0.3445
2386.00,0.3447
2385.00,0.3450
2384.00,0.3453
2383.00,0.3456
2382.00,0.3460
2381.00,0.3464
2380.00,0.3469
2379.00,0.3473
2378.00,0.3477
2377.00,0.3479
2376.00,0.3481
2375.00,0.3482
2374.00,0.3481
2373.00,0.3481
2372.00,0.3481
2371.00,0.3481
2370.00,0.3481
2369.00,0.3482
2368.00,0.3483
2367.00,0.3484
2366.00,0.3485
2365.00,0.3487
2364.00,0.3490
2363.00,0.3492
2362.00,0.3494
2361.00,0.3495
2360.00,0.3495
2359.00,0.3495
2358.00,0.3494
2357.00,0.3494
2356.00,0.3494
2355.00,0.3495
2354.00,0.3496
2353.00,0.3498
2352.00,0.3499
2351.00,0.3498
2350.00,0.3496
2349.00,0.3494
2348.00,0.3494
2347.00,0.3496
2346.00,0.3499
2345.00,0.3500
2344.00,0.3498
2343.00,0.3495
2342.00,0.3491
2341.00,0.3489
2340.00,0.3487
2339.00,0.3484
2338.00,0.3482
2337.00,0.3480
2336.00,0.3478
2335.00,0.3476
2334.00,0.3475
2333.00,0.3475
2332.00,0.3474
2331.00,0.3472
2330.00,0.3469
2329.00,0.3465
2328.00,0.3461
2327.00,0.3457
2326.00,0.3454
2325.00,0.3451
2324.00,0.3449
2323.00,0.3447
2322.00,0.3443
2321.00,0.3438
2320.00,0.3433
2319.00,0.3427
2318.00,0.3421
2317.00,0.3416
2316.00,0.3412
2315.00,0.3409
2314.00,0.3407
2313.00,0.3404
2312.00,0.3401
2311.00,0.3396
2310.00,0.3391
2309.00,0.3386
2308.00,0.3381
2307.00,0.3376
2306.00,0.3371
2305.00,0.3367
2304.00,0.3362
2303.00,0.3358
2302.00,0.3354
2301.00,0.3350
2300.00,0.3347
2299.00,0.3344
2298.00,0.3339
2297.00,0.3335
2296.00,0.3331
2295.00,0.3328
2294.00,0.3324
2293.00,0.3320
2292.00,0.3315
2291.00,0.3310
2290.00,0.3305
2289.00,0.3299
2288.00,0.3294
2287.00,0.3289
2286.00,0.3284
2285.00,0.3279
2284.00,0.3275
2283.00,0.3271
2282.00,0.3267
2281.00,0.3263
2280.00,0.3260
2279.00,0.3257
2278.00,0.3254
2277.00,0.3251
2276.00,0.3249
2275.00,0.3246
2274.00,0.3245
2273.00,0.3243
2272.00,0.3243
2271.00,0.3242
2270.00,0.3242
2269.00,0.3242
2268.00,0.3242
2267.00,0.3243
2266.00,0.3243
2265.00,0.3242
2264.00,0.3242
2263.00,0.3241
2262.00,0.3239
2261.00,0.3238
2260.00,0.3236
2259.00,0.3234
2258.00,0.3231
2257.00,0.3228
2256.00,0.3225
2255.00,0.3221
2254.00,0.3217
2253.00,0.3214
2252.00,0.3210
2251.00,0.3207
2250.00,0.3203
2249.00,0.3199
2248.00,0.3195
2247.00,0.3191
2246.00,0.3187
2245.00,0.3183
2244.00,0.3179
2243.00,0.3177
2242.00,0.3174
2241.00,0.3172
2240.00,0.3169
2239.00,0.3166
2238.00,0.3163
2237.00,0.3161
2236.00,0.3159
2235.00,0.3158
2234.00,0.3156
2233.00,0.3155
2232.00,0.3154
2231.00,0.3154
2230.00,0.3153
2229.00,0.3153
2228.00,0.3153
2227.00,0.3153
2226.00,0.3153
2225.00,0.3152
2224.00,0.3152
2223.00,0.3152
2222.00,0.3152
2221.00,0.3153
2220.00,0.3153
2219.00,0.3152
2218.00,0.3151
2217.00,0.3150
2216.00,0.3150
2215.00,0.3149
2214.00,0.3149
2213.00,0.3148
2212.00,0.3147
2211.00,0.3145
2210.00,0.3144
2209.00,0.3143
2208.00,0.3142
2207.00,0.3142
2206.00,0.3141
2205.00,0.3140
2204.00,0.3139
2203.00,0.3139
2202.00,0.3139
2201.00,0.3139
2200.00,0.3139
2199.00,0.3139
2198.00,0.3140
2197.00,0.3140
2196.00,0.3141
2195.00,0.3142
2194.00,0.3143
2193.00,0.3145
2192.00,0.3147
2191.00,0.3149
2190.00,0.3151
2189.00,0.3153
2188.00,0.3155
2187.00,0.3157
2186.00,0.3158
2185.00,0.3160
2184.00,0.3161
2183.00,0.3161
2182.00,0.3161
2181.00,0.3162
2180.00,0.3162
2179.00,0.3162
2178.00,0.3162
2177.00,0.3162
2176.00,0.3162
2175.00,0.3162
2174.00,0.3161
2173.00,0.3161
2172.00,0.3160
2171.00,0.3160
2170.00,0.3159
2169.00,0.3159
2168.00,0.3159
2167.00,0.3158
2166.00,0.3158
2165.00,0.3157
2164.00,0.3157
2163.00,0.3157
2162.00,0.3157
2161.00,0.3157
2160.00,0.3157
2159.00,0.3157
2158.00,0.3158
2157.00,0.3159
2156.00,0.3160
2155.00,0.3160
2154.00,0.3160
2153.00,0.3160
2152.00,0.3160
2151.00,0.3159
2150.00,0.3157
2149.00,0.3155
2148.00,0.3152
2147.00,0.3148
2146.00,0.3143
2145.00,0.3137
2144.00,0.3130
2143.00,0.3123
2142.00,0.3116
2141.00,0.3110
2140.00,0.3104
2139.00,0.3098
2138.00,0.3092
2137.00,0.3087
2136.00,0.3082
2135.00,0.3077
2134.00,0.3073
2133.00,0.3070
2132.00,0.3066
2131.00,0.3064
2130.00,0.3061
2129.00,0.3059
2128.00,0.3058
2127.00,0.3056
2126.00,0.3054
2125.00,0.3052
2124.00,0.3051
2123.00,0.3050
2122.00,0.3049
2121.00,0.3048
2120.00,0.3048
2119.00,0.3047
2118.00,0.3046
2117.00,0.3046
2116.00,0.3045
2115.00,0.3044
2114.00,0.3043
2113.00,0.3042
2112.00,0.3041
2111.00,0.3039
2110.00,0.3038
2109.00,0.3037
2108.00,0.3037
2107.00,0.3037
2106.00,0.3038
2105.00,0.3038
2104.00,0.3038
2103.00,0.3038
2102.00,0.3038
2101.00,0.3037
2100.00,0.3037
2099.00,0.3036
2098.00,0.3036
2097.00,0.3035
2096.00,0.3034
2095.00,0.3034
2094.00,0.3034
2093.00,0.3034
2092.00,0.3033
2091.00,0.3032
2090.00,0.3032
2089.00,0.3031
2088.00,0.3031
2087.00,0.3030
2086.00,0.3030
2085.00,0.3030
2084.00,0.3030
2083.00,0.3030
2082.00,0.3029
2081.00,0.3030
2080.00,0.3031
2079.00,0.3032
2078.00,0.3033
2077.00,0.3034
2076.00,0.3035
2075.00,0.3036
2074.00,0.3037
2073.00,0.3038
2072.00,0.3039
2071.00,0.3040
2070.00,0.3042
2069.00,0.3044
2068.00,0.3046
2067.00,0.3048
2066.00,0.3050
2065.00,0.3052
2064.00,0.3054
2063.00,0.3056
2062.00,0.3058
2061.00,0.3060
2060.00,0.3062
2059.00,0.3066
2058.00,0.3069
2057.00,0.3073
2056.00,0.3076
2055.00,0.3079
2054.00,0.3082
2053.00,0.3086
2052.00,0.3090
2051.00,0.3094
2050.00,0.3098
2049.00,0.3103
2048.00,0.3108
2047.00,0.3112
2046.00,0.3116
2045.00,0.3119
2044.00,0.3122
2043.00,0.3125
2042.00,0.3127
2041.00,0.3129
2040.00,0.3131
2039.00,0.3132
2038.00,0.3134
2037.00,0.3136
2036.00,0.3138
2035.00,0.3140
2034.00,0.3143
2033.00,0.3146
2032.00,0.3149
2031.00,0.3152
2030.00,0.3155
2029.00,0.3159
2028.00,0.3163
2027.00,0.3166
2026.00,0.3169
2025.00,0.3170
2024.00,0.3170
2023.00,0.3168
2022.00,0.3165
2021.00,0.3160
2020.00,0.3153
2019.00,0.3144
2018.00,0.3134
2017.00,0.3122
2016.00,0.3111
2015.00,0.3099
2014.00,0.3087
2013.00,0.3076
2012.00,0.3065
2011.00,0.3055
2010.00,0.3046
2009.00,0.3038
2008.00,0.3031
2007.00,0.3024
2006.00,0.3019
2005.00,0.3014
2004.00,0.3009
2003.00,0.3005
2002.00,0.3002
2001.00,0.2999
2000.00,0.2996
1999.00,0.2994
1998.00,0.2992
1997.00,0.2991
1996.00,0.2989
1995.00,0.2987
1994.00,0.2985
1993.00,0.2984
1992.00,0.2983
1991.00,0.2982
1990.00,0.2981
1989.00,0.2980
1988.00,0.2979
1987.00,0.2978
1986.00,0.2977
1985.00,0.2977
1984.00,0.2976
1983.00,0.2976
1982.00,0.2975
1981.00,0.2975
1980.00,0.2974
1979.00,0.2974
1978.00,0.2973
1977.00,0.2973
1976.00,0.2973
1975.00,0.2973
1974.00,0.2973
1973.00,0.2973
1972.00,0.2973
1971.00,0.2972
1970.00,0.2971
1969.00,0.2970
1968.00,0.2970
1967.00,0.2970
1966.00,0.2970
1965.00,0.2971
1964.00,0.2971
1963.00,0.2971
1962.00,0.2971
1961.00,0.2971
1960.00,0.2970
1959.00,0.2970
1958.00,0.2971
1957.00,0.2972
1956.00,0.2973
1955.00,0.2974
1954.00,0.2976
1953.00,0.2977
1952.00,0.2978
1951.00,0.2979
1950.00,0.2979
1949.00,0.2980
1948.00,0.2981
1947.00,0.2982
1946.00,0.2982
1945.00,0.2984
1944.00,0.2985
1943.00,0.2988
1942.00,0.2991
1941.00,0.2994
1940.00,0.2996
1939.00,0.2998
1938.00,0.2998
1937.00,0.2999
1936.00,0.2999
1935.00,0.2999
1934.00,0.2998
1933.00,0.2998
1932.00,0.2998
1931.00,0.2997
1930.00,0.2997
1929.00,0.2998
1928.00,0.2999
1927.00,0.2999
1926.00,0.3000
1925.00,0.3001
1924.00,0.3002
1923.00,0.3005
1922.00,0.3007
1921.00,0.3010
1920.00,0.3012
1919.00,0.3015
1918.00,0.3017
1917.00,0.3018
1916.00,0.3019
1915.00,0.3019
1914.00,0.3018
1913.00,0.3017
1912.00,0.3015
1911.00,0.3014
1910.00,0.3014
1909.00,0.3015
1908.00,0.3016
1907.00,0.3016
1906.00,0.3015
1905.00,0.3014
1904.00,0.3014
1903.00,0.3014
1902.00,0.3014
1901.00,0.3015
1900.00,0.3015
1899.00,0.3015
1898.00,0.3015
1897.00,0.3016
1896.00,0.3017
1895.00,0.3018
1894.00,0.3018
1893.00,0.3017
1892.00,0.3017
1891.00,0.3017
1890.00,0.3018
1889.00,0.3019
1888.00,0.3021
1887.00,0.3021
1886.00,0.3022
1885.00,0.3022
1884.00,0.3023
1883.00,0.3023
1882.00,0.3023
1881.00,0.3022
1880.00,0.3022
1879.00,0.3022
1878.00,0.3021
1877.00,0.3020
1876.00,0.3019
1875.00,0.3019
1874.00,0.3018
1873.00,0.3016
1872.00,0.3014
1871.00,0.3012
1870.00,0.3010
1869.00,0.3009
1868.00,0.3010
1867.00,0.3012
1866.00,0.3013
1865.00,0.3014
1864.00,0.3013
1863.00,0.3012
1862.00,0.3010
1861.00,0.3008
1860.00,0.3006
1859.00,0.3004
1858.00,0.3001
1857.00,0.2999
1856.00,0.2998
1855.00,0.2995
1854.00,0.2993
1853.00,0.2992
1852.00,0.2990
1851.00,0.2988
1850.00,0.2986
1849.00,0.2983
1848.00,0.2980
1847.00,0.2978
1846.00,0.2978
1845.00,0.2979
1844.00,0.2981
1843.00,0.2981
1842.00,0.2980
1841.00,0.2979
1840.00,0.2977
1839.00,0.2975
1838.00,0.2973
1837.00,0.2973
1836.00,0.2973
1835.00,0.2972
1834.00,0.2970
1833.00,0.2968
1832.00,0.2965
1831.00,0.2962
1830.00,0.2963
1829.00,0.2965
1828.00,0.2968
1827.00,0.2970
1826.00,0.2971
1825.00,0.2974
1824.00,0.2976
1823.00,0.2977
1822.00,0.2978
1821.00,0.2979
1820.00,0.2979
1819.00,0.2980
1818.00,0.2981
1817.00,0.2982
1816.00,0.2983
1815.00,0.2982
1814.00,0.2981
1813.00,0.2980
1812.00,0.2980
1811.00,0.2980
1810.00,0.2982
1809.00,0.2984
1808.00,0.2986
1807.00,0.2986
1806.00,0.2987
1805.00,0.2988
1804.00,0.2988
1803.00,0.2989
1802.00,0.2989
1801.00,0.2990
1800.00,0.2992
1799.00,0.2995
1798.00,0.2998
1797.00,0.3000
1796.00,0.3001
1795.00,0.3003
1794.00,0.3006
1793.00,0.3012
1792.00,0.3018
1791.00,0.3025
1790.00,0.3030
1789.00,0.3034
1788.00,0.3039
1787.00,0.3045
1786.00,0.3051
1785.00,0.3057
1784.00,0.3062
1783.00,0.3065
1782.00,0.3068
1781.00,0.3074
1780.00,0.3080
1779.00,0.3085
1778.00,0.3089
1777.00,0.3091
1776.00,0.3093
1775.00,0.3095
1774.00,0.3097
1773.00,0.3100
1772.00,0.3105
1771.00,0.3110
1770.00,0.3116
1769.00,0.3123
1768.00,0.3129
1767.00,0.3133
1766.00,0.3135
1765.00,0.3138
1764.00,0.3144
1763.00,0.3151
1762.00,0.3161
1761.00,0.3171
1760.00,0.3182
1759.00,0.3194
1758.00,0.3209
1757.00,0.3228
1756.00,0.3251
1755.00,0.3274
1754.00,0.3300
1753.00,0.3329
1752.00,0.3361
1751.00,0.3391
1750.00,0.3419
1749.00,0.3445
1748.00,0.3468
1747.00,0.3486
1746.00,0.3497
1745.00,0.3501
1744.00,0.3499
1743.00,0.3492
1742.00,0.3483
1741.00,0.3473
1740.00,0.3463
1739.00,0.3453
1738.00,0.3443
1737.00,0.3436
1736.00,0.3432
1735.00,0.3426
1734.00,0.3419
1733.00,0.3410
1732.00,0.3399
1731.00,0.3390
1730.00,0.3385
1729.00,0.3384
1728.00,0.3383
1727.00,0.3381
1726.00,0.3379
1725.00,0.3379
1724.00,0.3380
1723.00,0.3381
1722.00,0.3381
1721.00,0.3383
1720.00,0.3386
1719.00,0.3391
1718.00,0.3398
1717.00,0.3407
1716.00,0.3415
1715.00,0.3421
1714.00,0.3429
1713.00,0.3438
1712.00,0.3447
1711.00,0.3457
1710.00,0.3468
1709.00,0.3481
1708.00,0.3493
1707.00,0.3506
1706.00,0.3518
1705.00,0.3528
1704.00,0.3534
1703.00,0.3535
1702.00,0.3533
1701.00,0.3524
1700.00,0.3511
1699.00,0.3497
1698.00,0.3488
1697.00,0.3487
1696.00,0.3489
1695.00,0.3487
1694.00,0.3480
1693.00,0.3473
1692.00,0.3471
1691.00,0.3470
1690.00,0.3472
1689.00,0.3475
1688.00,0.3481
1687.00,0.3488
1686.00,0.3494
1685.00,0.3500
1684.00,0.3509
1683.00,0.3517
1682.00,0.3522
1681.00,0.3528
1680.00,0.3536
1679.00,0.3542
1678.00,0.3549
1677.00,0.3558
1676.00,0.3569
1675.00,0.3579
1674.00,0.3587
1673.00,0.3594
1672.00,0.3600
1671.00,0.3609
1670.00,0.3621
1669.00,0.3637
1668.00,0.3653
1667.00,0.3664
1666.00,0.3672
1665.00,0.3679
1664.00,0.3688
1663.00,0.3698
1662.00,0.3709
1661.00,0.3721
1660.00,0.3731
1659.00,0.3739
1658.00,0.3746
1657.00,0.3756
1656.00,0.3770
1655.00,0.3786
1654.00,0.3808
1653.00,0.3841
1652.00,0.3868
1651.00,0.3874
1650.00,0.3876
1649.00,0.3888
1648.00,0.3912
1647.00,0.3947
1646.00,0.3988
1645.00,0.4027
1644.00,0.4059
1643.00,0.4089
1642.00,0.4121
1641.00,0.4157
1640.00,0.4194
1639.00,0.4230
1638.00,0.4268
1637.00,0.4315
1636.00,0.4375
1635.00,0.4437
1634.00,0.4492
1633.00,0.4540
1632.00,0.4587
1631.00,0.4635
1630.00,0.4686
1629.00,0.4745
1628.00,0.4811
1627.00,0.4880
1626.00,0.4951
1625.00,0.5030
1624.00,0.5123
1623.00,0.5229
1622.00,0.5343
1621.00,0.5461
1620.00,0.5583
1619.00,0.5715
1618.00,0.5869
1617.00,0.6059
1616.00,0.6274
1615.00,0.6490
1614.00,0.6707
1613.00,0.6948
1612.00,0.7225
1611.00,0.7533
1610.00,0.7860
1609.00,0.8204
1608.00,0.8560
1607.00,0.8920
1606.00,0.9291
1605.00,0.9703
1604.00,1.0185
1603.00,1.0740
1602.00,1.1365
1601.00,1.2065
1600.00,1.2833
1599.00,1.3629
1598.00,1.4433
1597.00,1.5305
1596.00,1.6316
1595.00,1.7469
1594.00,1.8758
1593.00,2.0289
1592.00,2.2203
1591.00,2.4399
1590.00,2.6569
1589.00,2.9054
1588.00,3.3059
1587.00,3.9490
1586.00,3.8700
1585.00,3.8365
1584.00,4.4003
1583.00,4.6043
1582.00,4.0499
1581.00,3.9606
1580.00,4.1772
1579.00,3.9104
1578.00,3.9297
1577.00,3.7660
1576.00,3.7524
1575.00,3.6831
1574.00,3.2573
1573.00,3.0133
1572.00,2.8836
1571.00,2.7508
1570.00,2.6263
1569.00,2.5845
1568.00,2.6331
1567.00,2.7196
1566.00,2.8052
1565.00,2.9501
1564.00,3.2649
1563.00,3.7773
1562.00,3.9120
1561.00,3.9735
1560.00,4.6211
1559.00,3.4311
1558.00,2.8321
1557.00,2.5055
1556.00,2.2482
1555.00,1.9991
1554.00,1.7798
1553.00,1.6060
1552.00,1.4674
1551.00,1.3480
1550.00,1.2437
1549.00,1.1579
1548.00,1.0899
1547.00,1.0332
1546.00,0.9829
1545.00,0.9384
1544.00,0.9000
1543.00,0.8663
1542.00,0.8350
1541.00,0.8055
1540.00,0.7783
1539.00,0.7546
1538.00,0.7357
1537.00,0.7219
1536.00,0.7120
1535.00,0.7043
1534.00,0.6992
1533.00,0.6984
1532.00,0.7022
1531.00,0.7094
1530.00,0.7191
1529.00,0.7313
1528.00,0.7451
1527.00,0.7587
1526.00,0.7712
1525.00,0.7834
1524.00,0.7966
1523.00,0.8129
1522.00,0.8350
1521.00,0.8628
1520.00,0.8911
1519.00,0.9140
1518.00,0.9292
1517.00,0.9349
1516.00,0.9281
1515.00,0.9085
1514.00,0.8793
1513.00,0.8451
1512.00,0.8103
1511.00,0.7786
1510.00,0.7523
1509.00,0.7317
1508.00,0.7160
1507.00,0.7050
1506.00,0.6996
1505.00,0.6995
1504.00,0.7033
1503.00,0.7097
1502.00,0.7176
1501.00,0.7259
1500.00,0.7331
1499.00,0.7374
1498.00,0.7389
1497.00,0.7388
1496.00,0.7386
1495.00,0.7391
1494.00,0.7413
1493.00,0.7466
1492.00,0.7556
1491.00,0.7683
1490.00,0.7848
1489.00,0.8056
1488.00,0.8305
1487.00,0.8585
1486.00,0.8892
1485.00,0.9224
1484.00,0.9575
1483.00,0.9940
1482.00,1.0331
1481.00,1.0762
1480.00,1.1241
1479.00,1.1778
1478.00,1.2408
1477.00,1.3188
1476.00,1.4159
1475.00,1.5353
1474.00,1.6869
1473.00,1.8903
1472.00,2.1647
1471.00,2.5150
1470.00,2.9406
1469.00,3.5140
1468.00,4.1233
1467.00,4.1035
1466.00,4.5139
1465.00,4.3739
1464.00,4.0573
1463.00,3.9127
1462.00,3.8362
1461.00,3.8723
1460.00,3.9050
1459.00,3.9159
1458.00,3.9464
1457.00,3.8941
1456.00,3.8193
1455.00,3.7497
1454.00,3.6788
1453.00,3.7809
1452.00,4.0615
1451.00,4.3395
1450.00,4.4755
1449.00,4.5602
1448.00,4.8161
1447.00,4.2196
1446.00,3.9934
1445.00,4.2021
1444.00,4.5165
1443.00,3.9781
1442.00,3.6341
1441.00,3.4859
1440.00,3.3403
1439.00,3.1508
1438.00,2.9866
1437.00,2.8625
1436.00,2.7341
1435.00,2.5814
1434.00,2.4253
1433.00,2.2748
1432.00,2.1258
1431.00,1.9812
1430.00,1.8507
1429.00,1.7396
1428.00,1.6479
1427.00,1.5744
1426.00,1.5184
1425.00,1.4797
1424.00,1.4579
1423.00,1.4510
1422.00,1.4553
1421.00,1.4676
1420.00,1.4857
1419.00,1.5078
1418.00,1.5341
1417.00,1.5663
1416.00,1.6044
1415.00,1.6419
1414.00,1.6653
1413.00,1.6589
1412.00,1.6158
1411.00,1.5456
1410.00,1.4673
1409.00,1.3938
1408.00,1.3283
1407.00,1.2688
1406.00,1.2127
1405.00,1.1592
1404.00,1.1092
1403.00,1.0647
1402.00,1.0269
1401.00,0.9954
1400.00,0.9695
1399.00,0.9489
1398.00,0.9327
1397.00,0.9188
1396.00,0.9043
1395.00,0.8874
1394.00,0.8684
1393.00,0.8496
1392.00,0.8335
1391.00,0.8221
1390.00,0.8174
1389.00,0.8215
1388.00,0.8370
1387.00,0.8656
1386.00,0.9077
1385.00,0.9638
1384.00,1.0376
1383.00,1.1345
1382.00,1.2588
1381.00,1.4109
1380.00,1.5821
1379.00,1.7395
1378.00,1.8152
1377.00,1.7693
1376.00,1.6490
1375.00,1.5164
1374.00,1.4034
1373.00,1.3205
1372.00,1.2658
1371.00,1.2317
1370.00,1.2094
1369.00,1.1926
1368.00,1.1768
1367.00,1.1589
1366.00,1.1370
1365.00,1.1100
1364.00,1.0780
1363.00,1.0427
1362.00,1.0075
1361.00,0.9759
1360.00,0.9499
1359.00,0.9298
1358.00,0.9153
1357.00,0.9062
1356.00,0.9022
1355.00,0.9022
1354.00,0.9050
1353.00,0.9088
1352.00,0.9123
1351.00,0.9146
1350.00,0.9157
1349.00,0.9167
1348.00,0.9194
1347.00,0.9257
1346.00,0.9367
1345.00,0.9524
1344.00,0.9707
1343.00,0.9876
1342.00,0.9978
1341.00,0.9968
1340.00,0.9831
1339.00,0.9586
1338.00,0.9270
1337.00,0.8918
1336.00,0.8559
1335.00,0.8219
1334.00,0.7921
1333.00,0.7674
1332.00,0.7486
1331.00,0.7360
1330.00,0.7302
1329.00,0.7321
1328.00,0.7428
1327.00,0.7636
1326.00,0.7937
1325.00,0.8276
1324.00,0.8546
1323.00,0.8636
1322.00,0.8524
1321.00,0.8294
1320.00,0.8055
1319.00,0.7874
1318.00,0.7768
1317.00,0.7726
1316.00,0.7730
1315.00,0.7769
1314.00,0.7835
1313.00,0.7921
1312.00,0.8022
1311.00,0.8128
1310.00,0.8231
1309.00,0.8330
1308.00,0.8429
1307.00,0.8538
1306.00,0.8669
1305.00,0.8818
1304.00,0.8955
1303.00,0.9024
1302.00,0.8983
1301.00,0.8850
1300.00,0.8693
1299.00,0.8581
1298.00,0.8539
1297.00,0.8538
1296.00,0.8509
1295.00,0.8394
1294.00,0.8191
1293.00,0.7951
1292.00,0.7728
1291.00,0.7549
1290.00,0.7411
1289.00,0.7298
1288.00,0.7198
1287.00,0.7097
1286.00,0.6986
1285.00,0.6861
1284.00,0.6727
1283.00,0.6592
1282.00,0.6467
1281.00,0.6359
1280.00,0.6273
1279.00,0.6207
1278.00,0.6157
1277.00,0.6118
1276.00,0.6088
1275.00,0.6070
1274.00,0.6068
1273.00,0.6084
1272.00,0.6117
1271.00,0.6164
1270.00,0.6211
1269.00,0.6240
1268.00,0.6235
1267.00,0.6188
1266.00,0.6106
1265.00,0.6009
1264.00,0.5916
1263.00,0.5845
1262.00,0.5799
1261.00,0.5777
1260.00,0.5776
1259.00,0.5790
1258.00,0.5808
1257.00,0.5821
1256.00,0.5823
1255.00,0.5814
1254.00,0.5799
1253.00,0.5777
1252.00,0.5750
1251.00,0.5717
1250.00,0.5680
1249.00,0.5639
1248.00,0.5600
1247.00,0.5564
1246.00,0.5529
1245.00,0.5491
1244.00,0.5446
1243.00,0.5391
1242.00,0.5327
1241.00,0.5257
1240.00,0.5189
1239.00,0.5129
1238.00,0.5082
1237.00,0.5048
1236.00,0.5028
1235.00,0.5023
1234.00,0.5035
1233.00,0.5067
1232.00,0.5119
1231.00,0.5191
1230.00,0.5273
1229.00,0.5354
1228.00,0.5424
1227.00,0.5482
1226.00,0.5530
1225.00,0.5571
1224.00,0.5610
1223.00,0.5650
1222.00,0.5684
1221.00,0.5701
1220.00,0.5684
1219.00,0.5631
1218.00,0.5553
1217.00,0.5474
1216.00,0.5418
1215.00,0.5391
1214.00,0.5383
1213.00,0.5370
1212.00,0.5330
1211.00,0.5255
1210.00,0.5154
1209.00,0.5047
1208.00,0.4957
1207.00,0.4896
1206.00,0.4861
1205.00,0.4844
1204.00,0.4831
1203.00,0.4817
1202.00,0.4804
1201.00,0.4798
1200.00,0.4805
1199.00,0.4828
1198.00,0.4863
1197.00,0.4904
1196.00,0.4952
1195.00,0.5009
1194.00,0.5078
1193.00,0.5156
1192.00,0.5236
1191.00,0.5302
1190.00,0.5339
1189.00,0.5333
1188.00,0.5290
1187.00,0.5224
1186.00,0.5153
1185.00,0.5089
1184.00,0.5035
1183.00,0.4992
1182.00,0.4959
1181.00,0.4930
1180.00,0.4903
1179.00,0.4875
1178.00,0.4841
1177.00,0.4800
1176.00,0.4751
1175.00,0.4697
1174.00,0.4643
1173.00,0.4590
1172.00,0.4542
1171.00,0.4500
1170.00,0.4464
1169.00,0.4433
1168.00,0.4405
1167.00,0.4382
1166.00,0.4363
1165.00,0.4349
1164.00,0.4338
1163.00,0.4334
1162.00,0.4339
1161.00,0.4355
1160.00,0.4383
1159.00,0.4429
1158.00,0.4501
1157.00,0.4610
1156.00,0.4780
1155.00,0.5037
1154.00,0.5387
1153.00,0.5776
1152.00,0.6075
1151.00,0.6155
1150.00,0.6006
1149.00,0.5750
1148.00,0.5518
1147.00,0.5370
1146.00,0.5305
1145.00,0.5299
1144.00,0.5337
1143.00,0.5414
1142.00,0.5533
1141.00,0.5697
1140.00,0.5910
1139.00,0.6159
1138.00,0.6412
1137.00,0.6630
1136.00,0.6784
1135.00,0.6861
1134.00,0.6861
1133.00,0.6786
1132.00,0.6639
1131.00,0.6435
1130.00,0.6200
1129.00,0.5970
1128.00,0.5774
1127.00,0.5627
1126.00,0.5529
1125.00,0.5470
1124.00,0.5439
1123.00,0.5425
1122.00,0.5418
1121.00,0.5415
1120.00,0.5422
1119.00,0.5450
1118.00,0.5507
1117.00,0.5595
1116.00,0.5705
1115.00,0.5811
1114.00,0.5871
1113.00,0.5851
1112.00,0.5745
1111.00,0.5581
1110.00,0.5398
1109.00,0.5228
1108.00,0.5089
1107.00,0.4985
1106.00,0.4915
1105.00,0.4875
1104.00,0.4859
1103.00,0.4859
1102.00,0.4869
1101.00,0.4881
1100.00,0.4894
1099.00,0.4903
1098.00,0.4904
1097.00,0.4895
1096.00,0.4878
1095.00,0.4855
1094.00,0.4833
1093.00,0.4814
1092.00,0.4803
1091.00,0.4803
1090.00,0.4819
1089.00,0.4852
1088.00,0.4903
1087.00,0.4974
1086.00,0.5068
1085.00,0.5184
1084.00,0.5323
1083.00,0.5484
1082.00,0.5664
1081.00,0.5853
1080.00,0.6039
1079.00,0.6203
1078.00,0.6327
1077.00,0.6393
1076.00,0.6394
1075.00,0.6333
1074.00,0.6225
1073.00,0.6096
1072.00,0.5968
1071.00,0.5854
1070.00,0.5759
1069.00,0.5682
1068.00,0.5622
1067.00,0.5578
1066.00,0.5547
1065.00,0.5528
1064.00,0.5518
1063.00,0.5515
1062.00,0.5516
1061.00,0.5518
1060.00,0.5519
1059.00,0.5518
1058.00,0.5513
1057.00,0.5505
1056.00,0.5494
1055.00,0.5483
1054.00,0.5473
1053.00,0.5466
1052.00,0.5467
1051.00,0.5481
1050.00,0.5510
1049.00,0.5551
1048.00,0.5600
1047.00,0.5649
1046.00,0.5693
1045.00,0.5725
1044.00,0.5745
1043.00,0.5758
1042.00,0.5770
1041.00,0.5785
1040.00,0.5805
1039.00,0.5828
1038.00,0.5851
1037.00,0.5872
1036.00,0.5895
1035.00,0.5924
1034.00,0.5966
1033.00,0.6028
1032.00,0.6114
1031.00,0.6220
1030.00,0.6336
1029.00,0.6445
1028.00,0.6529
1027.00,0.6572
1026.00,0.6568
1025.00,0.6522
1024.00,0.6455
1023.00,0.6385
1022.00,0.6326
1021.00,0.6287
1020.00,0.6270
1019.00,0.6278
1018.00,0.6308
1017.00,0.6353
1016.00,0.6408
1015.00,0.6468
1014.00,0.6528
1013.00,0.6586
1012.00,0.6642
1011.00,0.6699
1010.00,0.6760
1009.00,0.6824
1008.00,0.6890
1007.00,0.6957
1006.00,0.7021
1005.00,0.7081
1004.00,0.7136
1003.00,0.7183
1002.00,0.7217
1001.00,0.7234
1000.00,0.7230
999.00,0.7200
998.00,0.7142
997.00,0.7056
996.00,0.6948
995.00,0.6826
994.00,0.6696
993.00,0.6560
992.00,0.6419
991.00,0.6272
990.00,0.6125
989.00,0.5983
988.00,0.5851
987.00,0.5731
986.00,0.5622
985.00,0.5521
984.00,0.5428
983.00,0.5340
982.00,0.5256
981.00,0.5173
980.00,0.5089
979.00,0.5004
978.00,0.4918
977.00,0.4832
976.00,0.4751
975.00,0.4679
974.00,0.4617
973.00,0.4565
972.00,0.4523
971.00,0.4494
970.00,0.4477
969.00,0.4472
968.00,0.4476
967.00,0.4485
966.00,0.4495
965.00,0.4498
964.00,0.4490
963.00,0.4468
962.00,0.4434
961.00,0.4393
960.00,0.4351
959.00,0.4315
958.00,0.4289
957.00,0.4272
956.00,0.4262
955.00,0.4255
954.00,0.4250
953.00,0.4246
952.00,0.4245
951.00,0.4249
950.00,0.4262
949.00,0.4286
948.00,0.4323
947.00,0.4372
946.00,0.4428
945.00,0.4483
944.00,0.4531
943.00,0.4566
942.00,0.4584
941.00,0.4585
940.00,0.4571
939.00,0.4548
938.00,0.4521
937.00,0.4493
936.00,0.4468
935.00,0.4447
934.00,0.4433
933.00,0.4427
932.00,0.4435
931.00,0.4462
930.00,0.4513
929.00,0.4592
928.00,0.4702
927.00,0.4845
926.00,0.5010
925.00,0.5178
924.00,0.5328
923.00,0.5442
922.00,0.5511
921.00,0.5531
920.00,0.5500
919.00,0.5421
918.00,0.5301
917.00,0.5152
916.00,0.4982
915.00,0.4797
914.00,0.4612
913.00,0.4444
912.00,0.4307
911.00,0.4204
910.00,0.4128
909.00,0.4071
908.00,0.4027
907.00,0.3993
906.00,0.3968
905.00,0.3949
904.00,0.3935
903.00,0.3929
902.00,0.3931
901.00,0.3938
900.00,0.3953
899.00,0.3975
898.00,0.4004
897.00,0.4039
896.00,0.4083
895.00,0.4136
894.00,0.4198
893.00,0.4269
892.00,0.4342
891.00,0.4410
890.00,0.4461
889.00,0.4482
888.00,0.4468
887.00,0.4424
886.00,0.4357
885.00,0.4282
884.00,0.4212
883.00,0.4157
882.00,0.4121
881.00,0.4101
880.00,0.4093
879.00,0.4094
878.00,0.4099
877.00,0.4108
876.00,0.4117
875.00,0.4126
874.00,0.4136
873.00,0.4147
872.00,0.4162
871.00,0.4183
870.00,0.4213
869.00,0.4255
868.00,0.4314
867.00,0.4393
866.00,0.4495
865.00,0.4620
864.00,0.4757
863.00,0.4887
862.00,0.4982
861.00,0.5016
860.00,0.4981
859.00,0.4890
858.00,0.4773
857.00,0.4661
856.00,0.4571
855.00,0.4509
854.00,0.4471
853.00,0.4452
852.00,0.4444
851.00,0.4446
850.00,0.4455
849.00,0.4470
848.00,0.4491
847.00,0.4516
846.00,0.4544
845.00,0.4576
844.00,0.4614
843.00,0.4664
842.00,0.4735
841.00,0.4840
840.00,0.4984
839.00,0.5162
838.00,0.5351
837.00,0.5512
836.00,0.5600
835.00,0.5582
834.00,0.5464
833.00,0.5284
832.00,0.5095
831.00,0.4934
830.00,0.4818
829.00,0.4749
828.00,0.4721
827.00,0.4730
826.00,0.4766
825.00,0.4824
824.00,0.4894
823.00,0.4963
822.00,0.5015
821.00,0.5031
820.00,0.5005
819.00,0.4942
818.00,0.4858
817.00,0.4767
816.00,0.4684
815.00,0.4615
814.00,0.4562
813.00,0.4521
812.00,0.4490
811.00,0.4465
810.00,0.4441
809.00,0.4417
808.00,0.4393
807.00,0.4369
806.00,0.4344
805.00,0.4320
804.00,0.4300
803.00,0.4291
802.00,0.4292
801.00,0.4304
800.00,0.4325
799.00,0.4353
798.00,0.4385
797.00,0.4418
796.00,0.4453
795.00,0.4491
794.00,0.4532
793.00,0.4578
792.00,0.4627
791.00,0.4677
790.00,0.4723
789.00,0.4758
788.00,0.4782
787.00,0.4803
786.00,0.4837
785.00,0.4895
784.00,0.4984
783.00,0.5095
782.00,0.5207
781.00,0.5291
780.00,0.5322
779.00,0.5288
778.00,0.5199
777.00,0.5082
776.00,0.4965
775.00,0.4870
774.00,0.4806
773.00,0.4772
772.00,0.4767
771.00,0.4787
770.00,0.4828
769.00,0.4885
768.00,0.4953
767.00,0.5027
766.00,0.5105
765.00,0.5184
764.00,0.5264
763.00,0.5343
762.00,0.5419
761.00,0.5489
760.00,0.5548
759.00,0.5589
758.00,0.5609
757.00,0.5610
756.00,0.5604
755.00,0.5601
754.00,0.5609
753.00,0.5633
752.00,0.5677
751.00,0.5744
750.00,0.5840
749.00,0.5966
748.00,0.6118
747.00,0.6284
746.00,0.6441
745.00,0.6566
744.00,0.6647
743.00,0.6683
742.00,0.6693
741.00,0.6696
740.00,0.6714
739.00,0.6758
738.00,0.6835
737.00,0.6945
736.00,0.7087
735.00,0.7259
734.00,0.7459
733.00,0.7692
732.00,0.7966
731.00,0.8288
730.00,0.8671
729.00,0.9128
728.00,0.9677
727.00,1.0336
726.00,1.1114
725.00,1.1999
724.00,1.2933
723.00,1.3772
722.00,1.4262
721.00,1.4150
720.00,1.3443
719.00,1.2420
718.00,1.1360
717.00,1.0409
716.00,0.9612
715.00,0.8964
714.00,0.8439
713.00,0.8002
712.00,0.7631
711.00,0.7311
710.00,0.7033
709.00,0.6789
708.00,0.6572
707.00,0.6380
706.00,0.6210
705.00,0.6060
704.00,0.5930
703.00,0.5818
702.00,0.5721
701.00,0.5637
700.00,0.5563
699.00,0.5497
698.00,0.5435
697.00,0.5376
696.00,0.5322
695.00,0.5277
694.00,0.5243
693.00,0.5219
692.00,0.5205
691.00,0.5201
690.00,0.5203
689.00,0.5209
688.00,0.5215
687.00,0.5222
686.00,0.5235
685.00,0.5258
684.00,0.5291
683.00,0.5334
682.00,0.5388
681.00,0.5456
680.00,0.5538
679.00,0.5629
678.00,0.5720
677.00,0.5808
676.00,0.5890
675.00,0.5959
674.00,0.6009
673.00,0.6038
672.00,0.6052
671.00,0.6056
670.00,0.6056
669.00,0.6054
668.00,0.6049
667.00,0.6046
666.00,0.6063
665.00,0.6099
664.00,0.6135
663.00,0.6163
662.00,0.6172
661.00,0.6156
660.00,0.6116
659.00,0.6060
658.00,0.5999
657.00,0.5942
656.00,0.5892
655.00,0.5851
654.00,0.5820
653.00,0.5799
652.00,0.5794
651.00,0.5805
650.00,0.5828
649.00,0.5861
648.00,0.5899
647.00,0.5938
646.00,0.5975
645.00,0.6002
644.00,0.6018
643.00,0.6020
642.00,0.6003
641.00,0.5965
640.00,0.5908
639.00,0.5837
638.00,0.5756
637.00,0.5668
636.00,0.5577
635.00,0.5488
634.00,0.5412
633.00,0.5355
632.00,0.5321
631.00,0.5310
630.00,0.5314
629.00,0.5328
628.00,0.5352
627.00,0.5392
626.00,0.5451
625.00,0.5529
624.00,0.5625
623.00,0.5732
622.00,0.5845
621.00,0.5953
620.00,0.6052
619.00,0.6137
618.00,0.6198
617.00,0.6224
616.00,0.6209
615.00,0.6153
614.00,0.6062
613.00,0.5946
612.00,0.5822
611.00,0.5703
610.00,0.5596
609.00,0.5500
608.00,0.5415
607.00,0.5344
606.00,0.5291
605.00,0.5255
604.00,0.5231
603.00,0.5213
602.00,0.5197
601.00,0.5185
600.00,0.5180
599.00,0.5182
598.00,0.5184
597.00,0.5181
596.00,0.5175
595.00,0.5172
594.00,0.5179
593.00,0.5191
592.00,0.5205
591.00,0.5220
590.00,0.5239
589.00,0.5261
588.00,0.5291
587.00,0.5326
586.00,0.5362
585.00,0.5392
584.00,0.5417
583.00,0.5442
582.00,0.5470
581.00,0.5496
580.00,0.5518
579.00,0.5542
578.00,0.5573
577.00,0.5612
576.00,0.5659
575.00,0.5713
574.00,0.5773
573.00,0.5835
572.00,0.5900
571.00,0.5974
570.00,0.6060
569.00,0.6155
568.00,0.6249
567.00,0.6339
566.00,0.6425
565.00,0.6513
564.00,0.6602
563.00,0.6689
562.00,0.6768
561.00,0.6835
560.00,0.6892
559.00,0.6938
558.00,0.6970
557.00,0.6988
556.00,0.6995
555.00,0.6999
554.00,0.7005
553.00,0.7015
552.00,0.7031
551.00,0.7052
550.00,0.7081
