Created as New Dataset,
cm-1,A
4000.00,0.1696
3999.00,0.1693
3998.00,0.1690
3997.00,0.1687
3996.00,0.1682
3995.00,0.1678
3994.00,0.1673
3993.00,0.1668
3992.00,0.1663
3991.00,0.1657
3990.00,0.1651
3989.00,0.1644
3988.00,0.1637
3987.00,0.1631
3986.00,0.1624
3985.00,0.1617
3984.00,0.1609
3983.00,0.1600
3982.00,0.1592
3981.00,0.1583
3980.00,0.1575
3979.00,0.1566
3978.00,0.1556
3977.00,0.1546
3976.00,0.1534
3975.00,0.1523
3974.00,0.1511
3973.00,0.1501
3972.00,0.1492
3971.00,0.1482
3970.00,0.1472
3969.00,0.1460
3968.00,0.1449
3967.00,0.1438
3966.00,0.1428
3965.00,0.1416
3964.00,0.1405
3963.00,0.1393
3962.00,0.1382
3961.00,0.1372
3960.00,0.1363
3959.00,0.1354
3958.00,0.1344
3957.00,0.1332
3956.00,0.1321
3955.00,0.1309
3954.00,0.1297
3953.00,0.1287
3952.00,0.1276
3951.00,0.1266
3950.00,0.1255
3949.00,0.1245
3948.00,0.1234
3947.00,0.1224
3946.00,0.1215
3945.00,0.1206
3944.00,0.1197
3943.00,0.1186
3942.00,0.1176
3941.00,0.1165
3940.00,0.1157
3939.00,0.1149
3938.00,0.1141
3937.00,0.1133
3936.00,0.1125
3935.00,0.1117
3934.00,0.1107
3933.00,0.1098
3932.00,0.1089
3931.00,0.1080
3930.00,0.1073
3929.00,0.1066
3928.00,0.1059
3927.00,0.1052
3926.00,0.1046
3925.00,0.1040
3924.00,0.1035
3923.00,0.1029
3922.00,0.1023
3921.00,0.1017
3920.00,0.1011
3919.00,0.1005
3918.00,0.1001
3917.00,0.0997
3916.00,0.0993
3915.00,0.0989
3914.00,0.0985
3913.00,0.0982
3912.00,0.0978
3911.00,0.0973
3910.00,0.0967
3909.00,0.0963
3908.00,0.0960
3907.00,0.0958
3906.00,0.0956
3905.00,0.0952
3904.00,0.0948
3903.00,0.0945
3902.00,0.0942
3901.00,0.0941
3900.00,0.0939
3899.00,0.0938
3898.00,0.0936
3897.00,0.0936
3896.00,0.0937
3895.00,0.0936
3894.00,0.0934
3893.00,0.0932
3892.00,0.0929
3891.00,0.0927
3890.00,0.0926
3889.00,0.0925
3888.00,0.0925
3887.00,0.0923
3886.00,0.0920
3885.00,0.0917
3884.00,0.0917
3883.00,0.0918
3882.00,0.0918
3881.00,0.0916
3880.00,0.0912
3879.00,0.0911
3878.00,0.0911
3877.00,0.0912
3876.00,0.0910
3875.00,0.0906
3874.00,0.0904
3873.00,0.0904
3872.00,0.0907
3871.00,0.0909
3870.00,0.0910
3869.00,0.0908
3868.00,0.0908
3867.00,0.0910
3866.00,0.0911
3865.00,0.0910
3864.00,0.0908
3863.00,0.0909
3862.00,0.0913
3861.00,0.0916
3860.00,0.0917
3859.00,0.0917
3858.00,0.0917
3857.00,0.0916
3856.00,0.0915
3855.00,0.0915
3854.00,0.0915
3853.00,0.0914
3852.00,0.0912
3851.00,0.0912
3850.00,0.0915
3849.00,0.0916
3848.00,0.0914
3847.00,0.0915
3846.00,0.0917
3845.00,0.0919
3844.00,0.0919
3843.00,0.0917
3842.00,0.0917
3841.00,0.0916
3840.00,0.0915
3839.00,0.0912
3838.00,0.0908
3837.00,0.0905
3836.00,0.0904
3835.00,0.0904
3834.00,0.0904
3833.00,0.0903
3832.00,0.0901
3831.00,0.0899
3830.00,0.0899
3829.00,0.0900
3828.00,0.0901
3827.00,0.0900
3826.00,0.0899
3825.00,0.0899
3824.00,0.0899
3823.00,0.0901
3822.00,0.0901
3821.00,0.0899
3820.00,0.0897
3819.00,0.0897
3818.00,0.0899
3817.00,0.0901
3816.00,0.0900
3815.00,0.0899
3814.00,0.0901
3813.00,0.0905
3812.00,0.0907
3811.00,0.0907
3810.00,0.0907
3809.00,0.0909
3808.00,0.0913
3807.00,0.0914
3806.00,0.0913
3805.00,0.0912
3804.00,0.0913
3803.00,0.0914
3802.00,0.0913
3801.00,0.0911
3800.00,0.0910
3799.00,0.0911
3798.00,0.0913
3797.00,0.0912
3796.00,0.0911
3795.00,0.0912
3794.00,0.0915
3793.00,0.0917
3792.00,0.0915
3791.00,0.0912
3790.00,0.0911
3789.00,0.0911
3788.00,0.0912
3787.00,0.0911
3786.00,0.0909
3785.00,0.0906
3784.00,0.0903
3783.00,0.0900
3782.00,0.0897
3781.00,0.0895
3780.00,0.0894
3779.00,0.0891
3778.00,0.0888
3777.00,0.0885
3776.00,0.0881
3775.00,0.0876
3774.00,0.0873
3773.00,0.0869
3772.00,0.0867
3771.00,0.0863
3770.00,0.0857
3769.00,0.0850
3768.00,0.0845
3767.00,0.0841
3766.00,0.0837
3765.00,0.0832
3764.00,0.0826
3763.00,0.0822
3762.00,0.0818
3761.00,0.0813
3760.00,0.0808
3759.00,0.0803
3758.00,0.0798
3757.00,0.0794
3756.00,0.0788
3755.00,0.0782
3754.00,0.0778
3753.00,0.0774
3752.00,0.0771
3751.00,0.0765
3750.00,0.0760
3749.00,0.0756
3748.00,0.0753
3747.00,0.0751
3746.00,0.0750
3745.00,0.0747
3744.00,0.0744
3743.00,0.0740
3742.00,0.0739
3741.00,0.0741
3740.00,0.0739
3739.00,0.0734
3738.00,0.0732
3737.00,0.0735
3736.00,0.0735
3735.00,0.0733
3734.00,0.0731
3733.00,0.0732
3732.00,0.0734
3731.00,0.0734
3730.00,0.0734
3729.00,0.0734
3728.00,0.0735
3727.00,0.0735
3726.00,0.0734
3725.00,0.0734
3724.00,0.0735
3723.00,0.0735
3722.00,0.0734
3721.00,0.0734
3720.00,0.0734
3719.00,0.0735
3718.00,0.0735
3717.00,0.0734
3716.00,0.0733
3715.00,0.0733
3714.00,0.0732
3713.00,0.0731
3712.00,0.0730
3711.00,0.0729
3710.00,0.0730
3709.00,0.0732
3708.00,0.0736
3707.00,0.0739
3706.00,0.0743
3705.00,0.0747
3704.00,0.0751
3703.00,0.0756
3702.00,0.0761
3701.00,0.0766
3700.00,0.0773
3699.00,0.0780
3698.00,0.0787
3697.00,0.0795
3696.00,0.0804
3695.00,0.0813
3694.00,0.0823
3693.00,0.0833
3692.00,0.0843
3691.00,0.0853
3690.00,0.0863
3689.00,0.0872
3688.00,0.0879
3687.00,0.0883
3686.00,0.0886
3685.00,0.0890
3684.00,0.0892
3683.00,0.0894
3682.00,0.0897
3681.00,0.0900
3680.00,0.0903
3679.00,0.0904
3678.00,0.0905
3677.00,0.0908
3676.00,0.0911
3675.00,0.0913
3674.00,0.0913
3673.00,0.0916
3672.00,0.0921
3671.00,0.0926
3670.00,0.0932
3669.00,0.0940
3668.00,0.0948
3667.00,0.0957
3666.00,0.0965
3665.00,0.0972
3664.00,0.0982
3663.00,0.0993
3662.00,0.1003
3661.00,0.1011
3660.00,0.1017
3659.00,0.1025
3658.00,0.1034
3657.00,0.1044
3656.00,0.1054
3655.00,0.1062
3654.00,0.1070
3653.00,0.1078
3652.00,0.1086
3651.00,0.1096
3650.00,0.1109
3649.00,0.1120
3648.00,0.1130
3647.00,0.1140
3646.00,0.1152
3645.00,0.1166
3644.00,0.1182
3643.00,0.1197
3642.00,0.1211
3641.00,0.1225
3640.00,0.1240
3639.00,0.1255
3638.00,0.1269
3637.00,0.1284
3636.00,0.1298
3635.00,0.1313
3634.00,0.1328
3633.00,0.1342
3632.00,0.1355
3631.00,0.1370
3630.00,0.1387
3629.00,0.1404
3628.00,0.1422
3627.00,0.1440
3626.00,0.1458
3625.00,0.1476
3624.00,0.1492
3623.00,0.1509
3622.00,0.1528
3621.00,0.1549
3620.00,0.1571
3619.00,0.1592
3618.00,0.1615
3617.00,0.1638
3616.00,0.1662
3615.00,0.1686
3614.00,0.1714
3613.00,0.1744
3612.00,0.1776
3611.00,0.1809
3610.00,0.1843
3609.00,0.1881
3608.00,0.1921
3607.00,0.1963
3606.00,0.2007
3605.00,0.2054
3604.00,0.2103
3603.00,0.2154
3602.00,0.2208
3601.00,0.2262
3600.00,0.2318
3599.00,0.2373
3598.00,0.2429
3597.00,0.2485
3596.00,0.2539
3595.00,0.2593
3594.00,0.2643
3593.00,0.2690
3592.00,0.2733
3591.00,0.2772
3590.00,0.2808
3589.00,0.2842
3588.00,0.2874
3587.00,0.2904
3586.00,0.2931
3585.00,0.2957
3584.00,0.2981
3583.00,0.3003
3582.00,0.3023
3581.00,0.3041
3580.00,0.3059
3579.00,0.3076
3578.00,0.3094
3577.00,0.3113
3576.00,0.3133
3575.00,0.3153
3574.00,0.3171
3573.00,0.3190
3572.00,0.3210
3571.00,0.3232
3570.00,0.3254
3569.00,0.3277
3568.00,0.3303
3567.00,0.3331
3566.00,0.3359
3565.00,0.3388
3564.00,0.3416
3563.00,0.3444
3562.00,0.3473
3561.00,0.3506
3560.00,0.3540
3559.00,0.3575
3558.00,0.3609
3557.00,0.3643
3556.00,0.3678
3555.00,0.3715
3554.00,0.3753
3553.00,0.3793
3552.00,0.3833
3551.00,0.3873
3550.00,0.3913
3549.00,0.3955
3548.00,0.3998
3547.00,0.4044
3546.00,0.4091
3545.00,0.4137
3544.00,0.4183
3543.00,0.4230
3542.00,0.4279
3541.00,0.4332
3540.00,0.4387
3539.00,0.4442
3538.00,0.4496
3537.00,0.4548
3536.00,0.4600
3535.00,0.4654
3534.00,0.4710
3533.00,0.4767
3532.00,0.4824
3531.00,0.4881
3530.00,0.4937
3529.00,0.4996
3528.00,0.5056
3527.00,0.5115
3526.00,0.5171
3525.00,0.5226
3524.00,0.5284
3523.00,0.5345
3522.00,0.5406
3521.00,0.5463
3520.00,0.5518
3519.00,0.5572
3518.00,0.5625
3517.00,0.5677
3516.00,0.5730
3515.00,0.5783
3514.00,0.5836
3513.00,0.5891
3512.00,0.5943
3511.00,0.5992
3510.00,0.6038
3509.00,0.6083
3508.00,0.6126
3507.00,0.6166
3506.00,0.6204
3505.00,0.6242
3504.00,0.6282
3503.00,0.6322
3502.00,0.6360
3501.00,0.6395
3500.00,0.6430
3499.00,0.6464
3498.00,0.6497
3497.00,0.6526
3496.00,0.6554
3495.00,0.6581
3494.00,0.6608
3493.00,0.6635
3492.00,0.6663
3491.00,0.6690
3490.00,0.6717
3489.00,0.6742
3488.00,0.6767
3487.00,0.6789
3486.00,0.6809
3485.00,0.6830
3484.00,0.6853
3483.00,0.6874
3482.00,0.6891
3481.00,0.6905
3480.00,0.6915
3479.00,0.6921
3478.00,0.6926
3477.00,0.6932
3476.00,0.6938
3475.00,0.6940
3474.00,0.6937
3473.00,0.6931
3472.00,0.6923
3471.00,0.6914
3470.00,0.6901
3469.00,0.6886
3468.00,0.6865
3467.00,0.6838
3466.00,0.6806
3465.00,0.6770
3464.00,0.6734
3463.00,0.6697
3462.00,0.6657
3461.00,0.6613
3460.00,0.6567
3459.00,0.6519
3458.00,0.6471
3457.00,0.6424
3456.00,0.6379
3455.00,0.6332
3454.00,0.6280
3453.00,0.6221
3452.00,0.6158
3451.00,0.6095
3450.00,0.6037
3449.00,0.5984
3448.00,0.5935
3447.00,0.5883
3446.00,0.5829
3445.00,0.5773
3444.00,0.5717
3443.00,0.5660
3442.00,0.5604
3441.00,0.5548
3440.00,0.5492
3439.00,0.5436
3438.00,0.5379
3437.00,0.5324
3436.00,0.5270
3435.00,0.5218
3434.00,0.5165
3433.00,0.5113
3432.00,0.5060
3431.00,0.5007
3430.00,0.4953
3429.00,0.4900
3428.00,0.4848
3427.00,0.4797
3426.00,0.4746
3425.00,0.4696
3424.00,0.4647
3423.00,0.4598
3422.00,0.4549
3421.00,0.4501
3420.00,0.4457
3419.00,0.4414
3418.00,0.4372
3417.00,0.4331
3416.00,0.4291
3415.00,0.4251
3414.00,0.4210
3413.00,0.4170
3412.00,0.4131
3411.00,0.4094
3410.00,0.4059
3409.00,0.4025
3408.00,0.3993
3407.00,0.3961
3406.00,0.3930
3405.00,0.3900
3404.00,0.3872
3403.00,0.3844
3402.00,0.3815
3401.00,0.3788
3400.00,0.3764
3399.00,0.3740
3398.00,0.3716
3397.00,0.3691
3396.00,0.3664
3395.00,0.3637
3394.00,0.3609
3393.00,0.3582
3392.00,0.3556
3391.00,0.3531
3390.00,0.3507
3389.00,0.3483
3388.00,0.3458
3387.00,0.3432
3386.00,0.3406
3385.00,0.3379
3384.00,0.3353
3383.00,0.3327
3382.00,0.3301
3381.00,0.3276
3380.00,0.3252
3379.00,0.3230
3378.00,0.3210
3377.00,0.3191
3376.00,0.3171
3375.00,0.3152
3374.00,0.3131
3373.00,0.3112
3372.00,0.3095
3371.00,0.3079
3370.00,0.3064
3369.00,0.3049
3368.00,0.3035
3367.00,0.3021
3366.00,0.3008
3365.00,0.2996
3364.00,0.2985
3363.00,0.2974
3362.00,0.2963
3361.00,0.2952
3360.00,0.2942
3359.00,0.2931
3358.00,0.2921
3357.00,0.2912
3356.00,0.2903
3355.00,0.2892
3354.00,0.2880
3353.00,0.2866
3352.00,0.2853
3351.00,0.2840
3350.00,0.2826
3349.00,0.2810
3348.00,0.2793
3347.00,0.2774
3346.00,0.2755
3345.00,0.2736
3344.00,0.2717
3343.00,0.2698
3342.00,0.2677
3341.00,0.2654
3340.00,0.2631
3339.00,0.2609
3338.00,0.2588
3337.00,0.2565
3336.00,0.2542
3335.00,0.2517
3334.00,0.2493
3333.00,0.2468
3332.00,0.2442
3331.00,0.2416
3330.00,0.2391
3329.00,0.2365
3328.00,0.2341
3327.00,0.2316
3326.00,0.2290
3325.00,0.2265
3324.00,0.2240
3323.00,0.2215
3322.00,0.2190
3321.00,0.2167
3320.00,0.2144
3319.00,0.2122
3318.00,0.2100
3317.00,0.2078
3316.00,0.2056
3315.00,0.2035
3314.00,0.2013
3313.00,0.1992
3312.00,0.1971
3311.00,0.1951
3310.00,0.1931
3309.00,0.1911
3308.00,0.1893
3307.00,0.1877
3306.00,0.1860
3305.00,0.1844
3304.00,0.1827
3303.00,0.1811
3302.00,0.1796
3301.00,0.1781
3300.00,0.1767
3299.00,0.1754
3298.00,0.1741
3297.00,0.1728
3296.00,0.1716
3295.00,0.1703
3294.00,0.1691
3293.00,0.1679
3292.00,0.1666
3291.00,0.1653
3290.00,0.1640
3289.00,0.1628
3288.00,0.1618
3287.00,0.1608
3286.00,0.1599
3285.00,0.1590
3284.00,0.1581
3283.00,0.1571
3282.00,0.1561
3281.00,0.1552
3280.00,0.1544
3279.00,0.1537
3278.00,0.1530
3277.00,0.1523
3276.00,0.1515
3275.00,0.1508
3274.00,0.1501
3273.00,0.1494
3272.00,0.1489
3271.00,0.1484
3270.00,0.1480
3269.00,0.1476
3268.00,0.1472
3267.00,0.1468
3266.00,0.1463
3265.00,0.1458
3264.00,0.1454
3263.00,0.1452
3262.00,0.1450
3261.00,0.1448
3260.00,0.1446
3259.00,0.1444
3258.00,0.1442
3257.00,0.1440
3256.00,0.1437
3255.00,0.1435
3254.00,0.1432
3253.00,0.1429
3252.00,0.1427
3251.00,0.1427
3250.00,0.1426
3249.00,0.1425
3248.00,0.1423
3247.00,0.1422
3246.00,0.1422
3245.00,0.1422
3244.00,0.1422
3243.00,0.1422
3242.00,0.1422
3241.00,0.1424
3240.00,0.1426
3239.00,0.1429
3238.00,0.1432
3237.00,0.1436
3236.00,0.1439
3235.00,0.1443
3234.00,0.1447
3233.00,0.1451
3232.00,0.1455
3231.00,0.1460
3230.00,0.1465
3229.00,0.1470
3228.00,0.1477
3227.00,0.1484
3226.00,0.1491
3225.00,0.1499
3224.00,0.1506
3223.00,0.1515
3222.00,0.1523
3221.00,0.1532
3220.00,0.1541
3219.00,0.1550
3218.00,0.1558
3217.00,0.1565
3216.00,0.1573
3215.00,0.1581
3214.00,0.1591
3213.00,0.1601
3212.00,0.1611
3211.00,0.1620
3210.00,0.1628
3209.00,0.1635
3208.00,0.1643
3207.00,0.1651
3206.00,0.1659
3205.00,0.1667
3204.00,0.1674
3203.00,0.1680
3202.00,0.1687
3201.00,0.1695
3200.00,0.1703
3199.00,0.1710
3198.00,0.1716
3197.00,0.1722
3196.00,0.1727
3195.00,0.1730
3194.00,0.1734
3193.00,0.1736
3192.00,0.1739
3191.00,0.1741
3190.00,0.1742
3189.00,0.1742
3188.00,0.1742
3187.00,0.1742
3186.00,0.1740
3185.00,0.1738
3184.00,0.1734
3183.00,0.1729
3182.00,0.1724
3181.00,0.1719
3180.00,0.1715
3179.00,0.1710
3178.00,0.1705
3177.00,0.1699
3176.00,0.1692
3175.00,0.1685
3174.00,0.1679
3173.00,0.1671
3172.00,0.1664
3171.00,0.1656
3170.00,0.1649
3169.00,0.1643
3168.00,0.1637
3167.00,0.1630
3166.00,0.1624
3165.00,0.1617
3164.00,0.1611
3163.00,0.1606
3162.00,0.1602
3161.00,0.1597
3160.00,0.1592
3159.00,0.1588
3158.00,0.1583
3157.00,0.1580
3156.00,0.1577
3155.00,0.1573
3154.00,0.1570
3153.00,0.1568
3152.00,0.1567
3151.00,0.1566
3150.00,0.1564
3149.00,0.1562
3148.00,0.1560
3147.00,0.1560
3146.00,0.1559
3145.00,0.1559
3144.00,0.1559
3143.00,0.1559
3142.00,0.1560
3141.00,0.1560
3140.00,0.1559
3139.00,0.1558
3138.00,0.1557
3137.00,0.1558
3136.00,0.1559
3135.00,0.1561
3134.00,0.1562
3133.00,0.1564
3132.00,0.1566
3131.00,0.1568
3130.00,0.1572
3129.00,0.1576
3128.00,0.1580
3127.00,0.1584
3126.00,0.1587
3125.00,0.1590
3124.00,0.1593
3123.00,0.1597
3122.00,0.1600
3121.00,0.1604
3120.00,0.1608
3119.00,0.1613
3118.00,0.1618
3117.00,0.1624
3116.00,0.1629
3115.00,0.1634
3114.00,0.1640
3113.00,0.1645
3112.00,0.1652
3111.00,0.1660
3110.00,0.1668
3109.00,0.1676
3108.00,0.1685
3107.00,0.1692
3106.00,0.1700
3105.00,0.1707
3104.00,0.1716
3103.00,0.1725
3102.00,0.1735
3101.00,0.1745
3100.00,0.1754
3099.00,0.1764
3098.00,0.1774
3097.00,0.1785
3096.00,0.1795
3095.00,0.1804
3094.00,0.1813
3093.00,0.1822
3092.00,0.1831
3091.00,0.1840
3090.00,0.1848
3089.00,0.1857
3088.00,0.1868
3087.00,0.1880
3086.00,0.1893
3085.00,0.1906
3084.00,0.1919
3083.00,0.1933
3082.00,0.1947
3081.00,0.1961
3080.00,0.1974
3079.00,0.1988
3078.00,0.2003
3077.00,0.2020
3076.00,0.2038
3075.00,0.2057
3074.00,0.2077
3073.00,0.2098
3072.00,0.2121
3071.00,0.2145
3070.00,0.2168
3069.00,0.2191
3068.00,0.2215
3067.00,0.2238
3066.00,0.2263
3065.00,0.2289
3064.00,0.2316
3063.00,0.2344
3062.00,0.2371
3061.00,0.2398
3060.00,0.2426
3059.00,0.2454
3058.00,0.2482
3057.00,0.2508
3056.00,0.2534
3055.00,0.2560
3054.00,0.2586
3053.00,0.2612
3052.00,0.2637
3051.00,0.2662
3050.00,0.2687
3049.00,0.2713
3048.00,0.2739
3047.00,0.2767
3046.00,0.2798
3045.00,0.2831
3044.00,0.2869
3043.00,0.2910
3042.00,0.2955
3041.00,0.3002
3040.00,0.3052
3039.00,0.3105
3038.00,0.3160
3037.00,0.3216
3036.00,0.3272
3035.00,0.3329
3034.00,0.3386
3033.00,0.3444
3032.00,0.3502
3031.00,0.3561
3030.00,0.3621
3029.00,0.3683
3028.00,0.3749
3027.00,0.3819
3026.00,0.3892
3025.00,0.3971
3024.00,0.4054
3023.00,0.4143
3022.00,0.4241
3021.00,0.4349
3020.00,0.4467
3019.00,0.4597
3018.00,0.4738
3017.00,0.4893
3016.00,0.5065
3015.00,0.5257
3014.00,0.5472
3013.00,0.5709
3012.00,0.5970
3011.00,0.6258
3010.00,0.6578
3009.00,0.6933
3008.00,0.7326
3007.00,0.7765
3006.00,0.8260
3005.00,0.8821
3004.00,0.9450
3003.00,1.0148
3002.00,1.0917
3001.00,1.1775
3000.00,1.2737
2999.00,1.3811
2998.00,1.4995
2997.00,1.6289
2996.00,1.7703
2995.00,1.9250
2994.00,2.0943
2993.00,2.2758
2992.00,2.4626
2991.00,2.6459
2990.00,2.8231
2989.00,2.9958
2988.00,3.1284
2987.00,3.1932
2986.00,3.2521
2985.00,3.3849
2984.00,3.5129
2983.00,3.4326
2982.00,3.2692
2981.00,3.1790
2980.00,3.1562
2979.00,3.1404
2978.00,3.1233
2977.00,3.1218
2976.00,3.1526
2975.00,3.1953
2974.00,3.2087
2973.00,3.1665
2972.00,3.1080
2971.00,3.0832
2970.00,3.1183
2969.00,3.2150
2968.00,3.3535
2967.00,3.4733
2966.00,3.4898
2965.00,3.4375
2964.00,3.4028
2963.00,3.4126
2962.00,3.4484
2961.00,3.4836
2960.00,3.4975
2959.00,3.4779
2958.00,3.4479
2957.00,3.4465
2956.00,3.4634
2955.00,3.4540
2954.00,3.4318
2953.00,3.4533
2952.00,3.5233
2951.00,3.5216
2950.00,3.3767
2949.00,3.2289
2948.00,3.1813
2947.00,3.2667
2946.00,3.4904
2945.00,3.7161
2944.00,3.6059
2943.00,3.3974
2942.00,3.2966
2941.00,3.2780
2940.00,3.2535
2939.00,3.1821
2938.00,3.1284
2937.00,3.1636
2936.00,3.3396
2935.00,3.6634
2934.00,4.0464
2933.00,4.0415
2932.00,3.7019
2931.00,3.5668
2930.00,3.6435
2929.00,4.1872
2928.00,4.3488
2927.00,3.9274
2926.00,3.7459
2925.00,3.8245
2924.00,3.9373
2923.00,4.2115
2922.00,3.9155
2921.00,3.7715
2920.00,3.7663
2919.00,3.9150
2918.00,3.7393
2917.00,3.5684
2916.00,3.6663
2915.00,3.7591
2914.00,3.6084
2913.00,3.5134
2912.00,3.6458
2911.00,3.7843
2910.00,3.5965
2909.00,3.4382
2908.00,3.4944
2907.00,3.6722
2906.00,3.6208
2905.00,3.4389
2904.00,3.3541
2903.00,3.3950
2902.00,3.5018
2901.00,3.6130
2900.00,3.6530
2899.00,3.6215
2898.00,3.5389
2897.00,3.4356
2896.00,3.3508
2895.00,3.3262
2894.00,3.3792
2893.00,3.4360
2892.00,3.3992
2891.00,3.3633
2890.00,3.4986
2889.00,4.1290
2888.00,7.7285
2887.00,5.5342
2886.00,3.9706
2885.00,4.0278
2884.00,5.0396
2883.00,4.4843
2882.00,3.8137
2881.00,3.5176
2880.00,3.4582
2879.00,3.4455
2878.00,3.4263
2877.00,3.4059
2876.00,3.3967
2875.00,3.3892
2874.00,3.3698
2873.00,3.3620
2872.00,3.3602
2871.00,3.3413
2870.00,3.2935
2869.00,3.2675
2868.00,3.3006
2867.00,3.3906
2866.00,3.4982
2865.00,3.5219
2864.00,3.4484
2863.00,3.3944
2862.00,3.4405
2861.00,3.5488
2860.00,3.4937
2859.00,3.3112
2858.00,3.1938
2857.00,3.1883
2856.00,3.2600
2855.00,3.3708
2854.00,3.5119
2853.00,3.6605
2852.00,3.7202
2851.00,3.7425
2850.00,3.8251
2849.00,4.0806
2848.00,4.2409
2847.00,3.7293
2846.00,3.3728
2845.00,3.1739
2844.00,3.0965
2843.00,3.0561
2842.00,2.9996
2841.00,2.8766
2840.00,2.6966
2839.00,2.5129
2838.00,2.3592
2837.00,2.2360
2836.00,2.1283
2835.00,2.0247
2834.00,1.9242
2833.00,1.8312
2832.00,1.7473
2831.00,1.6706
2830.00,1.5988
2829.00,1.5317
2828.00,1.4708
2827.00,1.4172
2826.00,1.3704
2825.00,1.3285
2824.00,1.2900
2823.00,1.2546
2822.00,1.2224
2821.00,1.1931
2820.00,1.1658
2819.00,1.1403
2818.00,1.1169
2817.00,1.0959
2816.00,1.0770
2815.00,1.0602
2814.00,1.0453
2813.00,1.0321
2812.00,1.0206
2811.00,1.0109
2810.00,1.0034
2809.00,0.9979
2808.00,0.9937
2807.00,0.9904
2806.00,0.9880
2805.00,0.9866
2804.00,0.9862
2803.00,0.9861
2802.00,0.9859
2801.00,0.9853
2800.00,0.9844
2799.00,0.9828
2798.00,0.9801
2797.00,0.9760
2796.00,0.9705
2795.00,0.9637
2794.00,0.9561
2793.00,0.9480
2792.00,0.9398
2791.00,0.9315
2790.00,0.9230
2789.00,0.9142
2788.00,0.9051
2787.00,0.8958
2786.00,0.8866
2785.00,0.8775
2784.00,0.8685
2783.00,0.8595
2782.00,0.8505
2781.00,0.8415
2780.00,0.8323
2779.00,0.8229
2778.00,0.8133
2777.00,0.8038
2776.00,0.7947
2775.00,0.7860
2774.00,0.7774
2773.00,0.7685
2772.00,0.7591
2771.00,0.7497
2770.00,0.7404
2769.00,0.7314
2768.00,0.7226
2767.00,0.7136
2766.00,0.7045
2765.00,0.6953
2764.00,0.6862
2763.00,0.6773
2762.00,0.6685
2761.00,0.6595
2760.00,0.6502
2759.00,0.6408
2758.00,0.6315
2757.00,0.6226
2756.00,0.6140
2755.00,0.6058
2754.00,0.5979
2753.00,0.5902
2752.00,0.5825
2751.00,0.5749
2750.00,0.5676
2749.00,0.5609
2748.00,0.5546
2747.00,0.5488
2746.00,0.5433
2745.00,0.5382
2744.00,0.5332
2743.00,0.5283
2742.00,0.5234
2741.00,0.5188
2740.00,0.5145
2739.00,0.5104
2738.00,0.5066
2737.00,0.5030
2736.00,0.4995
2735.00,0.4959
2734.00,0.4922
2733.00,0.4885
2732.00,0.4845
2731.00,0.4803
2730.00,0.4758
2729.00,0.4711
2728.00,0.4661
2727.00,0.4608
2726.00,0.4550
2725.00,0.4490
2724.00,0.4431
2723.00,0.4374
2722.00,0.4317
2721.00,0.4262
2720.00,0.4208
2719.00,0.4155
2718.00,0.4103
2717.00,0.4053
2716.00,0.4005
2715.00,0.3960
2714.00,0.3917
2713.00,0.3877
2712.00,0.3839
2711.00,0.3805
2710.00,0.3773
2709.00,0.3745
2708.00,0.3721
2707.00,0.3701
2706.00,0.3683
2705.00,0.3666
2704.00,0.3648
2703.00,0.3630
2702.00,0.3612
2701.00,0.3593
2700.00,0.3573
2699.00,0.3552
2698.00,0.3530
2697.00,0.3506
2696.00,0.3480
2695.00,0.3455
2694.00,0.3432
2693.00,0.3412
2692.00,0.3393
2691.00,0.3377
2690.00,0.3365
2689.00,0.3356
2688.00,0.3351
2687.00,0.3347
2686.00,0.3342
2685.00,0.3338
2684.00,0.3336
2683.00,0.3337
2682.00,0.3339
2681.00,0.3343
2680.00,0.3348
2679.00,0.3351
2678.00,0.3354
2677.00,0.3354
2676.00,0.3353
2675.00,0.3349
2674.00,0.3344
2673.00,0.3336
2672.00,0.3324
2671.00,0.3309
2670.00,0.3290
2669.00,0.3270
2668.00,0.3249
2667.00,0.3227
2666.00,0.3203
2665.00,0.3177
2664.00,0.3150
2663.00,0.3123
2662.00,0.3096
2661.00,0.3069
2660.00,0.3043
2659.00,0.3018
2658.00,0.2994
2657.00,0.2970
2656.00,0.2949
2655.00,0.2929
2654.00,0.2912
2653.00,0.2897
2652.00,0.2882
2651.00,0.2870
2650.00,0.2860
2649.00,0.2851
2648.00,0.2844
2647.00,0.2837
2646.00,0.2830
2645.00,0.2823
2644.00,0.2817
2643.00,0.2808
2642.00,0.2796
2641.00,0.2783
2640.00,0.2768
2639.00,0.2752
2638.00,0.2734
2637.00,0.2714
2636.00,0.2693
2635.00,0.2669
2634.00,0.2644
2633.00,0.2617
2632.00,0.2588
2631.00,0.2558
2630.00,0.2528
2629.00,0.2497
2628.00,0.2465
2627.00,0.2432
2626.00,0.2400
2625.00,0.2370
2624.00,0.2342
2623.00,0.2316
2622.00,0.2290
2621.00,0.2265
2620.00,0.2243
2619.00,0.2223
2618.00,0.2205
2617.00,0.2190
2616.00,0.2177
2615.00,0.2166
2614.00,0.2156
2613.00,0.2149
2612.00,0.2142
2611.00,0.2136
2610.00,0.2131
2609.00,0.2127
2608.00,0.2124
2607.00,0.2123
2606.00,0.2122
2605.00,0.2120
2604.00,0.2118
2603.00,0.2116
2602.00,0.2114
2601.00,0.2111
2600.00,0.2109
2599.00,0.2106
2598.00,0.2105
2597.00,0.2103
2596.00,0.2102
2595.00,0.2101
2594.00,0.2098
2593.00,0.2095
2592.00,0.2092
2591.00,0.2088
2590.00,0.2085
2589.00,0.2082
2588.00,0.2077
2587.00,0.2069
2586.00,0.2059
2585.00,0.2048
2584.00,0.2035
2583.00,0.2020
2582.00,0.2002
2581.00,0.1980
2580.00,0.1957
2579.00,0.1932
2578.00,0.1906
2577.00,0.1878
2576.00,0.1850
2575.00,0.1819
2574.00,0.1787
2573.00,0.1754
2572.00,0.1722
2571.00,0.1690
2570.00,0.1659
2569.00,0.1630
2568.00,0.1602
2567.00,0.1575
2566.00,0.1550
2565.00,0.1527
2564.00,0.1506
2563.00,0.1487
2562.00,0.1468
2561.00,0.1451
2560.00,0.1434
2559.00,0.1419
2558.00,0.1405
2557.00,0.1392
2556.00,0.1380
2555.00,0.1369
2554.00,0.1359
2553.00,0.1350
2552.00,0.1342
2551.00,0.1333
2550.00,0.1325
2549.00,0.1318
2548.00,0.1312
2547.00,0.1305
2546.00,0.1299
2545.00,0.1292
2544.00,0.1286
2543.00,0.1280
2542.00,0.1274
2541.00,0.1268
2540.00,0.1263
2539.00,0.1257
2538.00,0.1251
2537.00,0.1246
2536.00,0.1240
2535.00,0.1234
2534.00,0.1228
2533.00,0.1222
2532.00,0.1217
2531.00,0.1212
2530.00,0.1207
2529.00,0.1203
2528.00,0.1199
2527.00,0.1194
2526.00,0.1190
2525.00,0.1185
2524.00,0.1182
2523.00,0.1179
2522.00,0.1176
2521.00,0.1173
2520.00,0.1172
2519.00,0.1171
2518.00,0.1169
2517.00,0.1168
2516.00,0.1168
2515.00,0.1168
2514.00,0.1169
2513.00,0.1169
2512.00,0.1170
2511.00,0.1171
2510.00,0.1172
2509.00,0.1174
2508.00,0.1176
2507.00,0.1179
2506.00,0.1180
2505.00,0.1182
2504.00,0.1184
2503.00,0.1185
2502.00,0.1185
2501.00,0.1185
2500.00,0.1185
2499.00,0.1186
2498.00,0.1186
2497.00,0.1187
2496.00,0.1187
2495.00,0.1187
2494.00,0.1186
2493.00,0.1184
2492.00,0.1183
2491.00,0.1181
2490.00,0.1179
2489.00,0.1177
2488.00,0.1176
2487.00,0.1176
2486.00,0.1175
2485.00,0.1174
2484.00,0.1174
2483.00,0.1175
2482.00,0.1175
2481.00,0.1175
2480.00,0.1174
2479.00,0.1174
2478.00,0.1174
2477.00,0.1174
2476.00,0.1174
2475.00,0.1174
2474.00,0.1174
2473.00,0.1173
2472.00,0.1172
2471.00,0.1169
2470.00,0.1167
2469.00,0.1165
2468.00,0.1165
2467.00,0.1164
2466.00,0.1163
2465.00,0.1161
2464.00,0.1160
2463.00,0.1160
2462.00,0.1159
2461.00,0.1158
2460.00,0.1156
2459.00,0.1155
2458.00,0.1153
2457.00,0.1151
2456.00,0.1149
2455.00,0.1147
2454.00,0.1145
2453.00,0.1144
2452.00,0.1142
2451.00,0.1140
2450.00,0.1138
2449.00,0.1136
2448.00,0.1133
2447.00,0.1131
2446.00,0.1129
2445.00,0.1126
2444.00,0.1124
2443.00,0.1122
2442.00,0.1119
2441.00,0.1117
2440.00,0.1115
2439.00,0.1113
2438.00,0.1111
2437.00,0.1110
2436.00,0.1109
2435.00,0.1109
2434.00,0.1109
2433.00,0.1109
2432.00,0.1107
2431.00,0.1106
2430.00,0.1104
2429.00,0.1103
2428.00,0.1102
2427.00,0.1102
2426.00,0.1101
2425.00,0.1101
2424.00,0.1101
2423.00,0.1101
2422.00,0.1100
2421.00,0.1100
2420.00,0.1100
2419.00,0.1100
2418.00,0.1100
2417.00,0.1100
2416.00,0.1101
2415.00,0.1102
2414.00,0.1104
2413.00,0.1105
2412.00,0.1107
2411.00,0.1108
2410.00,0.1110
2409.00,0.1112
2408.00,0.1115
2407.00,0.1118
2406.00,0.1121
2405.00,0.1125
2404.00,0.1128
2403.00,0.1131
2402.00,0.1135
2401.00,0.1139
2400.00,0.1143
2399.00,0.1146
2398.00,0.1148
2397.00,0.1150
2396.00,0.1152
2395.00,0.1153
2394.00,0.1155
2393.00,0.1158
2392.00,0.1160
2391.00,0.1162
2390.00,0.1163
2389.00,0.1163
2388.00,0.1164
2387.00,0.1164
2386.00,0.1162
2385.00,0.1161
2384.00,0.1159
2383.00,0.1158
2382.00,0.1156
2381.00,0.1155
2380.00,0.1154
2379.00,0.1153
2378.00,0.1151
2377.00,0.1150
2376.00,0.1150
2375.00,0.1150
2374.00,0.1150
2373.00,0.1150
2372.00,0.1151
2371.00,0.1152
2370.00,0.1152
2369.00,0.1151
2368.00,0.1149
2367.00,0.1147
2366.00,0.1146
2365.00,0.1145
2364.00,0.1145
2363.00,0.1145
2362.00,0.1144
2361.00,0.1144
2360.00,0.1144
2359.00,0.1144
2358.00,0.1143
2357.00,0.1143
2356.00,0.1144
2355.00,0.1146
2354.00,0.1146
2353.00,0.1146
2352.00,0.1146
2351.00,0.1145
2350.00,0.1142
2349.00,0.1141
2348.00,0.1143
2347.00,0.1145
2346.00,0.1142
2345.00,0.1136
2344.00,0.1130
2343.00,0.1131
2342.00,0.1135
2341.00,0.1141
2340.00,0.1145
2339.00,0.1148
2338.00,0.1150
2337.00,0.1150
2336.00,0.1150
2335.00,0.1148
2334.00,0.1146
2333.00,0.1145
2332.00,0.1145
2331.00,0.1146
2330.00,0.1147
2329.00,0.1149
2328.00,0.1152
2327.00,0.1155
2326.00,0.1159
2325.00,0.1162
2324.00,0.1165
2323.00,0.1167
2322.00,0.1168
2321.00,0.1172
2320.00,0.1176
2319.00,0.1182
2318.00,0.1187
2317.00,0.1192
2316.00,0.1196
2315.00,0.1201
2314.00,0.1206
2313.00,0.1211
2312.00,0.1216
2311.00,0.1221
2310.00,0.1227
2309.00,0.1233
2308.00,0.1240
2307.00,0.1246
2306.00,0.1251
2305.00,0.1257
2304.00,0.1262
2303.00,0.1268
2302.00,0.1275
2301.00,0.1282
2300.00,0.1290
2299.00,0.1298
2298.00,0.1305
2297.00,0.1311
2296.00,0.1316
2295.00,0.1320
2294.00,0.1325
2293.00,0.1329
2292.00,0.1333
2291.00,0.1336
2290.00,0.1339
2289.00,0.1341
2288.00,0.1343
2287.00,0.1344
2286.00,0.1346
2285.00,0.1348
2284.00,0.1351
2283.00,0.1354
2282.00,0.1356
2281.00,0.1358
2280.00,0.1359
2279.00,0.1361
2278.00,0.1363
2277.00,0.1365
2276.00,0.1369
2275.00,0.1372
2274.00,0.1374
2273.00,0.1377
2272.00,0.1379
2271.00,0.1381
2270.00,0.1382
2269.00,0.1384
2268.00,0.1387
2267.00,0.1389
2266.00,0.1390
2265.00,0.1392
2264.00,0.1393
2263.00,0.1394
2262.00,0.1395
2261.00,0.1395
2260.00,0.1396
2259.00,0.1396
2258.00,0.1397
2257.00,0.1398
2256.00,0.1399
2255.00,0.1401
2254.00,0.1403
2253.00,0.1405
2252.00,0.1407
2251.00,0.1409
2250.00,0.1410
2249.00,0.1412
2248.00,0.1415
2247.00,0.1418
2246.00,0.1421
2245.00,0.1424
2244.00,0.1427
2243.00,0.1430
2242.00,0.1432
2241.00,0.1435
2240.00,0.1438
2239.00,0.1441
2238.00,0.1444
2237.00,0.1447
2236.00,0.1450
2235.00,0.1454
2234.00,0.1458
2233.00,0.1463
2232.00,0.1467
2231.00,0.1471
2230.00,0.1473
2229.00,0.1476
2228.00,0.1480
2227.00,0.1485
2226.00,0.1489
2225.00,0.1494
2224.00,0.1498
2223.00,0.1502
2222.00,0.1507
2221.00,0.1512
2220.00,0.1517
2219.00,0.1522
2218.00,0.1525
2217.00,0.1529
2216.00,0.1532
2215.00,0.1536
2214.00,0.1539
2213.00,0.1541
2212.00,0.1543
2211.00,0.1544
2210.00,0.1544
2209.00,0.1545
2208.00,0.1546
2207.00,0.1546
2206.00,0.1546
2205.00,0.1545
2204.00,0.1544
2203.00,0.1544
2202.00,0.1543
2201.00,0.1542
2200.00,0.1540
2199.00,0.1538
2198.00,0.1535
2197.00,0.1533
2196.00,0.1531
2195.00,0.1528
2194.00,0.1526
2193.00,0.1523
2192.00,0.1521
2191.00,0.1519
2190.00,0.1517
2189.00,0.1515
2188.00,0.1514
2187.00,0.1512
2186.00,0.1511
2185.00,0.1511
2184.00,0.1512
2183.00,0.1513
2182.00,0.1512
2181.00,0.1512
2180.00,0.1512
2179.00,0.1513
2178.00,0.1513
2177.00,0.1514
2176.00,0.1515
2175.00,0.1516
2174.00,0.1516
2173.00,0.1515
2172.00,0.1515
2171.00,0.1514
2170.00,0.1513
2169.00,0.1512
2168.00,0.1512
2167.00,0.1510
2166.00,0.1509
2165.00,0.1507
2164.00,0.1506
2163.00,0.1504
2162.00,0.1502
2161.00,0.1499
2160.00,0.1497
2159.00,0.1495
2158.00,0.1492
2157.00,0.1488
2156.00,0.1485
2155.00,0.1481
2154.00,0.1478
2153.00,0.1475
2152.00,0.1472
2151.00,0.1469
2150.00,0.1465
2149.00,0.1462
2148.00,0.1459
2147.00,0.1457
2146.00,0.1454
2145.00,0.1451
2144.00,0.1449
2143.00,0.1446
2142.00,0.1444
2141.00,0.1441
2140.00,0.1440
2139.00,0.1438
2138.00,0.1435
2137.00,0.1432
2136.00,0.1429
2135.00,0.1428
2134.00,0.1426
2133.00,0.1426
2132.00,0.1425
2131.00,0.1424
2130.00,0.1421
2129.00,0.1419
2128.00,0.1418
2127.00,0.1417
2126.00,0.1416
2125.00,0.1416
2124.00,0.1416
2123.00,0.1416
2122.00,0.1417
2121.00,0.1418
2120.00,0.1420
2119.00,0.1421
2118.00,0.1423
2117.00,0.1425
2116.00,0.1427
2115.00,0.1429
2114.00,0.1432
2113.00,0.1437
2112.00,0.1442
2111.00,0.1447
2110.00,0.1452
2109.00,0.1456
2108.00,0.1461
2107.00,0.1466
2106.00,0.1472
2105.00,0.1478
2104.00,0.1484
2103.00,0.1490
2102.00,0.1496
2101.00,0.1501
2100.00,0.1506
2099.00,0.1511
2098.00,0.1517
2097.00,0.1522
2096.00,0.1527
2095.00,0.1531
2094.00,0.1534
2093.00,0.1536
2092.00,0.1539
2091.00,0.1540
2090.00,0.1541
2089.00,0.1543
2088.00,0.1546
2087.00,0.1551
2086.00,0.1555
2085.00,0.1560
2084.00,0.1564
2083.00,0.1568
2082.00,0.1570
2081.00,0.1571
2080.00,0.1573
2079.00,0.1575
2078.00,0.1577
2077.00,0.1579
2076.00,0.1581
2075.00,0.1584
2074.00,0.1587
2073.00,0.1590
2072.00,0.1594
2071.00,0.1598
2070.00,0.1602
2069.00,0.1607
2068.00,0.1611
2067.00,0.1615
2066.00,0.1619
2065.00,0.1623
2064.00,0.1627
2063.00,0.1632
2062.00,0.1639
2061.00,0.1642
2060.00,0.1651
2059.00,0.1658
2058.00,0.1665
2057.00,0.1673
2056.00,0.1681
2055.00,0.1689
2054.00,0.1697
2053.00,0.1706
2052.00,0.1716
2051.00,0.1726
2050.00,0.1737
2049.00,0.1748
2048.00,0.1760
2047.00,0.1772
2046.00,0.1783
2045.00,0.1794
2044.00,0.1805
2043.00,0.1814
2042.00,0.1821
2041.00,0.1829
2040.00,0.1842
2039.00,0.1856
2038.00,0.1871
2037.00,0.1884
2036.00,0.1895
2035.00,0.1905
2034.00,0.1914
2033.00,0.1922
2032.00,0.1929
2031.00,0.1935
2030.00,0.1941
2029.00,0.1946
2028.00,0.1951
2027.00,0.1955
2026.00,0.1957
2025.00,0.1958
2024.00,0.1957
2023.00,0.1957
2022.00,0.1957
2021.00,0.1960
2020.00,0.1958
2019.00,0.1956
2018.00,0.1952
2017.00,0.1947
2016.00,0.1943
2015.00,0.1939
2014.00,0.1934
2013.00,0.1930
2012.00,0.1925
2011.00,0.1919
2010.00,0.1911
2009.00,0.1903
2008.00,0.1896
2007.00,0.1888
2006.00,0.1880
2005.00,0.1872
2004.00,0.1864
2003.00,0.1856
2002.00,0.1847
2001.00,0.1840
2000.00,0.1831
1999.00,0.1823
1998.00,0.1814
1997.00,0.1807
1996.00,0.1800
1995.00,0.1793
1994.00,0.1786
1993.00,0.1780
1992.00,0.1774
1991.00,0.1768
1990.00,0.1763
1989.00,0.1758
1988.00,0.1755
1987.00,0.1752
1986.00,0.1748
1985.00,0.1745
1984.00,0.1742
1983.00,0.1738
1982.00,0.1735
1981.00,0.1732
1980.00,0.1730
1979.00,0.1727
1978.00,0.1724
1977.00,0.1719
1976.00,0.1715
1975.00,0.1711
1974.00,0.1707
1973.00,0.1705
1972.00,0.1701
1971.00,0.1697
1970.00,0.1692
1969.00,0.1687
1968.00,0.1682
1967.00,0.1677
1966.00,0.1671
1965.00,0.1665
1964.00,0.1661
1963.00,0.1656
1962.00,0.1651
1961.00,0.1645
1960.00,0.1640
1959.00,0.1635
1958.00,0.1630
1957.00,0.1625
1956.00,0.1620
1955.00,0.1614
1954.00,0.1609
1953.00,0.1605
1952.00,0.1601
1951.00,0.1597
1950.00,0.1592
1949.00,0.1587
1948.00,0.1584
1947.00,0.1580
1946.00,0.1576
1945.00,0.1572
1944.00,0.1569
1943.00,0.1565
1942.00,0.1560
1941.00,0.1556
1940.00,0.1554
1939.00,0.1553
1938.00,0.1551
1937.00,0.1549
1936.00,0.1547
1935.00,0.1544
1934.00,0.1541
1933.00,0.1537
1932.00,0.1534
1931.00,0.1530
1930.00,0.1525
1929.00,0.1521
1928.00,0.1517
1927.00,0.1513
1926.00,0.1508
1925.00,0.1502
1924.00,0.1495
1923.00,0.1488
1922.00,0.1479
1921.00,0.1472
1920.00,0.1466
1919.00,0.1459
1918.00,0.1450
1917.00,0.1442
1916.00,0.1435
1915.00,0.1429
1914.00,0.1422
1913.00,0.1415
1912.00,0.1406
1911.00,0.1397
1910.00,0.1388
1909.00,0.1379
1908.00,0.1371
1907.00,0.1364
1906.00,0.1356
1905.00,0.1349
1904.00,0.1344
1903.00,0.1337
1902.00,0.1329
1901.00,0.1320
1900.00,0.1313
1899.00,0.1305
1898.00,0.1298
1897.00,0.1291
1896.00,0.1285
1895.00,0.1279
1894.00,0.1273
1893.00,0.1268
1892.00,0.1264
1891.00,0.1261
1890.00,0.1257
1889.00,0.1253
1888.00,0.1250
1887.00,0.1249
1886.00,0.1248
1885.00,0.1247
1884.00,0.1247
1883.00,0.1246
1882.00,0.1244
1881.00,0.1243
1880.00,0.1244
1879.00,0.1245
1878.00,0.1245
1877.00,0.1247
1876.00,0.1248
1875.00,0.1249
1874.00,0.1249
1873.00,0.1249
1872.00,0.1251
1871.00,0.1252
1870.00,0.1253
1869.00,0.1253
1868.00,0.1254
1867.00,0.1256
1866.00,0.1258
1865.00,0.1261
1864.00,0.1264
1863.00,0.1266
1862.00,0.1266
1861.00,0.1268
1860.00,0.1270
1859.00,0.1271
1858.00,0.1273
1857.00,0.1275
1856.00,0.1278
1855.00,0.1281
1854.00,0.1282
1853.00,0.1283
1852.00,0.1286
1851.00,0.1289
1850.00,0.1292
1849.00,0.1294
1848.00,0.1298
1847.00,0.1302
1846.00,0.1305
1845.00,0.1309
1844.00,0.1313
1843.00,0.1317
1842.00,0.1321
1841.00,0.1327
1840.00,0.1334
1839.00,0.1340
1838.00,0.1344
1837.00,0.1351
1836.00,0.1359
1835.00,0.1367
1834.00,0.1374
1833.00,0.1383
1832.00,0.1393
1831.00,0.1403
1830.00,0.1414
1829.00,0.1425
1828.00,0.1438
1827.00,0.1453
1826.00,0.1467
1825.00,0.1482
1824.00,0.1500
1823.00,0.1518
1822.00,0.1536
1821.00,0.1555
1820.00,0.1576
1819.00,0.1598
1818.00,0.1619
1817.00,0.1641
1816.00,0.1663
1815.00,0.1686
1814.00,0.1708
1813.00,0.1733
1812.00,0.1761
1811.00,0.1789
1810.00,0.1817
1809.00,0.1846
1808.00,0.1877
1807.00,0.1908
1806.00,0.1939
1805.00,0.1972
1804.00,0.2007
1803.00,0.2044
1802.00,0.2082
1801.00,0.2123
1800.00,0.2167
1799.00,0.2212
1798.00,0.2258
1797.00,0.2306
1796.00,0.2357
1795.00,0.2407
1794.00,0.2464
1793.00,0.2517
1792.00,0.2593
1791.00,0.2627
1790.00,0.2628
1789.00,0.2726
1788.00,0.2811
1787.00,0.2898
1786.00,0.2966
1785.00,0.3036
1784.00,0.3115
1783.00,0.3209
1782.00,0.3310
1781.00,0.3418
1780.00,0.3533
1779.00,0.3658
1778.00,0.3794
1777.00,0.3943
1776.00,0.4098
1775.00,0.4263
1774.00,0.4455
1773.00,0.4693
1772.00,0.4968
1771.00,0.5250
1770.00,0.5535
1769.00,0.5859
1768.00,0.6263
1767.00,0.6757
1766.00,0.7330
1765.00,0.7977
1764.00,0.8724
1763.00,0.9630
1762.00,1.0774
1761.00,1.2196
1760.00,1.3854
1759.00,1.5684
1758.00,1.7778
1757.00,2.0379
1756.00,2.3561
1755.00,2.6821
1754.00,2.9714
1753.00,3.3858
1752.00,4.2130
1751.00,3.9300
1750.00,3.6510
1749.00,3.8475
1748.00,4.5329
1747.00,3.7048
1746.00,3.6106
1745.00,4.3912
1744.00,4.1189
1743.00,3.6731
1742.00,3.7938
1741.00,3.7346
1740.00,3.4175
1739.00,3.5457
1738.00,3.6134
1737.00,3.6795
1736.00,3.9617
1735.00,3.1400
1734.00,2.8493
1733.00,2.6670
1732.00,2.4219
1731.00,2.2215
1730.00,2.0616
1729.00,1.9084
1728.00,1.7567
1727.00,1.6204
1726.00,1.5025
1725.00,1.3933
1724.00,1.2878
1723.00,1.1914
1722.00,1.1091
1721.00,1.0380
1720.00,0.9708
1719.00,0.9019
1718.00,0.8310
1717.00,0.7643
1716.00,0.7088
1715.00,0.6653
1714.00,0.6307
1713.00,0.6018
1712.00,0.5767
1711.00,0.5546
1710.00,0.5351
1709.00,0.5184
1708.00,0.5039
1707.00,0.4908
1706.00,0.4780
1705.00,0.4656
1704.00,0.4547
1703.00,0.4462
1702.00,0.4389
1701.00,0.4297
1700.00,0.4165
1699.00,0.4016
1698.00,0.3889
1697.00,0.3781
1696.00,0.3669
1695.00,0.3555
1694.00,0.3460
1693.00,0.3390
1692.00,0.3326
1691.00,0.3249
1690.00,0.3155
1689.00,0.3060
1688.00,0.2982
1687.00,0.2925
1686.00,0.2878
1685.00,0.2821
1684.00,0.2738
1683.00,0.2655
1682.00,0.2599
1681.00,0.2566
1680.00,0.2545
1679.00,0.2532
1678.00,0.2529
1677.00,0.2530
1676.00,0.2522
1675.00,0.2498
1674.00,0.2467
1673.00,0.2443
1672.00,0.2431
1671.00,0.2423
1670.00,0.2411
1669.00,0.2395
1668.00,0.2382
1667.00,0.2377
1666.00,0.2385
1665.00,0.2401
1664.00,0.2418
1663.00,0.2426
1662.00,0.2425
1661.00,0.2423
1660.00,0.2429
1659.00,0.2441
1658.00,0.2455
1657.00,0.2464
1656.00,0.2467
1655.00,0.2473
1654.00,0.2490
1653.00,0.2520
1652.00,0.2545
1651.00,0.2555
1650.00,0.2569
1649.00,0.2595
1648.00,0.2614
1647.00,0.2617
1646.00,0.2613
1645.00,0.2616
1644.00,0.2623
1643.00,0.2631
1642.00,0.2639
1641.00,0.2646
1640.00,0.2651
1639.00,0.2655
1638.00,0.2663
1637.00,0.2679
1636.00,0.2702
1635.00,0.2722
1634.00,0.2734
1633.00,0.2742
1632.00,0.2758
1631.00,0.2782
1630.00,0.2813
1629.00,0.2850
1628.00,0.2891
1627.00,0.2932
1626.00,0.2976
1625.00,0.3030
1624.00,0.3095
1623.00,0.3161
1622.00,0.3222
1621.00,0.3281
1620.00,0.3344
1619.00,0.3412
1618.00,0.3487
1617.00,0.3568
1616.00,0.3649
1615.00,0.3729
1614.00,0.3824
1613.00,0.3950
1612.00,0.4106
1611.00,0.4271
1610.00,0.4418
1609.00,0.4523
1608.00,0.4568
1607.00,0.4543
1606.00,0.4457
1605.00,0.4340
1604.00,0.4215
1603.00,0.4095
1602.00,0.3988
1601.00,0.3895
1600.00,0.3806
1599.00,0.3706
1598.00,0.3584
1597.00,0.3445
1596.00,0.3298
1595.00,0.3152
1594.00,0.3017
1593.00,0.2901
1592.00,0.2802
1591.00,0.2715
1590.00,0.2640
1589.00,0.2578
1588.00,0.2527
1587.00,0.2485
1586.00,0.2450
1585.00,0.2422
1584.00,0.2399
1583.00,0.2381
1582.00,0.2367
1581.00,0.2357
1580.00,0.2347
1579.00,0.2333
1578.00,0.2317
1577.00,0.2298
1576.00,0.2270
1575.00,0.2236
1574.00,0.2206
1573.00,0.2189
1572.00,0.2181
1571.00,0.2174
1570.00,0.2159
1569.00,0.2139
1568.00,0.2119
1567.00,0.2109
1566.00,0.2109
1565.00,0.2118
1564.00,0.2125
1563.00,0.2127
1562.00,0.2129
1561.00,0.2137
1560.00,0.2150
1559.00,0.2148
1558.00,0.2147
1557.00,0.2161
1556.00,0.2168
1555.00,0.2172
1554.00,0.2183
1553.00,0.2207
1552.00,0.2233
1551.00,0.2260
1550.00,0.2301
1549.00,0.2373
1548.00,0.2468
1547.00,0.2559
1546.00,0.2627
1545.00,0.2675
1544.00,0.2720
1543.00,0.2781
1542.00,0.2865
1541.00,0.2960
1540.00,0.3048
1539.00,0.3124
1538.00,0.3191
1537.00,0.3262
1536.00,0.3352
1535.00,0.3467
1534.00,0.3618
1533.00,0.3806
1532.00,0.4020
1531.00,0.4251
1530.00,0.4500
1529.00,0.4765
1528.00,0.5037
1527.00,0.5315
1526.00,0.5614
1525.00,0.5936
1524.00,0.6254
1523.00,0.6555
1522.00,0.6853
1521.00,0.7148
1520.00,0.7406
1519.00,0.7599
1518.00,0.7726
1517.00,0.7781
1516.00,0.7756
1515.00,0.7673
1514.00,0.7558
1513.00,0.7416
1512.00,0.7239
1511.00,0.7036
1510.00,0.6828
1509.00,0.6626
1508.00,0.6423
1507.00,0.6231
1506.00,0.6109
1505.00,0.6065
1504.00,0.6044
1503.00,0.6027
1502.00,0.6023
1501.00,0.6042
1500.00,0.6082
1499.00,0.6123
1498.00,0.6149
1497.00,0.6158
1496.00,0.6166
1495.00,0.6188
1494.00,0.6240
1493.00,0.6331
1492.00,0.6454
1491.00,0.6611
1490.00,0.6827
1489.00,0.7153
1488.00,0.7613
1487.00,0.8190
1486.00,0.8860
1485.00,0.9615
1484.00,1.0456
1483.00,1.1394
1482.00,1.2464
1481.00,1.3686
1480.00,1.5015
1479.00,1.6363
1478.00,1.7661
1477.00,1.8865
1476.00,1.9908
1475.00,2.0776
1474.00,2.1624
1473.00,2.2645
1472.00,2.3846
1471.00,2.5054
1470.00,2.6208
1469.00,2.7372
1468.00,2.8458
1467.00,2.9373
1466.00,3.0333
1465.00,3.1365
1464.00,3.1619
1463.00,3.0913
1462.00,3.0312
1461.00,3.0288
1460.00,3.0576
1459.00,3.0700
1458.00,3.0500
1457.00,2.9823
1456.00,2.8691
1455.00,2.7773
1454.00,2.7460
1453.00,2.7579
1452.00,2.7623
1451.00,2.7273
1450.00,2.6667
1449.00,2.5904
1448.00,2.4945
1447.00,2.3851
1446.00,2.2746
1445.00,2.1623
1444.00,2.0432
1443.00,1.9209
1442.00,1.8028
1441.00,1.6933
1440.00,1.5928
1439.00,1.4981
1438.00,1.4036
1437.00,1.3098
1436.00,1.2279
1435.00,1.1675
1434.00,1.1246
1433.00,1.0894
1432.00,1.0571
1431.00,1.0283
1430.00,1.0056
1429.00,0.9909
1428.00,0.9856
1427.00,0.9895
1426.00,1.0010
1425.00,1.0189
1424.00,1.0430
1423.00,1.0719
1422.00,1.1020
1421.00,1.1304
1420.00,1.1557
1419.00,1.1769
1418.00,1.1939
1417.00,1.2091
1416.00,1.2247
1415.00,1.2411
1414.00,1.2584
1413.00,1.2773
1412.00,1.2991
1411.00,1.3249
1410.00,1.3549
1409.00,1.3886
1408.00,1.4244
1407.00,1.4601
1406.00,1.4957
1405.00,1.5337
1404.00,1.5749
1403.00,1.6167
1402.00,1.6567
1401.00,1.6970
1400.00,1.7422
1399.00,1.7946
1398.00,1.8543
1397.00,1.9202
1396.00,1.9891
1395.00,2.0568
1394.00,2.1250
1393.00,2.1981
1392.00,2.2715
1391.00,2.3321
1390.00,2.3810
1389.00,2.4400
1388.00,2.5261
1387.00,2.6291
1386.00,2.7293
1385.00,2.8306
1384.00,2.9439
1383.00,3.0586
1382.00,3.1788
1381.00,3.3534
1380.00,3.5880
1379.00,3.6079
1378.00,3.4198
1377.00,3.3331
1376.00,3.3713
1375.00,3.5786
1374.00,3.9373
1373.00,4.3776
1372.00,4.6061
1371.00,3.8767
1370.00,3.4867
1369.00,3.2387
1368.00,3.1028
1367.00,2.9897
1366.00,2.8468
1365.00,2.6840
1364.00,2.5155
1363.00,2.3574
1362.00,2.2298
1361.00,2.1374
1360.00,2.0688
1359.00,2.0173
1358.00,1.9888
1357.00,1.9901
1356.00,2.0187
1355.00,2.0645
1354.00,2.1196
1353.00,2.1819
1352.00,2.2459
1351.00,2.3033
1350.00,2.3563
1349.00,2.4136
1348.00,2.4699
1347.00,2.5112
1346.00,2.5445
1345.00,2.5849
1344.00,2.6122
1343.00,2.5854
1342.00,2.5119
1341.00,2.4280
1340.00,2.3409
1339.00,2.2454
1338.00,2.1529
1337.00,2.0772
1336.00,2.0160
1335.00,1.9607
1334.00,1.9090
1333.00,1.8623
1332.00,1.8194
1331.00,1.7791
1330.00,1.7444
1329.00,1.7195
1328.00,1.7050
1327.00,1.6996
1326.00,1.7029
1325.00,1.7147
1324.00,1.7320
1323.00,1.7510
1322.00,1.7721
1321.00,1.7986
1320.00,1.8293
1319.00,1.8583
1318.00,1.8821
1317.00,1.9014
1316.00,1.9159
1315.00,1.9247
1314.00,1.9326
1313.00,1.9477
1312.00,1.9716
1311.00,1.9970
1310.00,2.0184
1309.00,2.0365
1308.00,2.0531
1307.00,2.0694
1306.00,2.0908
1305.00,2.1255
1304.00,2.1753
1303.00,2.2343
1302.00,2.2965
1301.00,2.3576
1300.00,2.4075
1299.00,2.4352
1298.00,2.4468
1297.00,2.4556
1296.00,2.4548
1295.00,2.4273
1294.00,2.3753
1293.00,2.3132
1292.00,2.2433
1291.00,2.1660
1290.00,2.0933
1289.00,2.0389
1288.00,2.0047
1287.00,1.9853
1286.00,1.9764
1285.00,1.9760
1284.00,1.9790
1283.00,1.9796
1282.00,1.9790
1281.00,1.9828
1280.00,1.9916
1279.00,2.0006
1278.00,2.0091
1277.00,2.0208
1276.00,2.0370
1275.00,2.0558
1274.00,2.0787
1273.00,2.1094
1272.00,2.1437
1271.00,2.1703
1270.00,2.1865
1269.00,2.2019
1268.00,2.2242
1267.00,2.2521
1266.00,2.2830
1265.00,2.3177
1264.00,2.3525
1263.00,2.3778
1262.00,2.3987
1261.00,2.4380
1260.00,2.5042
1259.00,2.5737
1258.00,2.6156
1257.00,2.6355
1256.00,2.6565
1255.00,2.6812
1254.00,2.6940
1253.00,2.6765
1252.00,2.6273
1251.00,2.5749
1250.00,2.5569
1249.00,2.5856
1248.00,2.6361
1247.00,2.6679
1246.00,2.6795
1245.00,2.6969
1244.00,2.7092
1243.00,2.6815
1242.00,2.6303
1241.00,2.6005
1240.00,2.5952
1239.00,2.5861
1238.00,2.5651
1237.00,2.5440
1236.00,2.5205
1235.00,2.4829
1234.00,2.4344
1233.00,2.3793
1232.00,2.3161
1231.00,2.2511
1230.00,2.1927
1229.00,2.1434
1228.00,2.0997
1227.00,2.0592
1226.00,2.0246
1225.00,1.9963
1224.00,1.9689
1223.00,1.9382
1222.00,1.9081
1221.00,1.8823
1220.00,1.8582
1219.00,1.8336
1218.00,1.8125
1217.00,1.7996
1216.00,1.7931
1215.00,1.7881
1214.00,1.7851
1213.00,1.7886
1212.00,1.7993
1211.00,1.8123
1210.00,1.8239
1209.00,1.8351
1208.00,1.8472
1207.00,1.8599
1206.00,1.8745
1205.00,1.8936
1204.00,1.9169
1203.00,1.9417
1202.00,1.9683
1201.00,2.0001
1200.00,2.0388
1199.00,2.0846
1198.00,2.1408
1197.00,2.2087
1196.00,2.2790
1195.00,2.3397
1194.00,2.3966
1193.00,2.4667
1192.00,2.5622
1191.00,2.6876
1190.00,2.8547
1189.00,3.0595
1188.00,3.1719
1187.00,3.1242
1186.00,3.0274
1185.00,2.9951
1184.00,3.0456
1183.00,3.1022
1182.00,3.1523
1181.00,3.2384
1180.00,3.3284
1179.00,3.3666
1178.00,3.5110
1177.00,3.9096
1176.00,3.3324
1175.00,3.2427
1174.00,3.3065
1173.00,3.3713
1172.00,3.3493
1171.00,3.2785
1170.00,3.2149
1169.00,3.2856
1168.00,3.5525
1167.00,4.4609
1166.00,3.5997
1165.00,3.5228
1164.00,3.6259
1163.00,3.4607
1162.00,3.3097
1161.00,3.3343
1160.00,3.3982
1159.00,3.3521
1158.00,3.3742
1157.00,3.5780
1156.00,3.7162
1155.00,3.6602
1154.00,3.9223
1153.00,3.5194
1152.00,3.3412
1151.00,3.2586
1150.00,3.2297
1149.00,3.2298
1148.00,3.3055
1147.00,3.4114
1146.00,3.4082
1145.00,3.2986
1144.00,3.1552
1143.00,3.0700
1142.00,3.0620
1141.00,3.0978
1140.00,3.1109
1139.00,3.0546
1138.00,2.9914
1137.00,3.0454
1136.00,3.3908
1135.00,3.8345
1134.00,3.0942
1133.00,2.9751
1132.00,2.9472
1131.00,3.0138
1130.00,3.2190
1129.00,3.6832
1128.00,3.8033
1127.00,3.6861
1126.00,4.0059
1125.00,3.6387
1124.00,3.5136
1123.00,3.7089
1122.00,4.2249
1121.00,4.1315
1120.00,3.5710
1119.00,3.3967
1118.00,3.4038
1117.00,3.4821
1116.00,3.7092
1115.00,4.1176
1114.00,3.7583
1113.00,3.5518
1112.00,3.4631
1111.00,3.5120
1110.00,3.5673
1109.00,3.4271
1108.00,3.3193
1107.00,3.3151
1106.00,3.4631
1105.00,3.7642
1104.00,3.6653
1103.00,3.4106
1102.00,3.2843
1101.00,3.2964
1100.00,3.3601
1099.00,3.3316
1098.00,3.2422
1097.00,3.1768
1096.00,3.1162
1095.00,3.0353
1094.00,2.9864
1093.00,3.0689
1092.00,3.4148
1091.00,4.1763
1090.00,3.3595
1089.00,3.1781
1088.00,3.0596
1087.00,3.1422
1086.00,3.5086
1085.00,5.0153
1084.00,3.3833
1083.00,3.5474
1082.00,3.6809
1081.00,4.0416
1080.00,3.2649
1079.00,3.1956
1078.00,3.2596
1077.00,3.3968
1076.00,3.9750
1075.00,3.4694
1074.00,3.1764
1073.00,3.0642
1072.00,3.0065
1071.00,2.9932
1070.00,3.0302
1069.00,3.0979
1068.00,3.2043
1067.00,3.4235
1066.00,3.8307
1065.00,3.5060
1064.00,3.2418
1063.00,3.1947
1062.00,3.3148
1061.00,3.3578
1060.00,3.1634
1059.00,3.0464
1058.00,3.0416
1057.00,3.0879
1056.00,3.0664
1055.00,3.0296
1054.00,2.9911
1053.00,2.9254
1052.00,2.8402
1051.00,2.7542
1050.00,2.6895
1049.00,2.6289
1048.00,2.5273
1047.00,2.3860
1046.00,2.2525
1045.00,2.1497
1044.00,2.0665
1043.00,1.9875
1042.00,1.9118
1041.00,1.8466
1040.00,1.7946
1039.00,1.7536
1038.00,1.7222
1037.00,1.6993
1036.00,1.6825
1035.00,1.6701
1034.00,1.6641
1033.00,1.6682
1032.00,1.6830
1031.00,1.7068
1030.00,1.7380
1029.00,1.7750
1028.00,1.8130
1027.00,1.8475
1026.00,1.8812
1025.00,1.9207
1024.00,1.9677
1023.00,2.0190
1022.00,2.0780
1021.00,2.1550
1020.00,2.2521
1019.00,2.3502
1018.00,2.4197
1017.00,2.4499
1016.00,2.4468
1015.00,2.4210
1014.00,2.3898
1013.00,2.3640
1012.00,2.3328
1011.00,2.2757
1010.00,2.1928
1009.00,2.0987
1008.00,1.9972
1007.00,1.8882
1006.00,1.7767
1005.00,1.6696
1004.00,1.5713
1003.00,1.4825
1002.00,1.4036
1001.00,1.3335
1000.00,1.2701
999.00,1.2130
998.00,1.1629
997.00,1.1202
996.00,1.0836
995.00,1.0507
994.00,1.0193
993.00,0.9884
992.00,0.9576
991.00,0.9276
990.00,0.8992
989.00,0.8733
988.00,0.8497
987.00,0.8281
986.00,0.8082
985.00,0.7901
984.00,0.7736
983.00,0.7582
982.00,0.7437
981.00,0.7299
980.00,0.7165
979.00,0.7035
978.00,0.6912
977.00,0.6802
976.00,0.6715
975.00,0.6657
974.00,0.6629
973.00,0.6622
972.00,0.6630
971.00,0.6645
970.00,0.6668
969.00,0.6701
968.00,0.6746
967.00,0.6802
966.00,0.6869
965.00,0.6951
964.00,0.7053
963.00,0.7179
962.00,0.7325
961.00,0.7483
960.00,0.7643
959.00,0.7793
958.00,0.7927
957.00,0.8043
956.00,0.8150
955.00,0.8266
954.00,0.8415
953.00,0.8620
952.00,0.8895
951.00,0.9247
950.00,0.9681
949.00,1.0197
948.00,1.0803
947.00,1.1499
946.00,1.2268
945.00,1.3070
944.00,1.3853
943.00,1.4582
942.00,1.5254
941.00,1.5876
940.00,1.6432
939.00,1.6907
938.00,1.7305
937.00,1.7634
936.00,1.7892
935.00,1.8082
934.00,1.8246
933.00,1.8408
932.00,1.8519
931.00,1.8534
930.00,1.8488
929.00,1.8456
928.00,1.8456
927.00,1.8443
926.00,1.8387
925.00,1.8291
924.00,1.8146
923.00,1.7910
922.00,1.7552
921.00,1.7090
920.00,1.6572
919.00,1.6062
918.00,1.5617
917.00,1.5257
916.00,1.4959
915.00,1.4696
914.00,1.4474
913.00,1.4313
912.00,1.4218
911.00,1.4171
910.00,1.4137
909.00,1.4068
908.00,1.3909
907.00,1.3622
906.00,1.3205
905.00,1.2690
904.00,1.2104
903.00,1.1473
902.00,1.0817
901.00,1.0157
900.00,0.9507
899.00,0.8880
898.00,0.8296
897.00,0.7766
896.00,0.7297
895.00,0.6885
894.00,0.6525
893.00,0.6209
892.00,0.5937
891.00,0.5709
890.00,0.5524
889.00,0.5381
888.00,0.5275
887.00,0.5203
886.00,0.5164
885.00,0.5159
884.00,0.5191
883.00,0.5266
882.00,0.5391
881.00,0.5574
880.00,0.5820
879.00,0.6127
878.00,0.6486
877.00,0.6885
876.00,0.7316
875.00,0.7761
874.00,0.8197
873.00,0.8597
872.00,0.8943
871.00,0.9235
870.00,0.9475
869.00,0.9654
868.00,0.9760
867.00,0.9791
866.00,0.9758
865.00,0.9678
864.00,0.9565
863.00,0.9435
862.00,0.9300
861.00,0.9161
860.00,0.9016
859.00,0.8868
858.00,0.8722
857.00,0.8583
856.00,0.8459
855.00,0.8356
854.00,0.8277
853.00,0.8217
852.00,0.8168
851.00,0.8124
850.00,0.8088
849.00,0.8067
848.00,0.8067
847.00,0.8090
846.00,0.8133
845.00,0.8194
844.00,0.8275
843.00,0.8379
842.00,0.8508
841.00,0.8655
840.00,0.8804
839.00,0.8936
838.00,0.9037
837.00,0.9100
836.00,0.9118
835.00,0.9090
834.00,0.9017
833.00,0.8913
832.00,0.8796
831.00,0.8688
830.00,0.8601
829.00,0.8540
828.00,0.8500
827.00,0.8474
826.00,0.8443
825.00,0.8378
824.00,0.8244
823.00,0.8031
822.00,0.7749
821.00,0.7424
820.00,0.7082
819.00,0.6747
818.00,0.6433
817.00,0.6142
816.00,0.5870
815.00,0.5615
814.00,0.5377
813.00,0.5151
812.00,0.4938
811.00,0.4737
810.00,0.4550
809.00,0.4375
808.00,0.4209
807.00,0.4048
806.00,0.3887
805.00,0.3724
804.00,0.3561
803.00,0.3402
802.00,0.3255
801.00,0.3119
800.00,0.2994
799.00,0.2876
798.00,0.2766
797.00,0.2663
796.00,0.2570
795.00,0.2487
794.00,0.2412
793.00,0.2340
792.00,0.2270
791.00,0.2203
790.00,0.2141
789.00,0.2082
788.00,0.2025
787.00,0.1972
786.00,0.1925
785.00,0.1883
784.00,0.1846
783.00,0.1816
782.00,0.1793
781.00,0.1779
780.00,0.1771
779.00,0.1768
778.00,0.1768
777.00,0.1771
776.00,0.1775
775.00,0.1780
774.00,0.1787
773.00,0.1793
772.00,0.1799
771.00,0.1804
770.00,0.1809
769.00,0.1816
768.00,0.1826
767.00,0.1841
766.00,0.1864
765.00,0.1891
764.00,0.1921
763.00,0.1954
762.00,0.1994
761.00,0.2045
760.00,0.2104
759.00,0.2166
758.00,0.2226
757.00,0.2283
756.00,0.2333
755.00,0.2376
754.00,0.2409
753.00,0.2431
752.00,0.2444
751.00,0.2451
750.00,0.2456
749.00,0.2457
748.00,0.2457
747.00,0.2453
746.00,0.2448
745.00,0.2444
744.00,0.2447
743.00,0.2466
742.00,0.2503
741.00,0.2557
740.00,0.2621
739.00,0.2687
738.00,0.2749
737.00,0.2801
736.00,0.2844
735.00,0.2877
734.00,0.2899
733.00,0.2909
732.00,0.2908
731.00,0.2902
730.00,0.2893
729.00,0.2878
728.00,0.2854
727.00,0.2823
726.00,0.2778
725.00,0.2715
724.00,0.2627
723.00,0.2519
722.00,0.2399
721.00,0.2277
720.00,0.2162
719.00,0.2064
718.00,0.1986
717.00,0.1923
716.00,0.1873
715.00,0.1832
714.00,0.1802
713.00,0.1779
712.00,0.1763
711.00,0.1751
710.00,0.1744
709.00,0.1742
708.00,0.1741
707.00,0.1741
706.00,0.1741
705.00,0.1742
704.00,0.1747
703.00,0.1755
702.00,0.1762
701.00,0.1762
700.00,0.1756
699.00,0.1747
698.00,0.1739
697.00,0.1733
696.00,0.1726
695.00,0.1719
694.00,0.1713
693.00,0.1707
692.00,0.1702
691.00,0.1695
690.00,0.1686
689.00,0.1676
688.00,0.1669
687.00,0.1667
686.00,0.1673
685.00,0.1683
684.00,0.1694
683.00,0.1706
682.00,0.1720
681.00,0.1740
680.00,0.1767
679.00,0.1800
678.00,0.1837
677.00,0.1879
676.00,0.1927
675.00,0.1983
674.00,0.2048
673.00,0.2117
672.00,0.2185
671.00,0.2249
670.00,0.2310
669.00,0.2379
668.00,0.2458
667.00,0.2519
666.00,0.2547
665.00,0.2561
664.00,0.2572
663.00,0.2580
662.00,0.2586
661.00,0.2590
660.00,0.2590
659.00,0.2583
658.00,0.2569
657.00,0.2550
656.00,0.2528
655.00,0.2505
654.00,0.2483
653.00,0.2465
652.00,0.2449
651.00,0.2437
650.00,0.2434
649.00,0.2442
648.00,0.2459
647.00,0.2477
646.00,0.2493
645.00,0.2506
644.00,0.2522
643.00,0.2541
642.00,0.2560
641.00,0.2574
640.00,0.2576
639.00,0.2566
638.00,0.2545
637.00,0.2518
636.00,0.2494
635.00,0.2474
634.00,0.2459
633.00,0.2446
632.00,0.2433
631.00,0.2422
630.00,0.2418
629.00,0.2424
628.00,0.2443
627.00,0.2474
626.00,0.2512
625.00,0.2554
624.00,0.2598
623.00,0.2641
622.00,0.2683
621.00,0.2725
620.00,0.2764
619.00,0.2796
618.00,0.2816
617.00,0.2827
616.00,0.2839
615.00,0.2856
614.00,0.2874
613.00,0.2887
612.00,0.2895
611.00,0.2902
610.00,0.2911
609.00,0.2921
608.00,0.2932
607.00,0.2948
606.00,0.2971
605.00,0.2999
604.00,0.3027
603.00,0.3054
602.00,0.3082
601.00,0.3119
600.00,0.3171
599.00,0.3240
598.00,0.3320
597.00,0.3406
596.00,0.3493
595.00,0.3578
594.00,0.3658
593.00,0.3735
592.00,0.3817
591.00,0.3906
590.00,0.4004
589.00,0.4110
588.00,0.4222
587.00,0.4330
586.00,0.4423
585.00,0.4500
584.00,0.4562
583.00,0.4614
582.00,0.4652
581.00,0.4679
580.00,0.4701
579.00,0.4716
578.00,0.4718
577.00,0.4711
576.00,0.4703
575.00,0.4707
574.00,0.4723
573.00,0.4742
572.00,0.4751
571.00,0.4745
570.00,0.4729
569.00,0.4711
568.00,0.4701
567.00,0.4698
566.00,0.4705
565.00,0.4727
564.00,0.4763
563.00,0.4799
562.00,0.4812
561.00,0.4799
560.00,0.4775
559.00,0.4762
558.00,0.4773
557.00,0.4810
556.00,0.4860
555.00,0.4902
554.00,0.4922
553.00,0.4928
552.00,0.4945
551.00,0.4989
550.00,0.5051
