Created as New Dataset,
cm-1,A
4000.00,0.8928
3999.00,0.8928
3998.00,0.8929
3997.00,0.8930
3996.00,0.8930
3995.00,0.8929
3994.00,0.8928
3993.00,0.8926
3992.00,0.8924
3991.00,0.8921
3990.00,0.8919
3989.00,0.8917
3988.00,0.8916
3987.00,0.8916
3986.00,0.8917
3985.00,0.8918
3984.00,0.8918
3983.00,0.8917
3982.00,0.8916
3981.00,0.8916
3980.00,0.8917
3979.00,0.8917
3978.00,0.8916
3977.00,0.8913
3976.00,0.8910
3975.00,0.8907
3974.00,0.8905
3973.00,0.8904
3972.00,0.8902
3971.00,0.8900
3970.00,0.8898
3969.00,0.8897
3968.00,0.8897
3967.00,0.8897
3966.00,0.8897
3965.00,0.8897
3964.00,0.8896
3963.00,0.8896
3962.00,0.8895
3961.00,0.8894
3960.00,0.8894
3959.00,0.8895
3958.00,0.8896
3957.00,0.8896
3956.00,0.8895
3955.00,0.8894
3954.00,0.8894
3953.00,0.8894
3952.00,0.8894
3951.00,0.8893
3950.00,0.8892
3949.00,0.8890
3948.00,0.8888
3947.00,0.8888
3946.00,0.8891
3945.00,0.8893
3944.00,0.8895
3943.00,0.8893
3942.00,0.8890
3941.00,0.8887
3940.00,0.8887
3939.00,0.8888
3938.00,0.8888
3937.00,0.8886
3936.00,0.8883
3935.00,0.8881
3934.00,0.8880
3933.00,0.8881
3932.00,0.8883
3931.00,0.8884
3930.00,0.8885
3929.00,0.8886
3928.00,0.8888
3927.00,0.8889
3926.00,0.8888
3925.00,0.8885
3924.00,0.8883
3923.00,0.8882
3922.00,0.8883
3921.00,0.8885
3920.00,0.8887
3919.00,0.8887
3918.00,0.8886
3917.00,0.8885
3916.00,0.8883
3915.00,0.8882
3914.00,0.8882
3913.00,0.8882
3912.00,0.8882
3911.00,0.8883
3910.00,0.8882
3909.00,0.8882
3908.00,0.8881
3907.00,0.8880
3906.00,0.8878
3905.00,0.8877
3904.00,0.8875
3903.00,0.8875
3902.00,0.8877
3901.00,0.8883
3900.00,0.8887
3899.00,0.8889
3898.00,0.8887
3897.00,0.8885
3896.00,0.8883
3895.00,0.8882
3894.00,0.8881
3893.00,0.8880
3892.00,0.8878
3891.00,0.8877
3890.00,0.8876
3889.00,0.8877
3888.00,0.8879
3887.00,0.8882
3886.00,0.8884
3885.00,0.8882
3884.00,0.8879
3883.00,0.8879
3882.00,0.8880
3881.00,0.8879
3880.00,0.8874
3879.00,0.8869
3878.00,0.8866
3877.00,0.8869
3876.00,0.8874
3875.00,0.8877
3874.00,0.8874
3873.00,0.8869
3872.00,0.8866
3871.00,0.8869
3870.00,0.8873
3869.00,0.8874
3868.00,0.8873
3867.00,0.8875
3866.00,0.8879
3865.00,0.8882
3864.00,0.8880
3863.00,0.8876
3862.00,0.8874
3861.00,0.8873
3860.00,0.8872
3859.00,0.8870
3858.00,0.8867
3857.00,0.8863
3856.00,0.8862
3855.00,0.8867
3854.00,0.8875
3853.00,0.8876
3852.00,0.8874
3851.00,0.8877
3850.00,0.8882
3849.00,0.8884
3848.00,0.8882
3847.00,0.8875
3846.00,0.8869
3845.00,0.8864
3844.00,0.8860
3843.00,0.8858
3842.00,0.8858
3841.00,0.8859
3840.00,0.8860
3839.00,0.8861
3838.00,0.8862
3837.00,0.8864
3836.00,0.8867
3835.00,0.8870
3834.00,0.8872
3833.00,0.8870
3832.00,0.8866
3831.00,0.8861
3830.00,0.8856
3829.00,0.8856
3828.00,0.8857
3827.00,0.8858
3826.00,0.8856
3825.00,0.8853
3824.00,0.8851
3823.00,0.8854
3822.00,0.8858
3821.00,0.8859
3820.00,0.8855
3819.00,0.8852
3818.00,0.8854
3817.00,0.8858
3816.00,0.8858
3815.00,0.8854
3814.00,0.8849
3813.00,0.8847
3812.00,0.8848
3811.00,0.8846
3810.00,0.8843
3809.00,0.8840
3808.00,0.8840
3807.00,0.8841
3806.00,0.8842
3805.00,0.8842
3804.00,0.8845
3803.00,0.8849
3802.00,0.8851
3801.00,0.8848
3800.00,0.8842
3799.00,0.8839
3798.00,0.8842
3797.00,0.8845
3796.00,0.8845
3795.00,0.8841
3794.00,0.8836
3793.00,0.8833
3792.00,0.8830
3791.00,0.8828
3790.00,0.8825
3789.00,0.8823
3788.00,0.8823
3787.00,0.8823
3786.00,0.8824
3785.00,0.8823
3784.00,0.8821
3783.00,0.8818
3782.00,0.8818
3781.00,0.8819
3780.00,0.8820
3779.00,0.8818
3778.00,0.8815
3777.00,0.8815
3776.00,0.8817
3775.00,0.8820
3774.00,0.8821
3773.00,0.8822
3772.00,0.8822
3771.00,0.8823
3770.00,0.8823
3769.00,0.8822
3768.00,0.8822
3767.00,0.8824
3766.00,0.8826
3765.00,0.8825
3764.00,0.8822
3763.00,0.8819
3762.00,0.8819
3761.00,0.8821
3760.00,0.8824
3759.00,0.8823
3758.00,0.8822
3757.00,0.8821
3756.00,0.8820
3755.00,0.8820
3754.00,0.8821
3753.00,0.8824
3752.00,0.8828
3751.00,0.8830
3750.00,0.8831
3749.00,0.8833
3748.00,0.8837
3747.00,0.8840
3746.00,0.8844
3745.00,0.8846
3744.00,0.8841
3743.00,0.8830
3742.00,0.8823
3741.00,0.8822
3740.00,0.8822
3739.00,0.8819
3738.00,0.8816
3737.00,0.8816
3736.00,0.8818
3735.00,0.8819
3734.00,0.8819
3733.00,0.8819
3732.00,0.8818
3731.00,0.8816
3730.00,0.8814
3729.00,0.8812
3728.00,0.8811
3727.00,0.8811
3726.00,0.8811
3725.00,0.8810
3724.00,0.8809
3723.00,0.8808
3722.00,0.8807
3721.00,0.8804
3720.00,0.8802
3719.00,0.8801
3718.00,0.8799
3717.00,0.8797
3716.00,0.8795
3715.00,0.8795
3714.00,0.8798
3713.00,0.8803
3712.00,0.8806
3711.00,0.8807
3710.00,0.8805
3709.00,0.8805
3708.00,0.8805
3707.00,0.8804
3706.00,0.8802
3705.00,0.8799
3704.00,0.8798
3703.00,0.8799
3702.00,0.8799
3701.00,0.8799
3700.00,0.8798
3699.00,0.8799
3698.00,0.8801
3697.00,0.8802
3696.00,0.8802
3695.00,0.8803
3694.00,0.8806
3693.00,0.8811
3692.00,0.8815
3691.00,0.8818
3690.00,0.8821
3689.00,0.8825
3688.00,0.8829
3687.00,0.8832
3686.00,0.8833
3685.00,0.8833
3684.00,0.8832
3683.00,0.8831
3682.00,0.8830
3681.00,0.8830
3680.00,0.8830
3679.00,0.8829
3678.00,0.8830
3677.00,0.8835
3676.00,0.8844
3675.00,0.8849
3674.00,0.8851
3673.00,0.8856
3672.00,0.8864
3671.00,0.8872
3670.00,0.8875
3669.00,0.8870
3668.00,0.8865
3667.00,0.8865
3666.00,0.8867
3665.00,0.8868
3664.00,0.8868
3663.00,0.8867
3662.00,0.8865
3661.00,0.8864
3660.00,0.8862
3659.00,0.8863
3658.00,0.8867
3657.00,0.8873
3656.00,0.8878
3655.00,0.8881
3654.00,0.8882
3653.00,0.8886
3652.00,0.8892
3651.00,0.8903
3650.00,0.8916
3649.00,0.8931
3648.00,0.8946
3647.00,0.8960
3646.00,0.8969
3645.00,0.8971
3644.00,0.8965
3643.00,0.8956
3642.00,0.8945
3641.00,0.8935
3640.00,0.8928
3639.00,0.8924
3638.00,0.8921
3637.00,0.8920
3636.00,0.8920
3635.00,0.8922
3634.00,0.8926
3633.00,0.8929
3632.00,0.8931
3631.00,0.8936
3630.00,0.8945
3629.00,0.8955
3628.00,0.8961
3627.00,0.8967
3626.00,0.8974
3625.00,0.8983
3624.00,0.8988
3623.00,0.8989
3622.00,0.8989
3621.00,0.8991
3620.00,0.8995
3619.00,0.9000
3618.00,0.9004
3617.00,0.9010
3616.00,0.9018
3615.00,0.9026
3614.00,0.9032
3613.00,0.9034
3612.00,0.9034
3611.00,0.9035
3610.00,0.9039
3609.00,0.9043
3608.00,0.9047
3607.00,0.9049
3606.00,0.9051
3605.00,0.9052
3604.00,0.9053
3603.00,0.9054
3602.00,0.9056
3601.00,0.9057
3600.00,0.9057
3599.00,0.9057
3598.00,0.9056
3597.00,0.9054
3596.00,0.9054
3595.00,0.9054
3594.00,0.9053
3593.00,0.9053
3592.00,0.9053
3591.00,0.9054
3590.00,0.9056
3589.00,0.9061
3588.00,0.9065
3587.00,0.9067
3586.00,0.9066
3585.00,0.9065
3584.00,0.9065
3583.00,0.9063
3582.00,0.9060
3581.00,0.9057
3580.00,0.9056
3579.00,0.9057
3578.00,0.9058
3577.00,0.9058
3576.00,0.9058
3575.00,0.9057
3574.00,0.9056
3573.00,0.9055
3572.00,0.9055
3571.00,0.9057
3570.00,0.9059
3569.00,0.9061
3568.00,0.9065
3567.00,0.9068
3566.00,0.9072
3565.00,0.9075
3564.00,0.9078
3563.00,0.9081
3562.00,0.9082
3561.00,0.9081
3560.00,0.9080
3559.00,0.9079
3558.00,0.9077
3557.00,0.9076
3556.00,0.9075
3555.00,0.9075
3554.00,0.9075
3553.00,0.9074
3552.00,0.9074
3551.00,0.9075
3550.00,0.9077
3549.00,0.9080
3548.00,0.9083
3547.00,0.9085
3546.00,0.9086
3545.00,0.9088
3544.00,0.9090
3543.00,0.9093
3542.00,0.9096
3541.00,0.9098
3540.00,0.9098
3539.00,0.9098
3538.00,0.9097
3537.00,0.9097
3536.00,0.9099
3535.00,0.9102
3534.00,0.9104
3533.00,0.9105
3532.00,0.9106
3531.00,0.9106
3530.00,0.9107
3529.00,0.9108
3528.00,0.9110
3527.00,0.9114
3526.00,0.9118
3525.00,0.9123
3524.00,0.9127
3523.00,0.9129
3522.00,0.9128
3521.00,0.9126
3520.00,0.9125
3519.00,0.9126
3518.00,0.9128
3517.00,0.9130
3516.00,0.9131
3515.00,0.9130
3514.00,0.9130
3513.00,0.9131
3512.00,0.9133
3511.00,0.9135
3510.00,0.9136
3509.00,0.9138
3508.00,0.9140
3507.00,0.9142
3506.00,0.9145
3505.00,0.9147
3504.00,0.9148
3503.00,0.9149
3502.00,0.9150
3501.00,0.9154
3500.00,0.9158
3499.00,0.9162
3498.00,0.9165
3497.00,0.9166
3496.00,0.9167
3495.00,0.9166
3494.00,0.9165
3493.00,0.9165
3492.00,0.9165
3491.00,0.9167
3490.00,0.9168
3489.00,0.9170
3488.00,0.9172
3487.00,0.9174
3486.00,0.9176
3485.00,0.9178
3484.00,0.9180
3483.00,0.9182
3482.00,0.9186
3481.00,0.9190
3480.00,0.9192
3479.00,0.9194
3478.00,0.9195
3477.00,0.9196
3476.00,0.9196
3475.00,0.9197
3474.00,0.9197
3473.00,0.9198
3472.00,0.9200
3471.00,0.9200
3470.00,0.9201
3469.00,0.9200
3468.00,0.9200
3467.00,0.9200
3466.00,0.9201
3465.00,0.9204
3464.00,0.9207
3463.00,0.9210
3462.00,0.9212
3461.00,0.9213
3460.00,0.9212
3459.00,0.9212
3458.00,0.9213
3457.00,0.9214
3456.00,0.9215
3455.00,0.9217
3454.00,0.9219
3453.00,0.9221
3452.00,0.9222
3451.00,0.9222
3450.00,0.9222
3449.00,0.9225
3448.00,0.9228
3447.00,0.9231
3446.00,0.9232
3445.00,0.9232
3444.00,0.9234
3443.00,0.9238
3442.00,0.9244
3441.00,0.9248
3440.00,0.9250
3439.00,0.9252
3438.00,0.9254
3437.00,0.9256
3436.00,0.9257
3435.00,0.9257
3434.00,0.9258
3433.00,0.9258
3432.00,0.9258
3431.00,0.9259
3430.00,0.9259
3429.00,0.9261
3428.00,0.9262
3427.00,0.9264
3426.00,0.9266
3425.00,0.9268
3424.00,0.9270
3423.00,0.9271
3422.00,0.9271
3421.00,0.9270
3420.00,0.9270
3419.00,0.9271
3418.00,0.9273
3417.00,0.9274
3416.00,0.9275
3415.00,0.9276
3414.00,0.9278
3413.00,0.9280
3412.00,0.9282
3411.00,0.9284
3410.00,0.9285
3409.00,0.9286
3408.00,0.9287
3407.00,0.9286
3406.00,0.9286
3405.00,0.9286
3404.00,0.9288
3403.00,0.9290
3402.00,0.9293
3401.00,0.9295
3400.00,0.9298
3399.00,0.9300
3398.00,0.9302
3397.00,0.9303
3396.00,0.9303
3395.00,0.9304
3394.00,0.9305
3393.00,0.9304
3392.00,0.9303
3391.00,0.9301
3390.00,0.9299
3389.00,0.9299
3388.00,0.9301
3387.00,0.9304
3386.00,0.9306
3385.00,0.9308
3384.00,0.9308
3383.00,0.9308
3382.00,0.9308
3381.00,0.9310
3380.00,0.9313
3379.00,0.9317
3378.00,0.9321
3377.00,0.9325
3376.00,0.9328
3375.00,0.9329
3374.00,0.9331
3373.00,0.9334
3372.00,0.9339
3371.00,0.9344
3370.00,0.9348
3369.00,0.9352
3368.00,0.9355
3367.00,0.9359
3366.00,0.9363
3365.00,0.9369
3364.00,0.9373
3363.00,0.9376
3362.00,0.9379
3361.00,0.9383
3360.00,0.9389
3359.00,0.9396
3358.00,0.9403
3357.00,0.9406
3356.00,0.9406
3355.00,0.9403
3354.00,0.9401
3353.00,0.9399
3352.00,0.9398
3351.00,0.9398
3350.00,0.9398
3349.00,0.9398
3348.00,0.9396
3347.00,0.9393
3346.00,0.9389
3345.00,0.9385
3344.00,0.9382
3343.00,0.9379
3342.00,0.9377
3341.00,0.9374
3340.00,0.9370
3339.00,0.9366
3338.00,0.9361
3337.00,0.9357
3336.00,0.9351
3335.00,0.9345
3334.00,0.9339
3333.00,0.9334
3332.00,0.9331
3331.00,0.9328
3330.00,0.9325
3329.00,0.9321
3328.00,0.9317
3327.00,0.9312
3326.00,0.9307
3325.00,0.9304
3324.00,0.9300
3323.00,0.9297
3322.00,0.9294
3321.00,0.9291
3320.00,0.9289
3319.00,0.9287
3318.00,0.9284
3317.00,0.9282
3316.00,0.9278
3315.00,0.9275
3314.00,0.9272
3313.00,0.9268
3312.00,0.9265
3311.00,0.9263
3310.00,0.9261
3309.00,0.9258
3308.00,0.9255
3307.00,0.9251
3306.00,0.9246
3305.00,0.9242
3304.00,0.9239
3303.00,0.9236
3302.00,0.9233
3301.00,0.9230
3300.00,0.9229
3299.00,0.9228
3298.00,0.9228
3297.00,0.9227
3296.00,0.9226
3295.00,0.9225
3294.00,0.9224
3293.00,0.9223
3292.00,0.9221
3291.00,0.9218
3290.00,0.9215
3289.00,0.9212
3288.00,0.9209
3287.00,0.9206
3286.00,0.9203
3285.00,0.9200
3284.00,0.9197
3283.00,0.9195
3282.00,0.9193
3281.00,0.9191
3280.00,0.9189
3279.00,0.9187
3278.00,0.9186
3277.00,0.9186
3276.00,0.9186
3275.00,0.9184
3274.00,0.9180
3273.00,0.9177
3272.00,0.9174
3271.00,0.9173
3270.00,0.9172
3269.00,0.9171
3268.00,0.9171
3267.00,0.9170
3266.00,0.9168
3265.00,0.9166
3264.00,0.9163
3263.00,0.9159
3262.00,0.9156
3261.00,0.9152
3260.00,0.9149
3259.00,0.9148
3258.00,0.9147
3257.00,0.9149
3256.00,0.9151
3255.00,0.9153
3254.00,0.9153
3253.00,0.9151
3252.00,0.9148
3251.00,0.9143
3250.00,0.9139
3249.00,0.9136
3248.00,0.9134
3247.00,0.9133
3246.00,0.9131
3245.00,0.9128
3244.00,0.9126
3243.00,0.9124
3242.00,0.9122
3241.00,0.9119
3240.00,0.9118
3239.00,0.9118
3238.00,0.9118
3237.00,0.9118
3236.00,0.9116
3235.00,0.9113
3234.00,0.9111
3233.00,0.9109
3232.00,0.9109
3231.00,0.9108
3230.00,0.9108
3229.00,0.9107
3228.00,0.9104
3227.00,0.9101
3226.00,0.9097
3225.00,0.9094
3224.00,0.9093
3223.00,0.9093
3222.00,0.9093
3221.00,0.9093
3220.00,0.9092
3219.00,0.9091
3218.00,0.9090
3217.00,0.9088
3216.00,0.9087
3215.00,0.9085
3214.00,0.9085
3213.00,0.9084
3212.00,0.9084
3211.00,0.9083
3210.00,0.9081
3209.00,0.9079
3208.00,0.9077
3207.00,0.9077
3206.00,0.9077
3205.00,0.9076
3204.00,0.9076
3203.00,0.9076
3202.00,0.9075
3201.00,0.9075
3200.00,0.9073
3199.00,0.9071
3198.00,0.9067
3197.00,0.9064
3196.00,0.9063
3195.00,0.9062
3194.00,0.9061
3193.00,0.9059
3192.00,0.9056
3191.00,0.9053
3190.00,0.9051
3189.00,0.9050
3188.00,0.9050
3187.00,0.9050
3186.00,0.9049
3185.00,0.9047
3184.00,0.9045
3183.00,0.9043
3182.00,0.9042
3181.00,0.9041
3180.00,0.9038
3179.00,0.9035
3178.00,0.9032
3177.00,0.9030
3176.00,0.9028
3175.00,0.9025
3174.00,0.9022
3173.00,0.9019
3172.00,0.9016
3171.00,0.9014
3170.00,0.9013
3169.00,0.9012
3168.00,0.9011
3167.00,0.9009
3166.00,0.9006
3165.00,0.9005
3164.00,0.9003
3163.00,0.8999
3162.00,0.8996
3161.00,0.8993
3160.00,0.8991
3159.00,0.8991
3158.00,0.8991
3157.00,0.8990
3156.00,0.8989
3155.00,0.8988
3154.00,0.8987
3153.00,0.8985
3152.00,0.8983
3151.00,0.8981
3150.00,0.8978
3149.00,0.8975
3148.00,0.8972
3147.00,0.8970
3146.00,0.8968
3145.00,0.8966
3144.00,0.8963
3143.00,0.8962
3142.00,0.8961
3141.00,0.8959
3140.00,0.8958
3139.00,0.8956
3138.00,0.8953
3137.00,0.8950
3136.00,0.8947
3135.00,0.8945
3134.00,0.8945
3133.00,0.8946
3132.00,0.8948
3131.00,0.8947
3130.00,0.8945
3129.00,0.8943
3128.00,0.8940
3127.00,0.8938
3126.00,0.8937
3125.00,0.8937
3124.00,0.8935
3123.00,0.8933
3122.00,0.8931
3121.00,0.8930
3120.00,0.8929
3119.00,0.8929
3118.00,0.8928
3117.00,0.8927
3116.00,0.8926
3115.00,0.8926
3114.00,0.8926
3113.00,0.8926
3112.00,0.8926
3111.00,0.8927
3110.00,0.8928
3109.00,0.8928
3108.00,0.8927
3107.00,0.8926
3106.00,0.8925
3105.00,0.8925
3104.00,0.8925
3103.00,0.8926
3102.00,0.8927
3101.00,0.8927
3100.00,0.8926
3099.00,0.8926
3098.00,0.8927
3097.00,0.8928
3096.00,0.8929
3095.00,0.8930
3094.00,0.8931
3093.00,0.8931
3092.00,0.8933
3091.00,0.8934
3090.00,0.8935
3089.00,0.8936
3088.00,0.8938
3087.00,0.8940
3086.00,0.8941
3085.00,0.8942
3084.00,0.8944
3083.00,0.8947
3082.00,0.8950
3081.00,0.8953
3080.00,0.8954
3079.00,0.8956
3078.00,0.8958
3077.00,0.8963
3076.00,0.8968
3075.00,0.8974
3074.00,0.8979
3073.00,0.8983
3072.00,0.8988
3071.00,0.8992
3070.00,0.8996
3069.00,0.8999
3068.00,0.9003
3067.00,0.9008
3066.00,0.9012
3065.00,0.9018
3064.00,0.9023
3063.00,0.9028
3062.00,0.9033
3061.00,0.9037
3060.00,0.9041
3059.00,0.9044
3058.00,0.9046
3057.00,0.9048
3056.00,0.9050
3055.00,0.9053
3054.00,0.9057
3053.00,0.9060
3052.00,0.9063
3051.00,0.9064
3050.00,0.9066
3049.00,0.9069
3048.00,0.9074
3047.00,0.9079
3046.00,0.9083
3045.00,0.9085
3044.00,0.9088
3043.00,0.9092
3042.00,0.9098
3041.00,0.9103
3040.00,0.9107
3039.00,0.9111
3038.00,0.9114
3037.00,0.9120
3036.00,0.9128
3035.00,0.9136
3034.00,0.9144
3033.00,0.9152
3032.00,0.9159
3031.00,0.9168
3030.00,0.9179
3029.00,0.9191
3028.00,0.9203
3027.00,0.9213
3026.00,0.9221
3025.00,0.9228
3024.00,0.9236
3023.00,0.9243
3022.00,0.9251
3021.00,0.9258
3020.00,0.9263
3019.00,0.9269
3018.00,0.9275
3017.00,0.9283
3016.00,0.9293
3015.00,0.9304
3014.00,0.9316
3013.00,0.9329
3012.00,0.9342
3011.00,0.9356
3010.00,0.9370
3009.00,0.9385
3008.00,0.9401
3007.00,0.9420
3006.00,0.9440
3005.00,0.9462
3004.00,0.9484
3003.00,0.9505
3002.00,0.9528
3001.00,0.9551
3000.00,0.9575
2999.00,0.9599
2998.00,0.9626
2997.00,0.9657
2996.00,0.9690
2995.00,0.9726
2994.00,0.9764
2993.00,0.9805
2992.00,0.9848
2991.00,0.9895
2990.00,0.9944
2989.00,0.9997
2988.00,1.0053
2987.00,1.0114
2986.00,1.0178
2985.00,1.0246
2984.00,1.0318
2983.00,1.0394
2982.00,1.0474
2981.00,1.0557
2980.00,1.0644
2979.00,1.0733
2978.00,1.0825
2977.00,1.0920
2976.00,1.1016
2975.00,1.1112
2974.00,1.1208
2973.00,1.1303
2972.00,1.1393
2971.00,1.1477
2970.00,1.1555
2969.00,1.1627
2968.00,1.1695
2967.00,1.1758
2966.00,1.1816
2965.00,1.1866
2964.00,1.1908
2963.00,1.1941
2962.00,1.1967
2961.00,1.1987
2960.00,1.2004
2959.00,1.2019
2958.00,1.2031
2957.00,1.2040
2956.00,1.2046
2955.00,1.2049
2954.00,1.2049
2953.00,1.2043
2952.00,1.2033
2951.00,1.2021
2950.00,1.2009
2949.00,1.1999
2948.00,1.1994
2947.00,1.1993
2946.00,1.1997
2945.00,1.2005
2944.00,1.2020
2943.00,1.2038
2942.00,1.2060
2941.00,1.2085
2940.00,1.2111
2939.00,1.2139
2938.00,1.2169
2937.00,1.2199
2936.00,1.2228
2935.00,1.2254
2934.00,1.2279
2933.00,1.2303
2932.00,1.2327
2931.00,1.2351
2930.00,1.2375
2929.00,1.2396
2928.00,1.2415
2927.00,1.2431
2926.00,1.2445
2925.00,1.2457
2924.00,1.2465
2923.00,1.2471
2922.00,1.2474
2921.00,1.2473
2920.00,1.2468
2919.00,1.2459
2918.00,1.2443
2917.00,1.2418
2916.00,1.2386
2915.00,1.2352
2914.00,1.2318
2913.00,1.2285
2912.00,1.2254
2911.00,1.2224
2910.00,1.2197
2909.00,1.2172
2908.00,1.2150
2907.00,1.2131
2906.00,1.2112
2905.00,1.2092
2904.00,1.2073
2903.00,1.2056
2902.00,1.2042
2901.00,1.2028
2900.00,1.2013
2899.00,1.1998
2898.00,1.1981
2897.00,1.1962
2896.00,1.1942
2895.00,1.1924
2894.00,1.1906
2893.00,1.1888
2892.00,1.1867
2891.00,1.1844
2890.00,1.1821
2889.00,1.1800
2888.00,1.1780
2887.00,1.1762
2886.00,1.1745
2885.00,1.1730
2884.00,1.1716
2883.00,1.1706
2882.00,1.1701
2881.00,1.1701
2880.00,1.1705
2879.00,1.1714
2878.00,1.1728
2877.00,1.1748
2876.00,1.1771
2875.00,1.1793
2874.00,1.1812
2873.00,1.1826
2872.00,1.1836
2871.00,1.1844
2870.00,1.1851
2869.00,1.1857
2868.00,1.1864
2867.00,1.1874
2866.00,1.1886
2865.00,1.1903
2864.00,1.1926
2863.00,1.1953
2862.00,1.1984
2861.00,1.2015
2860.00,1.2044
2859.00,1.2072
2858.00,1.2100
2857.00,1.2126
2856.00,1.2147
2855.00,1.2163
2854.00,1.2173
2853.00,1.2180
2852.00,1.2181
2851.00,1.2177
2850.00,1.2165
2849.00,1.2142
2848.00,1.2105
2847.00,1.2052
2846.00,1.1984
2845.00,1.1901
2844.00,1.1807
2843.00,1.1707
2842.00,1.1602
2841.00,1.1493
2840.00,1.1381
2839.00,1.1266
2838.00,1.1151
2837.00,1.1037
2836.00,1.0927
2835.00,1.0823
2834.00,1.0726
2833.00,1.0634
2832.00,1.0547
2831.00,1.0465
2830.00,1.0389
2829.00,1.0320
2828.00,1.0258
2827.00,1.0200
2826.00,1.0146
2825.00,1.0096
2824.00,1.0046
2823.00,0.9998
2822.00,0.9951
2821.00,0.9907
2820.00,0.9867
2819.00,0.9830
2818.00,0.9794
2817.00,0.9757
2816.00,0.9719
2815.00,0.9682
2814.00,0.9649
2813.00,0.9620
2812.00,0.9594
2811.00,0.9569
2810.00,0.9544
2809.00,0.9518
2808.00,0.9492
2807.00,0.9467
2806.00,0.9443
2805.00,0.9420
2804.00,0.9398
2803.00,0.9377
2802.00,0.9356
2801.00,0.9337
2800.00,0.9319
2799.00,0.9299
2798.00,0.9279
2797.00,0.9258
2796.00,0.9239
2795.00,0.9222
2794.00,0.9207
2793.00,0.9191
2792.00,0.9176
2791.00,0.9160
2790.00,0.9145
2789.00,0.9131
2788.00,0.9118
2787.00,0.9105
2786.00,0.9092
2785.00,0.9078
2784.00,0.9065
2783.00,0.9053
2782.00,0.9042
2781.00,0.9030
2780.00,0.9017
2779.00,0.9003
2778.00,0.8992
2777.00,0.8981
2776.00,0.8971
2775.00,0.8960
2774.00,0.8950
2773.00,0.8940
2772.00,0.8931
2771.00,0.8922
2770.00,0.8914
2769.00,0.8908
2768.00,0.8903
2767.00,0.8899
2766.00,0.8896
2765.00,0.8892
2764.00,0.8888
2763.00,0.8884
2762.00,0.8881
2761.00,0.8879
2760.00,0.8877
2759.00,0.8875
2758.00,0.8873
2757.00,0.8871
2756.00,0.8869
2755.00,0.8867
2754.00,0.8866
2753.00,0.8864
2752.00,0.8862
2751.00,0.8861
2750.00,0.8861
2749.00,0.8862
2748.00,0.8864
2747.00,0.8867
2746.00,0.8869
2745.00,0.8871
2744.00,0.8872
2743.00,0.8872
2742.00,0.8872
2741.00,0.8873
2740.00,0.8873
2739.00,0.8876
2738.00,0.8880
2737.00,0.8886
2736.00,0.8893
2735.00,0.8899
2734.00,0.8906
2733.00,0.8912
2732.00,0.8918
2731.00,0.8921
2730.00,0.8921
2729.00,0.8919
2728.00,0.8914
2727.00,0.8907
2726.00,0.8900
2725.00,0.8892
2724.00,0.8885
2723.00,0.8878
2722.00,0.8872
2721.00,0.8868
2720.00,0.8864
2719.00,0.8860
2718.00,0.8855
2717.00,0.8850
2716.00,0.8844
2715.00,0.8838
2714.00,0.8833
2713.00,0.8827
2712.00,0.8822
2711.00,0.8817
2710.00,0.8813
2709.00,0.8809
2708.00,0.8806
2707.00,0.8803
2706.00,0.8799
2705.00,0.8796
2704.00,0.8793
2703.00,0.8792
2702.00,0.8791
2701.00,0.8791
2700.00,0.8792
2699.00,0.8793
2698.00,0.8796
2697.00,0.8799
2696.00,0.8802
2695.00,0.8804
2694.00,0.8806
2693.00,0.8808
2692.00,0.8810
2691.00,0.8812
2690.00,0.8815
2689.00,0.8818
2688.00,0.8821
2687.00,0.8823
2686.00,0.8825
2685.00,0.8827
2684.00,0.8828
2683.00,0.8829
2682.00,0.8829
2681.00,0.8827
2680.00,0.8825
2679.00,0.8824
2678.00,0.8824
2677.00,0.8823
2676.00,0.8823
2675.00,0.8822
2674.00,0.8821
2673.00,0.8821
2672.00,0.8821
2671.00,0.8819
2670.00,0.8816
2669.00,0.8814
2668.00,0.8810
2667.00,0.8806
2666.00,0.8802
2665.00,0.8797
2664.00,0.8792
2663.00,0.8787
2662.00,0.8782
2661.00,0.8778
2660.00,0.8772
2659.00,0.8766
2658.00,0.8760
2657.00,0.8756
2656.00,0.8753
2655.00,0.8750
2654.00,0.8747
2653.00,0.8743
2652.00,0.8738
2651.00,0.8733
2650.00,0.8729
2649.00,0.8725
2648.00,0.8722
2647.00,0.8721
2646.00,0.8720
2645.00,0.8719
2644.00,0.8717
2643.00,0.8714
2642.00,0.8711
2641.00,0.8709
2640.00,0.8708
2639.00,0.8708
2638.00,0.8708
2637.00,0.8707
2636.00,0.8706
2635.00,0.8704
2634.00,0.8701
2633.00,0.8697
2632.00,0.8695
2631.00,0.8692
2630.00,0.8690
2629.00,0.8688
2628.00,0.8686
2627.00,0.8683
2626.00,0.8681
2625.00,0.8679
2624.00,0.8680
2623.00,0.8681
2622.00,0.8681
2621.00,0.8680
2620.00,0.8678
2619.00,0.8677
2618.00,0.8675
2617.00,0.8673
2616.00,0.8670
2615.00,0.8667
2614.00,0.8665
2613.00,0.8665
2612.00,0.8664
2611.00,0.8664
2610.00,0.8662
2609.00,0.8660
2608.00,0.8659
2607.00,0.8658
2606.00,0.8656
2605.00,0.8654
2604.00,0.8651
2603.00,0.8648
2602.00,0.8645
2601.00,0.8644
2600.00,0.8644
2599.00,0.8643
2598.00,0.8641
2597.00,0.8638
2596.00,0.8637
2595.00,0.8636
2594.00,0.8634
2593.00,0.8632
2592.00,0.8628
2591.00,0.8625
2590.00,0.8622
2589.00,0.8618
2588.00,0.8614
2587.00,0.8610
2586.00,0.8606
2585.00,0.8604
2584.00,0.8602
2583.00,0.8600
2582.00,0.8598
2581.00,0.8594
2580.00,0.8590
2579.00,0.8587
2578.00,0.8584
2577.00,0.8581
2576.00,0.8579
2575.00,0.8576
2574.00,0.8572
2573.00,0.8568
2572.00,0.8564
2571.00,0.8562
2570.00,0.8560
2569.00,0.8559
2568.00,0.8556
2567.00,0.8553
2566.00,0.8549
2565.00,0.8545
2564.00,0.8542
2563.00,0.8540
2562.00,0.8539
2561.00,0.8539
2560.00,0.8538
2559.00,0.8536
2558.00,0.8535
2557.00,0.8533
2556.00,0.8531
2555.00,0.8529
2554.00,0.8527
2553.00,0.8524
2552.00,0.8521
2551.00,0.8518
2550.00,0.8516
2549.00,0.8515
2548.00,0.8516
2547.00,0.8516
2546.00,0.8516
2545.00,0.8516
2544.00,0.8515
2543.00,0.8515
2542.00,0.8516
2541.00,0.8517
2540.00,0.8518
2539.00,0.8519
2538.00,0.8519
2537.00,0.8520
2536.00,0.8520
2535.00,0.8520
2534.00,0.8522
2533.00,0.8525
2532.00,0.8528
2531.00,0.8531
2530.00,0.8534
2529.00,0.8537
2528.00,0.8538
2527.00,0.8538
2526.00,0.8538
2525.00,0.8539
2524.00,0.8540
2523.00,0.8541
2522.00,0.8542
2521.00,0.8542
2520.00,0.8542
2519.00,0.8540
2518.00,0.8540
2517.00,0.8539
2516.00,0.8539
2515.00,0.8537
2514.00,0.8534
2513.00,0.8531
2512.00,0.8529
2511.00,0.8528
2510.00,0.8527
2509.00,0.8525
2508.00,0.8522
2507.00,0.8518
2506.00,0.8513
2505.00,0.8509
2504.00,0.8504
2503.00,0.8500
2502.00,0.8495
2501.00,0.8489
2500.00,0.8482
2499.00,0.8474
2498.00,0.8466
2497.00,0.8459
2496.00,0.8453
2495.00,0.8447
2494.00,0.8442
2493.00,0.8438
2492.00,0.8433
2491.00,0.8428
2490.00,0.8421
2489.00,0.8413
2488.00,0.8405
2487.00,0.8398
2486.00,0.8392
2485.00,0.8387
2484.00,0.8384
2483.00,0.8381
2482.00,0.8379
2481.00,0.8377
2480.00,0.8375
2479.00,0.8372
2478.00,0.8369
2477.00,0.8366
2476.00,0.8364
2475.00,0.8361
2474.00,0.8357
2473.00,0.8354
2472.00,0.8351
2471.00,0.8348
2470.00,0.8347
2469.00,0.8346
2468.00,0.8345
2467.00,0.8342
2466.00,0.8339
2465.00,0.8337
2464.00,0.8335
2463.00,0.8333
2462.00,0.8332
2461.00,0.8330
2460.00,0.8328
2459.00,0.8326
2458.00,0.8324
2457.00,0.8323
2456.00,0.8322
2455.00,0.8322
2454.00,0.8322
2453.00,0.8321
2452.00,0.8320
2451.00,0.8318
2450.00,0.8316
2449.00,0.8314
2448.00,0.8314
2447.00,0.8313
2446.00,0.8312
2445.00,0.8311
2444.00,0.8309
2443.00,0.8307
2442.00,0.8306
2441.00,0.8306
2440.00,0.8306
2439.00,0.8306
2438.00,0.8305
2437.00,0.8305
2436.00,0.8305
2435.00,0.8305
2434.00,0.8304
2433.00,0.8304
2432.00,0.8303
2431.00,0.8302
2430.00,0.8301
2429.00,0.8298
2428.00,0.8296
2427.00,0.8295
2426.00,0.8294
2425.00,0.8294
2424.00,0.8294
2423.00,0.8293
2422.00,0.8293
2421.00,0.8292
2420.00,0.8292
2419.00,0.8293
2418.00,0.8294
2417.00,0.8295
2416.00,0.8297
2415.00,0.8297
2414.00,0.8296
2413.00,0.8295
2412.00,0.8293
2411.00,0.8291
2410.00,0.8290
2409.00,0.8289
2408.00,0.8288
2407.00,0.8287
2406.00,0.8285
2405.00,0.8283
2404.00,0.8281
2403.00,0.8281
2402.00,0.8281
2401.00,0.8281
2400.00,0.8281
2399.00,0.8281
2398.00,0.8281
2397.00,0.8281
2396.00,0.8280
2395.00,0.8279
2394.00,0.8278
2393.00,0.8279
2392.00,0.8279
2391.00,0.8279
2390.00,0.8277
2389.00,0.8275
2388.00,0.8272
2387.00,0.8270
2386.00,0.8267
2385.00,0.8264
2384.00,0.8260
2383.00,0.8256
2382.00,0.8253
2381.00,0.8252
2380.00,0.8252
2379.00,0.8252
2378.00,0.8253
2377.00,0.8255
2376.00,0.8259
2375.00,0.8263
2374.00,0.8265
2373.00,0.8266
2372.00,0.8265
2371.00,0.8264
2370.00,0.8263
2369.00,0.8262
2368.00,0.8262
2367.00,0.8261
2366.00,0.8260
2365.00,0.8258
2364.00,0.8257
2363.00,0.8258
2362.00,0.8261
2361.00,0.8266
2360.00,0.8274
2359.00,0.8283
2358.00,0.8292
2357.00,0.8298
2356.00,0.8300
2355.00,0.8296
2354.00,0.8282
2353.00,0.8267
2352.00,0.8260
2351.00,0.8262
2350.00,0.8264
2349.00,0.8253
2348.00,0.8229
2347.00,0.8204
2346.00,0.8194
2345.00,0.8203
2344.00,0.8221
2343.00,0.8237
2342.00,0.8247
2341.00,0.8254
2340.00,0.8262
2339.00,0.8271
2338.00,0.8278
2337.00,0.8284
2336.00,0.8286
2335.00,0.8288
2334.00,0.8290
2333.00,0.8293
2332.00,0.8294
2331.00,0.8294
2330.00,0.8294
2329.00,0.8296
2328.00,0.8299
2327.00,0.8298
2326.00,0.8294
2325.00,0.8290
2324.00,0.8287
2323.00,0.8287
2322.00,0.8290
2321.00,0.8292
2320.00,0.8292
2319.00,0.8288
2318.00,0.8283
2317.00,0.8276
2316.00,0.8269
2315.00,0.8261
2314.00,0.8256
2313.00,0.8253
2312.00,0.8251
2311.00,0.8250
2310.00,0.8249
2309.00,0.8247
2308.00,0.8244
2307.00,0.8242
2306.00,0.8239
2305.00,0.8236
2304.00,0.8233
2303.00,0.8230
2302.00,0.8226
2301.00,0.8223
2300.00,0.8220
2299.00,0.8218
2298.00,0.8215
2297.00,0.8213
2296.00,0.8211
2295.00,0.8210
2294.00,0.8209
2293.00,0.8209
2292.00,0.8208
2291.00,0.8207
2290.00,0.8205
2289.00,0.8203
2288.00,0.8201
2287.00,0.8199
2286.00,0.8197
2285.00,0.8194
2284.00,0.8191
2283.00,0.8188
2282.00,0.8187
2281.00,0.8186
2280.00,0.8186
2279.00,0.8185
2278.00,0.8184
2277.00,0.8183
2276.00,0.8182
2275.00,0.8181
2274.00,0.8180
2273.00,0.8179
2272.00,0.8177
2271.00,0.8177
2270.00,0.8176
2269.00,0.8176
2268.00,0.8175
2267.00,0.8174
2266.00,0.8172
2265.00,0.8170
2264.00,0.8170
2263.00,0.8170
2262.00,0.8171
2261.00,0.8171
2260.00,0.8170
2259.00,0.8168
2258.00,0.8167
2257.00,0.8166
2256.00,0.8165
2255.00,0.8165
2254.00,0.8165
2253.00,0.8165
2252.00,0.8164
2251.00,0.8163
2250.00,0.8162
2249.00,0.8161
2248.00,0.8160
2247.00,0.8160
2246.00,0.8159
2245.00,0.8157
2244.00,0.8155
2243.00,0.8153
2242.00,0.8152
2241.00,0.8151
2240.00,0.8151
2239.00,0.8151
2238.00,0.8150
2237.00,0.8150
2236.00,0.8149
2235.00,0.8149
2234.00,0.8150
2233.00,0.8150
2232.00,0.8149
2231.00,0.8147
2230.00,0.8145
2229.00,0.8142
2228.00,0.8140
2227.00,0.8139
2226.00,0.8138
2225.00,0.8137
2224.00,0.8137
2223.00,0.8136
2222.00,0.8136
2221.00,0.8136
2220.00,0.8136
2219.00,0.8137
2218.00,0.8136
2217.00,0.8135
2216.00,0.8134
2215.00,0.8133
2214.00,0.8131
2213.00,0.8131
2212.00,0.8132
2211.00,0.8133
2210.00,0.8133
2209.00,0.8132
2208.00,0.8130
2207.00,0.8129
2206.00,0.8127
2205.00,0.8126
2204.00,0.8125
2203.00,0.8125
2202.00,0.8125
2201.00,0.8125
2200.00,0.8124
2199.00,0.8123
2198.00,0.8123
2197.00,0.8125
2196.00,0.8128
2195.00,0.8129
2194.00,0.8129
2193.00,0.8128
2192.00,0.8127
2191.00,0.8126
2190.00,0.8125
2189.00,0.8125
2188.00,0.8124
2187.00,0.8123
2186.00,0.8121
2185.00,0.8119
2184.00,0.8118
2183.00,0.8117
2182.00,0.8116
2181.00,0.8116
2180.00,0.8117
2179.00,0.8117
2178.00,0.8117
2177.00,0.8117
2176.00,0.8116
2175.00,0.8115
2174.00,0.8113
2173.00,0.8113
2172.00,0.8113
2171.00,0.8114
2170.00,0.8115
2169.00,0.8115
2168.00,0.8114
2167.00,0.8113
2166.00,0.8111
2165.00,0.8109
2164.00,0.8108
2163.00,0.8107
2162.00,0.8106
2161.00,0.8106
2160.00,0.8106
2159.00,0.8105
2158.00,0.8106
2157.00,0.8106
2156.00,0.8105
2155.00,0.8105
2154.00,0.8104
2153.00,0.8103
2152.00,0.8103
2151.00,0.8104
2150.00,0.8104
2149.00,0.8103
2148.00,0.8102
2147.00,0.8101
2146.00,0.8099
2145.00,0.8097
2144.00,0.8095
2143.00,0.8094
2142.00,0.8093
2141.00,0.8094
2140.00,0.8093
2139.00,0.8092
2138.00,0.8089
2137.00,0.8087
2136.00,0.8085
2135.00,0.8084
2134.00,0.8084
2133.00,0.8084
2132.00,0.8084
2131.00,0.8082
2130.00,0.8080
2129.00,0.8077
2128.00,0.8075
2127.00,0.8073
2126.00,0.8071
2125.00,0.8070
2124.00,0.8068
2123.00,0.8066
2122.00,0.8065
2121.00,0.8065
2120.00,0.8064
2119.00,0.8064
2118.00,0.8063
2117.00,0.8063
2116.00,0.8063
2115.00,0.8063
2114.00,0.8062
2113.00,0.8062
2112.00,0.8063
2111.00,0.8064
2110.00,0.8064
2109.00,0.8064
2108.00,0.8063
2107.00,0.8061
2106.00,0.8060
2105.00,0.8060
2104.00,0.8060
2103.00,0.8059
2102.00,0.8057
2101.00,0.8055
2100.00,0.8052
2099.00,0.8050
2098.00,0.8048
2097.00,0.8047
2096.00,0.8047
2095.00,0.8047
2094.00,0.8048
2093.00,0.8049
2092.00,0.8049
2091.00,0.8048
2090.00,0.8046
2089.00,0.8045
2088.00,0.8043
2087.00,0.8041
2086.00,0.8040
2085.00,0.8039
2084.00,0.8038
2083.00,0.8037
2082.00,0.8038
2081.00,0.8038
2080.00,0.8039
2079.00,0.8039
2078.00,0.8038
2077.00,0.8037
2076.00,0.8036
2075.00,0.8035
2074.00,0.8034
2073.00,0.8034
2072.00,0.8033
2071.00,0.8032
2070.00,0.8030
2069.00,0.8029
2068.00,0.8029
2067.00,0.8029
2066.00,0.8029
2065.00,0.8029
2064.00,0.8028
2063.00,0.8027
2062.00,0.8025
2061.00,0.8024
2060.00,0.8024
2059.00,0.8024
2058.00,0.8025
2057.00,0.8026
2056.00,0.8026
2055.00,0.8027
2054.00,0.8027
2053.00,0.8027
2052.00,0.8026
2051.00,0.8025
2050.00,0.8026
2049.00,0.8027
2048.00,0.8028
2047.00,0.8027
2046.00,0.8025
2045.00,0.8023
2044.00,0.8022
2043.00,0.8021
2042.00,0.8022
2041.00,0.8022
2040.00,0.8023
2039.00,0.8022
2038.00,0.8021
2037.00,0.8020
2036.00,0.8019
2035.00,0.8018
2034.00,0.8017
2033.00,0.8018
2032.00,0.8019
2031.00,0.8020
2030.00,0.8020
2029.00,0.8021
2028.00,0.8021
2027.00,0.8021
2026.00,0.8020
2025.00,0.8018
2024.00,0.8015
2023.00,0.8013
2022.00,0.8012
2021.00,0.8011
2020.00,0.8010
2019.00,0.8009
2018.00,0.8007
2017.00,0.8004
2016.00,0.8001
2015.00,0.7997
2014.00,0.7994
2013.00,0.7991
2012.00,0.7990
2011.00,0.7988
2010.00,0.7987
2009.00,0.7986
2008.00,0.7986
2007.00,0.7985
2006.00,0.7984
2005.00,0.7981
2004.00,0.7979
2003.00,0.7976
2002.00,0.7974
2001.00,0.7971
2000.00,0.7969
1999.00,0.7966
1998.00,0.7965
1997.00,0.7964
1996.00,0.7964
1995.00,0.7964
1994.00,0.7965
1993.00,0.7965
1992.00,0.7963
1991.00,0.7961
1990.00,0.7960
1989.00,0.7960
1988.00,0.7960
1987.00,0.7960
1986.00,0.7959
1985.00,0.7957
1984.00,0.7956
1983.00,0.7955
1982.00,0.7953
1981.00,0.7950
1980.00,0.7948
1979.00,0.7945
1978.00,0.7943
1977.00,0.7942
1976.00,0.7942
1975.00,0.7941
1974.00,0.7940
1973.00,0.7939
1972.00,0.7939
1971.00,0.7940
1970.00,0.7941
1969.00,0.7942
1968.00,0.7943
1967.00,0.7943
1966.00,0.7942
1965.00,0.7941
1964.00,0.7940
1963.00,0.7938
1962.00,0.7936
1961.00,0.7934
1960.00,0.7933
1959.00,0.7933
1958.00,0.7933
1957.00,0.7933
1956.00,0.7933
1955.00,0.7933
1954.00,0.7932
1953.00,0.7930
1952.00,0.7928
1951.00,0.7926
1950.00,0.7924
1949.00,0.7924
1948.00,0.7925
1947.00,0.7926
1946.00,0.7926
1945.00,0.7926
1944.00,0.7925
1943.00,0.7923
1942.00,0.7920
1941.00,0.7917
1940.00,0.7916
1939.00,0.7916
1938.00,0.7917
1937.00,0.7917
1936.00,0.7918
1935.00,0.7919
1934.00,0.7920
1933.00,0.7921
1932.00,0.7921
1931.00,0.7920
1930.00,0.7919
1929.00,0.7919
1928.00,0.7918
1927.00,0.7918
1926.00,0.7917
1925.00,0.7917
1924.00,0.7916
1923.00,0.7913
1922.00,0.7911
1921.00,0.7910
1920.00,0.7911
1919.00,0.7911
1918.00,0.7910
1917.00,0.7910
1916.00,0.7910
1915.00,0.7910
1914.00,0.7910
1913.00,0.7910
1912.00,0.7909
1911.00,0.7907
1910.00,0.7905
1909.00,0.7903
1908.00,0.7902
1907.00,0.7902
1906.00,0.7902
1905.00,0.7901
1904.00,0.7899
1903.00,0.7896
1902.00,0.7892
1901.00,0.7889
1900.00,0.7887
1899.00,0.7886
1898.00,0.7886
1897.00,0.7886
1896.00,0.7885
1895.00,0.7881
1894.00,0.7877
1893.00,0.7875
1892.00,0.7877
1891.00,0.7880
1890.00,0.7882
1889.00,0.7883
1888.00,0.7882
1887.00,0.7882
1886.00,0.7881
1885.00,0.7881
1884.00,0.7881
1883.00,0.7879
1882.00,0.7877
1881.00,0.7876
1880.00,0.7874
1879.00,0.7871
1878.00,0.7868
1877.00,0.7867
1876.00,0.7865
1875.00,0.7863
1874.00,0.7862
1873.00,0.7862
1872.00,0.7862
1871.00,0.7863
1870.00,0.7863
1869.00,0.7861
1868.00,0.7859
1867.00,0.7858
1866.00,0.7860
1865.00,0.7862
1864.00,0.7864
1863.00,0.7864
1862.00,0.7862
1861.00,0.7859
1860.00,0.7857
1859.00,0.7853
1858.00,0.7850
1857.00,0.7847
1856.00,0.7846
1855.00,0.7844
1854.00,0.7844
1853.00,0.7845
1852.00,0.7846
1851.00,0.7846
1850.00,0.7845
1849.00,0.7844
1848.00,0.7844
1847.00,0.7843
1846.00,0.7843
1845.00,0.7843
1844.00,0.7842
1843.00,0.7840
1842.00,0.7839
1841.00,0.7839
1840.00,0.7837
1839.00,0.7833
1838.00,0.7829
1837.00,0.7828
1836.00,0.7829
1835.00,0.7830
1834.00,0.7832
1833.00,0.7833
1832.00,0.7833
1831.00,0.7831
1830.00,0.7827
1829.00,0.7824
1828.00,0.7826
1827.00,0.7831
1826.00,0.7835
1825.00,0.7838
1824.00,0.7838
1823.00,0.7837
1822.00,0.7837
1821.00,0.7838
1820.00,0.7839
1819.00,0.7840
1818.00,0.7840
1817.00,0.7842
1816.00,0.7845
1815.00,0.7846
1814.00,0.7848
1813.00,0.7850
1812.00,0.7852
1811.00,0.7854
1810.00,0.7858
1809.00,0.7864
1808.00,0.7873
1807.00,0.7882
1806.00,0.7891
1805.00,0.7903
1804.00,0.7918
1803.00,0.7933
1802.00,0.7948
1801.00,0.7961
1800.00,0.7974
1799.00,0.7986
1798.00,0.7998
1797.00,0.8011
1796.00,0.8020
1795.00,0.8025
1794.00,0.8026
1793.00,0.8026
1792.00,0.8023
1791.00,0.8015
1790.00,0.8002
1789.00,0.7988
1788.00,0.7974
1787.00,0.7960
1786.00,0.7947
1785.00,0.7934
1784.00,0.7921
1783.00,0.7907
1782.00,0.7894
1781.00,0.7882
1780.00,0.7871
1779.00,0.7863
1778.00,0.7859
1777.00,0.7855
1776.00,0.7851
1775.00,0.7847
1774.00,0.7842
1773.00,0.7836
1772.00,0.7832
1771.00,0.7832
1770.00,0.7837
1769.00,0.7846
1768.00,0.7853
1767.00,0.7855
1766.00,0.7853
1765.00,0.7851
1764.00,0.7852
1763.00,0.7853
1762.00,0.7852
1761.00,0.7849
1760.00,0.7848
1759.00,0.7849
1758.00,0.7851
1757.00,0.7850
1756.00,0.7849
1755.00,0.7849
1754.00,0.7852
1753.00,0.7856
1752.00,0.7862
1751.00,0.7869
1750.00,0.7873
1749.00,0.7877
1748.00,0.7881
1747.00,0.7886
1746.00,0.7891
1745.00,0.7895
1744.00,0.7897
1743.00,0.7898
1742.00,0.7896
1741.00,0.7896
1740.00,0.7896
1739.00,0.7896
1738.00,0.7896
1737.00,0.7897
1736.00,0.7897
1735.00,0.7895
1734.00,0.7891
1733.00,0.7888
1732.00,0.7888
1731.00,0.7890
1730.00,0.7890
1729.00,0.7889
1728.00,0.7888
1727.00,0.7889
1726.00,0.7891
1725.00,0.7894
1724.00,0.7897
1723.00,0.7898
1722.00,0.7899
1721.00,0.7901
1720.00,0.7903
1719.00,0.7902
1718.00,0.7898
1717.00,0.7896
1716.00,0.7899
1715.00,0.7900
1714.00,0.7901
1713.00,0.7904
1712.00,0.7907
1711.00,0.7909
1710.00,0.7911
1709.00,0.7914
1708.00,0.7917
1707.00,0.7917
1706.00,0.7915
1705.00,0.7915
1704.00,0.7916
1703.00,0.7917
1702.00,0.7918
1701.00,0.7920
1700.00,0.7918
1699.00,0.7913
1698.00,0.7911
1697.00,0.7912
1696.00,0.7912
1695.00,0.7911
1694.00,0.7909
1693.00,0.7910
1692.00,0.7910
1691.00,0.7909
1690.00,0.7908
1689.00,0.7909
1688.00,0.7910
1687.00,0.7913
1686.00,0.7916
1685.00,0.7920
1684.00,0.7922
1683.00,0.7927
1682.00,0.7934
1681.00,0.7939
1680.00,0.7940
1679.00,0.7940
1678.00,0.7942
1677.00,0.7946
1676.00,0.7950
1675.00,0.7953
1674.00,0.7956
1673.00,0.7958
1672.00,0.7962
1671.00,0.7966
1670.00,0.7971
1669.00,0.7978
1668.00,0.7987
1667.00,0.7996
1666.00,0.8004
1665.00,0.8011
1664.00,0.8016
1663.00,0.8020
1662.00,0.8024
1661.00,0.8028
1660.00,0.8033
1659.00,0.8036
1658.00,0.8039
1657.00,0.8041
1656.00,0.8042
1655.00,0.8045
1654.00,0.8046
1653.00,0.8048
1652.00,0.8056
1651.00,0.8066
1650.00,0.8073
1649.00,0.8076
1648.00,0.8078
1647.00,0.8082
1646.00,0.8093
1645.00,0.8110
1644.00,0.8125
1643.00,0.8136
1642.00,0.8144
1641.00,0.8152
1640.00,0.8159
1639.00,0.8165
1638.00,0.8169
1637.00,0.8174
1636.00,0.8184
1635.00,0.8200
1634.00,0.8219
1633.00,0.8237
1632.00,0.8253
1631.00,0.8266
1630.00,0.8281
1629.00,0.8299
1628.00,0.8320
1627.00,0.8342
1626.00,0.8364
1625.00,0.8387
1624.00,0.8411
1623.00,0.8437
1622.00,0.8465
1621.00,0.8494
1620.00,0.8519
1619.00,0.8543
1618.00,0.8571
1617.00,0.8607
1616.00,0.8650
1615.00,0.8693
1614.00,0.8733
1613.00,0.8771
1612.00,0.8811
1611.00,0.8855
1610.00,0.8903
1609.00,0.8953
1608.00,0.9005
1607.00,0.9055
1606.00,0.9104
1605.00,0.9153
1604.00,0.9202
1603.00,0.9252
1602.00,0.9299
1601.00,0.9343
1600.00,0.9382
1599.00,0.9419
1598.00,0.9454
1597.00,0.9492
1596.00,0.9536
1595.00,0.9585
1594.00,0.9637
1593.00,0.9693
1592.00,0.9757
1591.00,0.9827
1590.00,0.9906
1589.00,0.9993
1588.00,1.0091
1587.00,1.0195
1586.00,1.0302
1585.00,1.0413
1584.00,1.0525
1583.00,1.0635
1582.00,1.0736
1581.00,1.0816
1580.00,1.0860
1579.00,1.0859
1578.00,1.0812
1577.00,1.0730
1576.00,1.0630
1575.00,1.0528
1574.00,1.0429
1573.00,1.0335
1572.00,1.0250
1571.00,1.0180
1570.00,1.0127
1569.00,1.0092
1568.00,1.0073
1567.00,1.0065
1566.00,1.0065
1565.00,1.0073
1564.00,1.0087
1563.00,1.0098
1562.00,1.0097
1561.00,1.0082
1560.00,1.0055
1559.00,1.0012
1558.00,0.9961
1557.00,0.9905
1556.00,0.9842
1555.00,0.9778
1554.00,0.9718
1553.00,0.9666
1552.00,0.9622
1551.00,0.9586
1550.00,0.9556
1549.00,0.9533
1548.00,0.9515
1547.00,0.9503
1546.00,0.9496
1545.00,0.9494
1544.00,0.9495
1543.00,0.9497
1542.00,0.9501
1541.00,0.9510
1540.00,0.9529
1539.00,0.9553
1538.00,0.9570
1537.00,0.9574
1536.00,0.9568
1535.00,0.9559
1534.00,0.9556
1533.00,0.9562
1532.00,0.9573
1531.00,0.9585
1530.00,0.9597
1529.00,0.9615
1528.00,0.9640
1527.00,0.9671
1526.00,0.9706
1525.00,0.9741
1524.00,0.9774
1523.00,0.9811
1522.00,0.9864
1521.00,0.9934
1520.00,1.0000
1519.00,1.0048
1518.00,1.0082
1517.00,1.0116
1516.00,1.0149
1515.00,1.0171
1514.00,1.0182
1513.00,1.0190
1512.00,1.0199
1511.00,1.0204
1510.00,1.0203
1509.00,1.0204
1508.00,1.0218
1507.00,1.0253
1506.00,1.0309
1505.00,1.0365
1504.00,1.0404
1503.00,1.0428
1502.00,1.0448
1501.00,1.0475
1500.00,1.0507
1499.00,1.0538
1498.00,1.0572
1497.00,1.0617
1496.00,1.0673
1495.00,1.0723
1494.00,1.0760
1493.00,1.0787
1492.00,1.0815
1491.00,1.0847
1490.00,1.0885
1489.00,1.0923
1488.00,1.0958
1487.00,1.0987
1486.00,1.1015
1485.00,1.1046
1484.00,1.1077
1483.00,1.1107
1482.00,1.1143
1481.00,1.1184
1480.00,1.1224
1479.00,1.1257
1478.00,1.1290
1477.00,1.1328
1476.00,1.1369
1475.00,1.1407
1474.00,1.1456
1473.00,1.1528
1472.00,1.1615
1471.00,1.1689
1470.00,1.1735
1469.00,1.1761
1468.00,1.1777
1467.00,1.1787
1466.00,1.1800
1465.00,1.1822
1464.00,1.1844
1463.00,1.1856
1462.00,1.1851
1461.00,1.1836
1460.00,1.1817
1459.00,1.1805
1458.00,1.1816
1457.00,1.1859
1456.00,1.1908
1455.00,1.1923
1454.00,1.1905
1453.00,1.1876
1452.00,1.1853
1451.00,1.1838
1450.00,1.1829
1449.00,1.1829
1448.00,1.1839
1447.00,1.1850
1446.00,1.1853
1445.00,1.1849
1444.00,1.1849
1443.00,1.1854
1442.00,1.1862
1441.00,1.1865
1440.00,1.1862
1439.00,1.1859
1438.00,1.1865
1437.00,1.1892
1436.00,1.1928
1435.00,1.1946
1434.00,1.1938
1433.00,1.1920
1432.00,1.1912
1431.00,1.1917
1430.00,1.1929
1429.00,1.1943
1428.00,1.1955
1427.00,1.1961
1426.00,1.1963
1425.00,1.1968
1424.00,1.1980
1423.00,1.1991
1422.00,1.1995
1421.00,1.2001
1420.00,1.2023
1419.00,1.2060
1418.00,1.2089
1417.00,1.2095
1416.00,1.2086
1415.00,1.2070
1414.00,1.2053
1413.00,1.2036
1412.00,1.2022
1411.00,1.2005
1410.00,1.1983
1409.00,1.1954
1408.00,1.1921
1407.00,1.1884
1406.00,1.1846
1405.00,1.1807
1404.00,1.1768
1403.00,1.1726
1402.00,1.1679
1401.00,1.1630
1400.00,1.1583
1399.00,1.1536
1398.00,1.1480
1397.00,1.1415
1396.00,1.1342
1395.00,1.1265
1394.00,1.1182
1393.00,1.1091
1392.00,1.0996
1391.00,1.0901
1390.00,1.0812
1389.00,1.0734
1388.00,1.0668
1387.00,1.0618
1386.00,1.0584
1385.00,1.0566
1384.00,1.0567
1383.00,1.0592
1382.00,1.0644
1381.00,1.0714
1380.00,1.0790
1379.00,1.0849
1378.00,1.0866
1377.00,1.0831
1376.00,1.0747
1375.00,1.0631
1374.00,1.0501
1373.00,1.0376
1372.00,1.0265
1371.00,1.0172
1370.00,1.0096
1369.00,1.0033
1368.00,0.9978
1367.00,0.9925
1366.00,0.9869
1365.00,0.9809
1364.00,0.9745
1363.00,0.9680
1362.00,0.9618
1361.00,0.9558
1360.00,0.9504
1359.00,0.9457
1358.00,0.9418
1357.00,0.9389
1356.00,0.9368
1355.00,0.9353
1354.00,0.9342
1353.00,0.9331
1352.00,0.9320
1351.00,0.9306
1350.00,0.9291
1349.00,0.9275
1348.00,0.9261
1347.00,0.9252
1346.00,0.9248
1345.00,0.9248
1344.00,0.9253
1343.00,0.9259
1342.00,0.9263
1341.00,0.9261
1340.00,0.9253
1339.00,0.9241
1338.00,0.9226
1337.00,0.9210
1336.00,0.9193
1335.00,0.9179
1334.00,0.9168
1333.00,0.9157
1332.00,0.9146
1331.00,0.9138
1330.00,0.9134
1329.00,0.9131
1328.00,0.9129
1327.00,0.9128
1326.00,0.9127
1325.00,0.9127
1324.00,0.9130
1323.00,0.9135
1322.00,0.9143
1321.00,0.9150
1320.00,0.9157
1319.00,0.9163
1318.00,0.9168
1317.00,0.9172
1316.00,0.9175
1315.00,0.9179
1314.00,0.9183
1313.00,0.9186
1312.00,0.9190
1311.00,0.9193
1310.00,0.9195
1309.00,0.9192
1308.00,0.9187
1307.00,0.9182
1306.00,0.9175
1305.00,0.9166
1304.00,0.9155
1303.00,0.9144
1302.00,0.9134
1301.00,0.9122
1300.00,0.9109
1299.00,0.9093
1298.00,0.9076
1297.00,0.9059
1296.00,0.9042
1295.00,0.9027
1294.00,0.9015
1293.00,0.9003
1292.00,0.8989
1291.00,0.8974
1290.00,0.8956
1289.00,0.8938
1288.00,0.8921
1287.00,0.8904
1286.00,0.8888
1285.00,0.8874
1284.00,0.8863
1283.00,0.8853
1282.00,0.8842
1281.00,0.8830
1280.00,0.8819
1279.00,0.8809
1278.00,0.8801
1277.00,0.8791
1276.00,0.8781
1275.00,0.8771
1274.00,0.8761
1273.00,0.8750
1272.00,0.8739
1271.00,0.8728
1270.00,0.8718
1269.00,0.8708
1268.00,0.8700
1267.00,0.8693
1266.00,0.8686
1265.00,0.8676
1264.00,0.8666
1263.00,0.8658
1262.00,0.8654
1261.00,0.8654
1260.00,0.8656
1259.00,0.8659
1258.00,0.8661
1257.00,0.8662
1256.00,0.8663
1255.00,0.8664
1254.00,0.8665
1253.00,0.8665
1252.00,0.8665
1251.00,0.8667
1250.00,0.8672
1249.00,0.8679
1248.00,0.8688
1247.00,0.8698
1246.00,0.8706
1245.00,0.8711
1244.00,0.8714
1243.00,0.8720
1242.00,0.8730
1241.00,0.8743
1240.00,0.8757
1239.00,0.8773
1238.00,0.8792
1237.00,0.8815
1236.00,0.8842
1235.00,0.8872
1234.00,0.8902
1233.00,0.8928
1232.00,0.8950
1231.00,0.8971
1230.00,0.8993
1229.00,0.9017
1228.00,0.9040
1227.00,0.9061
1226.00,0.9076
1225.00,0.9086
1224.00,0.9094
1223.00,0.9103
1222.00,0.9112
1221.00,0.9119
1220.00,0.9128
1219.00,0.9140
1218.00,0.9156
1217.00,0.9173
1216.00,0.9187
1215.00,0.9200
1214.00,0.9214
1213.00,0.9229
1212.00,0.9247
1211.00,0.9264
1210.00,0.9281
1209.00,0.9297
1208.00,0.9314
1207.00,0.9330
1206.00,0.9345
1205.00,0.9357
1204.00,0.9369
1203.00,0.9382
1202.00,0.9399
1201.00,0.9418
1200.00,0.9439
1199.00,0.9459
1198.00,0.9478
1197.00,0.9496
1196.00,0.9511
1195.00,0.9525
1194.00,0.9536
1193.00,0.9543
1192.00,0.9551
1191.00,0.9557
1190.00,0.9560
1189.00,0.9556
1188.00,0.9546
1187.00,0.9530
1186.00,0.9510
1185.00,0.9484
1184.00,0.9453
1183.00,0.9420
1182.00,0.9387
1181.00,0.9354
1180.00,0.9322
1179.00,0.9292
1178.00,0.9261
1177.00,0.9230
1176.00,0.9200
1175.00,0.9173
1174.00,0.9147
1173.00,0.9122
1172.00,0.9097
1171.00,0.9076
1170.00,0.9055
1169.00,0.9033
1168.00,0.9008
1167.00,0.8982
1166.00,0.8955
1165.00,0.8931
1164.00,0.8912
1163.00,0.8898
1162.00,0.8886
1161.00,0.8875
1160.00,0.8864
1159.00,0.8855
1158.00,0.8847
1157.00,0.8836
1156.00,0.8823
1155.00,0.8810
1154.00,0.8800
1153.00,0.8791
1152.00,0.8781
1151.00,0.8770
1150.00,0.8759
1149.00,0.8747
1148.00,0.8735
1147.00,0.8725
1146.00,0.8720
1145.00,0.8719
1144.00,0.8721
1143.00,0.8724
1142.00,0.8727
1141.00,0.8730
1140.00,0.8733
1139.00,0.8737
1138.00,0.8738
1137.00,0.8736
1136.00,0.8728
1135.00,0.8715
1134.00,0.8696
1133.00,0.8670
1132.00,0.8640
1131.00,0.8605
1130.00,0.8567
1129.00,0.8527
1128.00,0.8485
1127.00,0.8443
1126.00,0.8402
1125.00,0.8363
1124.00,0.8328
1123.00,0.8296
1122.00,0.8267
1121.00,0.8241
1120.00,0.8220
1119.00,0.8205
1118.00,0.8194
1117.00,0.8189
1116.00,0.8187
1115.00,0.8189
1114.00,0.8190
1113.00,0.8188
1112.00,0.8182
1111.00,0.8174
1110.00,0.8166
1109.00,0.8159
1108.00,0.8151
1107.00,0.8141
1106.00,0.8129
1105.00,0.8118
1104.00,0.8110
1103.00,0.8106
1102.00,0.8105
1101.00,0.8108
1100.00,0.8112
1099.00,0.8117
1098.00,0.8124
1097.00,0.8133
1096.00,0.8146
1095.00,0.8162
1094.00,0.8181
1093.00,0.8199
1092.00,0.8219
1091.00,0.8241
1090.00,0.8266
1089.00,0.8289
1088.00,0.8307
1087.00,0.8318
1086.00,0.8323
1085.00,0.8324
1084.00,0.8323
1083.00,0.8320
1082.00,0.8312
1081.00,0.8297
1080.00,0.8277
1079.00,0.8260
1078.00,0.8247
1077.00,0.8238
1076.00,0.8231
1075.00,0.8224
1074.00,0.8217
1073.00,0.8207
1072.00,0.8196
1071.00,0.8187
1070.00,0.8184
1069.00,0.8185
1068.00,0.8190
1067.00,0.8202
1066.00,0.8221
1065.00,0.8249
1064.00,0.8285
1063.00,0.8327
1062.00,0.8371
1061.00,0.8412
1060.00,0.8440
1059.00,0.8452
1058.00,0.8446
1057.00,0.8428
1056.00,0.8404
1055.00,0.8380
1054.00,0.8358
1053.00,0.8342
1052.00,0.8329
1051.00,0.8318
1050.00,0.8304
1049.00,0.8284
1048.00,0.8259
1047.00,0.8233
1046.00,0.8206
1045.00,0.8178
1044.00,0.8150
1043.00,0.8122
1042.00,0.8096
1041.00,0.8075
1040.00,0.8059
1039.00,0.8048
1038.00,0.8041
1037.00,0.8038
1036.00,0.8042
1035.00,0.8051
1034.00,0.8064
1033.00,0.8076
1032.00,0.8087
1031.00,0.8098
1030.00,0.8108
1029.00,0.8116
1028.00,0.8122
1027.00,0.8125
1026.00,0.8123
1025.00,0.8113
1024.00,0.8096
1023.00,0.8075
1022.00,0.8052
1021.00,0.8031
1020.00,0.8016
1019.00,0.8013
1018.00,0.8024
1017.00,0.8045
1016.00,0.8069
1015.00,0.8087
1014.00,0.8090
1013.00,0.8076
1012.00,0.8047
1011.00,0.8011
1010.00,0.7970
1009.00,0.7926
1008.00,0.7883
1007.00,0.7845
1006.00,0.7815
1005.00,0.7793
1004.00,0.7777
1003.00,0.7764
1002.00,0.7751
1001.00,0.7736
1000.00,0.7719
999.00,0.7704
998.00,0.7693
997.00,0.7686
996.00,0.7680
995.00,0.7677
994.00,0.7676
993.00,0.7677
992.00,0.7678
991.00,0.7680
990.00,0.7683
989.00,0.7687
988.00,0.7691
987.00,0.7694
986.00,0.7696
985.00,0.7695
984.00,0.7691
983.00,0.7686
982.00,0.7681
981.00,0.7677
980.00,0.7676
979.00,0.7678
978.00,0.7681
977.00,0.7685
976.00,0.7690
975.00,0.7698
974.00,0.7712
973.00,0.7729
972.00,0.7749
971.00,0.7772
970.00,0.7795
969.00,0.7815
968.00,0.7829
967.00,0.7838
966.00,0.7841
965.00,0.7839
964.00,0.7833
963.00,0.7825
962.00,0.7815
961.00,0.7805
960.00,0.7796
959.00,0.7790
958.00,0.7786
957.00,0.7785
956.00,0.7786
955.00,0.7790
954.00,0.7796
953.00,0.7801
952.00,0.7805
951.00,0.7808
950.00,0.7809
949.00,0.7809
948.00,0.7806
947.00,0.7802
946.00,0.7799
945.00,0.7798
944.00,0.7798
943.00,0.7799
942.00,0.7800
941.00,0.7800
940.00,0.7795
939.00,0.7788
938.00,0.7782
937.00,0.7777
936.00,0.7773
935.00,0.7769
934.00,0.7764
933.00,0.7758
932.00,0.7753
931.00,0.7751
930.00,0.7755
929.00,0.7759
928.00,0.7761
927.00,0.7758
926.00,0.7750
925.00,0.7740
924.00,0.7731
923.00,0.7727
922.00,0.7727
921.00,0.7728
920.00,0.7727
919.00,0.7723
918.00,0.7716
917.00,0.7708
916.00,0.7704
915.00,0.7707
914.00,0.7713
913.00,0.7719
912.00,0.7720
911.00,0.7720
910.00,0.7720
909.00,0.7721
908.00,0.7723
907.00,0.7725
906.00,0.7725
905.00,0.7720
904.00,0.7712
903.00,0.7701
902.00,0.7689
901.00,0.7676
900.00,0.7665
899.00,0.7657
898.00,0.7652
897.00,0.7649
896.00,0.7649
895.00,0.7654
894.00,0.7663
893.00,0.7675
892.00,0.7691
891.00,0.7711
890.00,0.7745
889.00,0.7820
888.00,0.7982
887.00,0.8272
886.00,0.8685
885.00,0.9155
884.00,0.9585
883.00,0.9898
882.00,1.0081
881.00,1.0150
880.00,1.0121
879.00,1.0004
878.00,0.9815
877.00,0.9575
876.00,0.9300
875.00,0.9010
874.00,0.8727
873.00,0.8472
872.00,0.8259
871.00,0.8098
870.00,0.7987
869.00,0.7916
868.00,0.7870
867.00,0.7837
866.00,0.7807
865.00,0.7779
864.00,0.7750
863.00,0.7721
862.00,0.7692
861.00,0.7664
860.00,0.7635
859.00,0.7603
858.00,0.7570
857.00,0.7536
856.00,0.7506
855.00,0.7482
854.00,0.7463
853.00,0.7450
852.00,0.7442
851.00,0.7444
850.00,0.7453
849.00,0.7463
848.00,0.7463
847.00,0.7452
846.00,0.7435
845.00,0.7420
844.00,0.7412
843.00,0.7411
842.00,0.7418
841.00,0.7430
840.00,0.7445
839.00,0.7459
838.00,0.7471
837.00,0.7479
836.00,0.7487
835.00,0.7493
834.00,0.7496
833.00,0.7493
832.00,0.7484
831.00,0.7472
830.00,0.7457
829.00,0.7442
828.00,0.7430
827.00,0.7420
826.00,0.7411
825.00,0.7400
824.00,0.7389
823.00,0.7380
822.00,0.7372
821.00,0.7360
820.00,0.7343
819.00,0.7322
818.00,0.7301
817.00,0.7282
816.00,0.7266
815.00,0.7251
814.00,0.7237
813.00,0.7225
812.00,0.7215
811.00,0.7207
810.00,0.7202
809.00,0.7198
808.00,0.7197
807.00,0.7197
806.00,0.7197
805.00,0.7195
804.00,0.7191
803.00,0.7185
802.00,0.7176
801.00,0.7168
800.00,0.7160
799.00,0.7154
798.00,0.7150
797.00,0.7148
796.00,0.7148
795.00,0.7151
794.00,0.7156
793.00,0.7161
792.00,0.7165
791.00,0.7169
790.00,0.7173
789.00,0.7180
788.00,0.7188
787.00,0.7198
786.00,0.7206
785.00,0.7211
784.00,0.7214
783.00,0.7216
782.00,0.7219
781.00,0.7221
780.00,0.7225
779.00,0.7230
778.00,0.7237
777.00,0.7245
776.00,0.7255
775.00,0.7268
774.00,0.7285
773.00,0.7303
772.00,0.7321
771.00,0.7339
770.00,0.7357
769.00,0.7373
768.00,0.7386
767.00,0.7399
766.00,0.7412
765.00,0.7427
764.00,0.7439
763.00,0.7450
762.00,0.7459
761.00,0.7464
760.00,0.7468
759.00,0.7470
758.00,0.7475
757.00,0.7482
756.00,0.7488
755.00,0.7496
754.00,0.7506
753.00,0.7519
752.00,0.7532
751.00,0.7548
750.00,0.7567
749.00,0.7590
748.00,0.7616
747.00,0.7640
746.00,0.7664
745.00,0.7687
744.00,0.7712
743.00,0.7740
742.00,0.7771
741.00,0.7804
740.00,0.7834
739.00,0.7861
738.00,0.7889
737.00,0.7920
736.00,0.7958
735.00,0.8002
734.00,0.8051
733.00,0.8103
732.00,0.8159
731.00,0.8222
730.00,0.8294
729.00,0.8375
728.00,0.8461
727.00,0.8554
726.00,0.8659
725.00,0.8772
724.00,0.8883
723.00,0.8973
722.00,0.9029
721.00,0.9044
720.00,0.9017
719.00,0.8956
718.00,0.8882
717.00,0.8814
716.00,0.8766
715.00,0.8733
714.00,0.8702
713.00,0.8652
712.00,0.8573
711.00,0.8468
710.00,0.8350
709.00,0.8230
708.00,0.8117
707.00,0.8017
706.00,0.7932
705.00,0.7863
704.00,0.7811
703.00,0.7775
702.00,0.7753
701.00,0.7738
700.00,0.7726
699.00,0.7709
698.00,0.7684
697.00,0.7648
696.00,0.7604
695.00,0.7556
694.00,0.7513
693.00,0.7478
692.00,0.7450
691.00,0.7425
690.00,0.7401
689.00,0.7379
688.00,0.7359
687.00,0.7341
686.00,0.7320
685.00,0.7292
684.00,0.7258
683.00,0.7228
682.00,0.7206
681.00,0.7194
680.00,0.7189
679.00,0.7187
678.00,0.7189
677.00,0.7194
676.00,0.7204
675.00,0.7217
674.00,0.7229
673.00,0.7238
672.00,0.7246
671.00,0.7263
670.00,0.7287
669.00,0.7316
668.00,0.7338
667.00,0.7332
666.00,0.7302
665.00,0.7278
664.00,0.7269
663.00,0.7269
662.00,0.7273
661.00,0.7282
660.00,0.7294
659.00,0.7304
658.00,0.7311
657.00,0.7316
656.00,0.7321
655.00,0.7326
654.00,0.7325
653.00,0.7319
652.00,0.7312
651.00,0.7307
650.00,0.7307
649.00,0.7311
648.00,0.7319
647.00,0.7332
646.00,0.7346
645.00,0.7358
644.00,0.7371
643.00,0.7390
642.00,0.7415
641.00,0.7441
640.00,0.7466
639.00,0.7491
638.00,0.7519
637.00,0.7551
636.00,0.7582
635.00,0.7609
634.00,0.7632
633.00,0.7655
632.00,0.7681
631.00,0.7709
630.00,0.7735
629.00,0.7761
628.00,0.7787
627.00,0.7815
626.00,0.7842
625.00,0.7871
624.00,0.7901
623.00,0.7929
622.00,0.7949
621.00,0.7961
620.00,0.7971
619.00,0.7984
618.00,0.8002
617.00,0.8021
616.00,0.8033
615.00,0.8033
614.00,0.8018
613.00,0.7993
612.00,0.7966
611.00,0.7941
610.00,0.7919
609.00,0.7897
608.00,0.7875
607.00,0.7857
606.00,0.7841
605.00,0.7828
604.00,0.7823
603.00,0.7830
602.00,0.7845
601.00,0.7858
600.00,0.7865
599.00,0.7867
598.00,0.7871
597.00,0.7881
596.00,0.7899
595.00,0.7924
594.00,0.7950
593.00,0.7975
592.00,0.8002
591.00,0.8036
590.00,0.8076
589.00,0.8113
588.00,0.8143
587.00,0.8164
586.00,0.8177
585.00,0.8180
584.00,0.8172
583.00,0.8160
582.00,0.8152
581.00,0.8152
580.00,0.8161
579.00,0.8174
578.00,0.8187
577.00,0.8192
576.00,0.8186
575.00,0.8167
574.00,0.8135
573.00,0.8099
572.00,0.8067
571.00,0.8048
570.00,0.8043
569.00,0.8048
568.00,0.8054
567.00,0.8053
566.00,0.8044
565.00,0.8028
564.00,0.8011
563.00,0.7996
562.00,0.7983
561.00,0.7971
560.00,0.7961
559.00,0.7948
558.00,0.7928
557.00,0.7905
556.00,0.7886
555.00,0.7878
554.00,0.7876
553.00,0.7873
552.00,0.7873
551.00,0.7880
550.00,0.7891
