Created as New Dataset,
cm-1,A
4000.00,0.3273
3999.00,0.3270
3998.00,0.3267
3997.00,0.3264
3996.00,0.3261
3995.00,0.3258
3994.00,0.3255
3993.00,0.3251
3992.00,0.3248
3991.00,0.3245
3990.00,0.3242
3989.00,0.3239
3988.00,0.3235
3987.00,0.3232
3986.00,0.3228
3985.00,0.3224
3984.00,0.3220
3983.00,0.3215
3982.00,0.3211
3981.00,0.3207
3980.00,0.3203
3979.00,0.3199
3978.00,0.3195
3977.00,0.3192
3976.00,0.3189
3975.00,0.3186
3974.00,0.3182
3973.00,0.3179
3972.00,0.3175
3971.00,0.3171
3970.00,0.3168
3969.00,0.3165
3968.00,0.3162
3967.00,0.3159
3966.00,0.3156
3965.00,0.3152
3964.00,0.3149
3963.00,0.3146
3962.00,0.3142
3961.00,0.3139
3960.00,0.3136
3959.00,0.3133
3958.00,0.3130
3957.00,0.3127
3956.00,0.3125
3955.00,0.3124
3954.00,0.3123
3953.00,0.3122
3952.00,0.3120
3951.00,0.3118
3950.00,0.3116
3949.00,0.3113
3948.00,0.3110
3947.00,0.3108
3946.00,0.3107
3945.00,0.3105
3944.00,0.3103
3943.00,0.3100
3942.00,0.3099
3941.00,0.3097
3940.00,0.3096
3939.00,0.3094
3938.00,0.3092
3937.00,0.3091
3936.00,0.3090
3935.00,0.3089
3934.00,0.3089
3933.00,0.3089
3932.00,0.3089
3931.00,0.3089
3930.00,0.3089
3929.00,0.3089
3928.00,0.3090
3927.00,0.3090
3926.00,0.3090
3925.00,0.3090
3924.00,0.3090
3923.00,0.3090
3922.00,0.3090
3921.00,0.3090
3920.00,0.3090
3919.00,0.3090
3918.00,0.3090
3917.00,0.3089
3916.00,0.3087
3915.00,0.3086
3914.00,0.3084
3913.00,0.3082
3912.00,0.3080
3911.00,0.3078
3910.00,0.3076
3909.00,0.3075
3908.00,0.3075
3907.00,0.3076
3906.00,0.3077
3905.00,0.3079
3904.00,0.3081
3903.00,0.3082
3902.00,0.3083
3901.00,0.3083
3900.00,0.3082
3899.00,0.3079
3898.00,0.3076
3897.00,0.3072
3896.00,0.3070
3895.00,0.3067
3894.00,0.3066
3893.00,0.3064
3892.00,0.3061
3891.00,0.3060
3890.00,0.3060
3889.00,0.3061
3888.00,0.3061
3887.00,0.3060
3886.00,0.3059
3885.00,0.3058
3884.00,0.3059
3883.00,0.3059
3882.00,0.3058
3881.00,0.3055
3880.00,0.3053
3879.00,0.3051
3878.00,0.3049
3877.00,0.3048
3876.00,0.3047
3875.00,0.3046
3874.00,0.3046
3873.00,0.3047
3872.00,0.3049
3871.00,0.3049
3870.00,0.3048
3869.00,0.3048
3868.00,0.3048
3867.00,0.3047
3866.00,0.3045
3865.00,0.3042
3864.00,0.3039
3863.00,0.3035
3862.00,0.3032
3861.00,0.3028
3860.00,0.3026
3859.00,0.3026
3858.00,0.3028
3857.00,0.3031
3856.00,0.3035
3855.00,0.3036
3854.00,0.3038
3853.00,0.3042
3852.00,0.3044
3851.00,0.3043
3850.00,0.3038
3849.00,0.3032
3848.00,0.3025
3847.00,0.3019
3846.00,0.3016
3845.00,0.3014
3844.00,0.3015
3843.00,0.3017
3842.00,0.3019
3841.00,0.3022
3840.00,0.3023
3839.00,0.3023
3838.00,0.3023
3837.00,0.3022
3836.00,0.3020
3835.00,0.3018
3834.00,0.3015
3833.00,0.3011
3832.00,0.3007
3831.00,0.3003
3830.00,0.3000
3829.00,0.2998
3828.00,0.2996
3827.00,0.2995
3826.00,0.2995
3825.00,0.2997
3824.00,0.2999
3823.00,0.3000
3822.00,0.3000
3821.00,0.3000
3820.00,0.3001
3819.00,0.3002
3818.00,0.3001
3817.00,0.2999
3816.00,0.2995
3815.00,0.2992
3814.00,0.2988
3813.00,0.2983
3812.00,0.2979
3811.00,0.2975
3810.00,0.2973
3809.00,0.2971
3808.00,0.2970
3807.00,0.2969
3806.00,0.2970
3805.00,0.2972
3804.00,0.2972
3803.00,0.2971
3802.00,0.2969
3801.00,0.2967
3800.00,0.2965
3799.00,0.2963
3798.00,0.2960
3797.00,0.2956
3796.00,0.2951
3795.00,0.2947
3794.00,0.2943
3793.00,0.2938
3792.00,0.2934
3791.00,0.2930
3790.00,0.2927
3789.00,0.2925
3788.00,0.2922
3787.00,0.2920
3786.00,0.2919
3785.00,0.2918
3784.00,0.2918
3783.00,0.2919
3782.00,0.2920
3781.00,0.2920
3780.00,0.2919
3779.00,0.2918
3778.00,0.2917
3777.00,0.2916
3776.00,0.2914
3775.00,0.2913
3774.00,0.2912
3773.00,0.2913
3772.00,0.2912
3771.00,0.2912
3770.00,0.2911
3769.00,0.2910
3768.00,0.2910
3767.00,0.2909
3766.00,0.2907
3765.00,0.2905
3764.00,0.2903
3763.00,0.2901
3762.00,0.2900
3761.00,0.2898
3760.00,0.2897
3759.00,0.2896
3758.00,0.2896
3757.00,0.2897
3756.00,0.2899
3755.00,0.2901
3754.00,0.2903
3753.00,0.2905
3752.00,0.2906
3751.00,0.2908
3750.00,0.2911
3749.00,0.2913
3748.00,0.2915
3747.00,0.2915
3746.00,0.2913
3745.00,0.2909
3744.00,0.2906
3743.00,0.2904
3742.00,0.2901
3741.00,0.2898
3740.00,0.2895
3739.00,0.2893
3738.00,0.2891
3737.00,0.2890
3736.00,0.2889
3735.00,0.2888
3734.00,0.2887
3733.00,0.2885
3732.00,0.2881
3731.00,0.2877
3730.00,0.2873
3729.00,0.2869
3728.00,0.2864
3727.00,0.2859
3726.00,0.2856
3725.00,0.2854
3724.00,0.2853
3723.00,0.2852
3722.00,0.2850
3721.00,0.2849
3720.00,0.2846
3719.00,0.2844
3718.00,0.2842
3717.00,0.2841
3716.00,0.2841
3715.00,0.2843
3714.00,0.2846
3713.00,0.2850
3712.00,0.2854
3711.00,0.2857
3710.00,0.2859
3709.00,0.2858
3708.00,0.2857
3707.00,0.2854
3706.00,0.2852
3705.00,0.2850
3704.00,0.2848
3703.00,0.2847
3702.00,0.2846
3701.00,0.2845
3700.00,0.2846
3699.00,0.2847
3698.00,0.2848
3697.00,0.2847
3696.00,0.2848
3695.00,0.2849
3694.00,0.2851
3693.00,0.2855
3692.00,0.2859
3691.00,0.2863
3690.00,0.2866
3689.00,0.2868
3688.00,0.2870
3687.00,0.2871
3686.00,0.2869
3685.00,0.2867
3684.00,0.2864
3683.00,0.2862
3682.00,0.2862
3681.00,0.2863
3680.00,0.2866
3679.00,0.2870
3678.00,0.2875
3677.00,0.2879
3676.00,0.2882
3675.00,0.2885
3674.00,0.2889
3673.00,0.2892
3672.00,0.2893
3671.00,0.2892
3670.00,0.2890
3669.00,0.2888
3668.00,0.2885
3667.00,0.2882
3666.00,0.2879
3665.00,0.2875
3664.00,0.2872
3663.00,0.2870
3662.00,0.2869
3661.00,0.2870
3660.00,0.2873
3659.00,0.2875
3658.00,0.2878
3657.00,0.2881
3656.00,0.2885
3655.00,0.2891
3654.00,0.2897
3653.00,0.2904
3652.00,0.2909
3651.00,0.2913
3650.00,0.2919
3649.00,0.2924
3648.00,0.2929
3647.00,0.2932
3646.00,0.2932
3645.00,0.2930
3644.00,0.2928
3643.00,0.2926
3642.00,0.2925
3641.00,0.2927
3640.00,0.2930
3639.00,0.2934
3638.00,0.2940
3637.00,0.2947
3636.00,0.2955
3635.00,0.2964
3634.00,0.2973
3633.00,0.2982
3632.00,0.2992
3631.00,0.3000
3630.00,0.3007
3629.00,0.3014
3628.00,0.3021
3627.00,0.3026
3626.00,0.3030
3625.00,0.3031
3624.00,0.3030
3623.00,0.3028
3622.00,0.3024
3621.00,0.3018
3620.00,0.3010
3619.00,0.3001
3618.00,0.2992
3617.00,0.2984
3616.00,0.2978
3615.00,0.2974
3614.00,0.2971
3613.00,0.2970
3612.00,0.2971
3611.00,0.2973
3610.00,0.2975
3609.00,0.2976
3608.00,0.2978
3607.00,0.2978
3606.00,0.2977
3605.00,0.2975
3604.00,0.2971
3603.00,0.2966
3602.00,0.2959
3601.00,0.2951
3600.00,0.2942
3599.00,0.2933
3598.00,0.2923
3597.00,0.2913
3596.00,0.2903
3595.00,0.2892
3594.00,0.2882
3593.00,0.2873
3592.00,0.2866
3591.00,0.2859
3590.00,0.2854
3589.00,0.2848
3588.00,0.2843
3587.00,0.2838
3586.00,0.2833
3585.00,0.2828
3584.00,0.2822
3583.00,0.2817
3582.00,0.2811
3581.00,0.2806
3580.00,0.2802
3579.00,0.2799
3578.00,0.2797
3577.00,0.2795
3576.00,0.2793
3575.00,0.2793
3574.00,0.2792
3573.00,0.2793
3572.00,0.2794
3571.00,0.2796
3570.00,0.2798
3569.00,0.2799
3568.00,0.2801
3567.00,0.2803
3566.00,0.2806
3565.00,0.2808
3564.00,0.2808
3563.00,0.2808
3562.00,0.2807
3561.00,0.2806
3560.00,0.2806
3559.00,0.2807
3558.00,0.2808
3557.00,0.2809
3556.00,0.2810
3555.00,0.2812
3554.00,0.2814
3553.00,0.2817
3552.00,0.2820
3551.00,0.2823
3550.00,0.2826
3549.00,0.2829
3548.00,0.2833
3547.00,0.2836
3546.00,0.2840
3545.00,0.2844
3544.00,0.2847
3543.00,0.2850
3542.00,0.2853
3541.00,0.2857
3540.00,0.2860
3539.00,0.2864
3538.00,0.2869
3537.00,0.2873
3536.00,0.2877
3535.00,0.2882
3534.00,0.2887
3533.00,0.2892
3532.00,0.2897
3531.00,0.2902
3530.00,0.2907
3529.00,0.2912
3528.00,0.2918
3527.00,0.2923
3526.00,0.2929
3525.00,0.2934
3524.00,0.2940
3523.00,0.2945
3522.00,0.2950
3521.00,0.2955
3520.00,0.2960
3519.00,0.2964
3518.00,0.2969
3517.00,0.2975
3516.00,0.2980
3515.00,0.2985
3514.00,0.2991
3513.00,0.2997
3512.00,0.3004
3511.00,0.3010
3510.00,0.3017
3509.00,0.3023
3508.00,0.3029
3507.00,0.3036
3506.00,0.3043
3505.00,0.3050
3504.00,0.3058
3503.00,0.3065
3502.00,0.3072
3501.00,0.3080
3500.00,0.3087
3499.00,0.3094
3498.00,0.3101
3497.00,0.3109
3496.00,0.3117
3495.00,0.3125
3494.00,0.3134
3493.00,0.3143
3492.00,0.3152
3491.00,0.3161
3490.00,0.3169
3489.00,0.3178
3488.00,0.3187
3487.00,0.3196
3486.00,0.3205
3485.00,0.3214
3484.00,0.3223
3483.00,0.3232
3482.00,0.3240
3481.00,0.3248
3480.00,0.3256
3479.00,0.3263
3478.00,0.3271
3477.00,0.3279
3476.00,0.3287
3475.00,0.3295
3474.00,0.3303
3473.00,0.3312
3472.00,0.3321
3471.00,0.3329
3470.00,0.3338
3469.00,0.3348
3468.00,0.3359
3467.00,0.3369
3466.00,0.3380
3465.00,0.3390
3464.00,0.3400
3463.00,0.3410
3462.00,0.3420
3461.00,0.3430
3460.00,0.3440
3459.00,0.3451
3458.00,0.3462
3457.00,0.3473
3456.00,0.3484
3455.00,0.3497
3454.00,0.3509
3453.00,0.3522
3452.00,0.3536
3451.00,0.3549
3450.00,0.3563
3449.00,0.3577
3448.00,0.3593
3447.00,0.3610
3446.00,0.3627
3445.00,0.3644
3444.00,0.3660
3443.00,0.3678
3442.00,0.3695
3441.00,0.3713
3440.00,0.3731
3439.00,0.3748
3438.00,0.3764
3437.00,0.3779
3436.00,0.3794
3435.00,0.3807
3434.00,0.3819
3433.00,0.3831
3432.00,0.3842
3431.00,0.3855
3430.00,0.3867
3429.00,0.3878
3428.00,0.3890
3427.00,0.3903
3426.00,0.3915
3425.00,0.3928
3424.00,0.3940
3423.00,0.3953
3422.00,0.3965
3421.00,0.3978
3420.00,0.3991
3419.00,0.4004
3418.00,0.4018
3417.00,0.4031
3416.00,0.4045
3415.00,0.4059
3414.00,0.4074
3413.00,0.4089
3412.00,0.4104
3411.00,0.4119
3410.00,0.4135
3409.00,0.4150
3408.00,0.4165
3407.00,0.4181
3406.00,0.4197
3405.00,0.4213
3404.00,0.4229
3403.00,0.4246
3402.00,0.4263
3401.00,0.4279
3400.00,0.4295
3399.00,0.4311
3398.00,0.4327
3397.00,0.4343
3396.00,0.4360
3395.00,0.4376
3394.00,0.4393
3393.00,0.4410
3392.00,0.4427
3391.00,0.4443
3390.00,0.4459
3389.00,0.4475
3388.00,0.4491
3387.00,0.4507
3386.00,0.4524
3385.00,0.4541
3384.00,0.4558
3383.00,0.4575
3382.00,0.4591
3381.00,0.4608
3380.00,0.4626
3379.00,0.4645
3378.00,0.4664
3377.00,0.4683
3376.00,0.4703
3375.00,0.4722
3374.00,0.4741
3373.00,0.4759
3372.00,0.4778
3371.00,0.4798
3370.00,0.4819
3369.00,0.4841
3368.00,0.4862
3367.00,0.4884
3366.00,0.4905
3365.00,0.4927
3364.00,0.4950
3363.00,0.4973
3362.00,0.4996
3361.00,0.5018
3360.00,0.5040
3359.00,0.5061
3358.00,0.5082
3357.00,0.5104
3356.00,0.5126
3355.00,0.5149
3354.00,0.5171
3353.00,0.5193
3352.00,0.5215
3351.00,0.5236
3350.00,0.5257
3349.00,0.5277
3348.00,0.5297
3347.00,0.5316
3346.00,0.5334
3345.00,0.5351
3344.00,0.5368
3343.00,0.5384
3342.00,0.5400
3341.00,0.5415
3340.00,0.5428
3339.00,0.5440
3338.00,0.5451
3337.00,0.5461
3336.00,0.5470
3335.00,0.5479
3334.00,0.5486
3333.00,0.5492
3332.00,0.5496
3331.00,0.5500
3330.00,0.5503
3329.00,0.5506
3328.00,0.5506
3327.00,0.5506
3326.00,0.5503
3325.00,0.5500
3324.00,0.5496
3323.00,0.5491
3322.00,0.5485
3321.00,0.5478
3320.00,0.5471
3319.00,0.5463
3318.00,0.5454
3317.00,0.5445
3316.00,0.5436
3315.00,0.5425
3314.00,0.5414
3313.00,0.5402
3312.00,0.5391
3311.00,0.5381
3310.00,0.5371
3309.00,0.5361
3308.00,0.5351
3307.00,0.5341
3306.00,0.5330
3305.00,0.5320
3304.00,0.5309
3303.00,0.5299
3302.00,0.5289
3301.00,0.5281
3300.00,0.5272
3299.00,0.5264
3298.00,0.5256
3297.00,0.5249
3296.00,0.5242
3295.00,0.5235
3294.00,0.5228
3293.00,0.5222
3292.00,0.5217
3291.00,0.5212
3290.00,0.5209
3289.00,0.5206
3288.00,0.5204
3287.00,0.5202
3286.00,0.5200
3285.00,0.5198
3284.00,0.5197
3283.00,0.5196
3282.00,0.5196
3281.00,0.5196
3280.00,0.5196
3279.00,0.5197
3278.00,0.5198
3277.00,0.5200
3276.00,0.5203
3275.00,0.5205
3274.00,0.5207
3273.00,0.5209
3272.00,0.5211
3271.00,0.5214
3270.00,0.5217
3269.00,0.5220
3268.00,0.5225
3267.00,0.5229
3266.00,0.5233
3265.00,0.5236
3264.00,0.5238
3263.00,0.5240
3262.00,0.5243
3261.00,0.5246
3260.00,0.5249
3259.00,0.5252
3258.00,0.5255
3257.00,0.5257
3256.00,0.5260
3255.00,0.5261
3254.00,0.5262
3253.00,0.5262
3252.00,0.5262
3251.00,0.5261
3250.00,0.5260
3249.00,0.5259
3248.00,0.5258
3247.00,0.5257
3246.00,0.5255
3245.00,0.5253
3244.00,0.5250
3243.00,0.5246
3242.00,0.5242
3241.00,0.5237
3240.00,0.5231
3239.00,0.5226
3238.00,0.5220
3237.00,0.5214
3236.00,0.5207
3235.00,0.5200
3234.00,0.5192
3233.00,0.5184
3232.00,0.5176
3231.00,0.5168
3230.00,0.5159
3229.00,0.5149
3228.00,0.5138
3227.00,0.5128
3226.00,0.5117
3225.00,0.5107
3224.00,0.5097
3223.00,0.5087
3222.00,0.5076
3221.00,0.5065
3220.00,0.5054
3219.00,0.5042
3218.00,0.5030
3217.00,0.5017
3216.00,0.5005
3215.00,0.4993
3214.00,0.4981
3213.00,0.4970
3212.00,0.4959
3211.00,0.4947
3210.00,0.4935
3209.00,0.4923
3208.00,0.4911
3207.00,0.4899
3206.00,0.4887
3205.00,0.4875
3204.00,0.4864
3203.00,0.4852
3202.00,0.4840
3201.00,0.4829
3200.00,0.4817
3199.00,0.4807
3198.00,0.4796
3197.00,0.4785
3196.00,0.4774
3195.00,0.4762
3194.00,0.4750
3193.00,0.4737
3192.00,0.4724
3191.00,0.4711
3190.00,0.4698
3189.00,0.4685
3188.00,0.4672
3187.00,0.4659
3186.00,0.4646
3185.00,0.4633
3184.00,0.4620
3183.00,0.4607
3182.00,0.4594
3181.00,0.4580
3180.00,0.4566
3179.00,0.4552
3178.00,0.4538
3177.00,0.4525
3176.00,0.4512
3175.00,0.4499
3174.00,0.4486
3173.00,0.4472
3172.00,0.4458
3171.00,0.4445
3170.00,0.4432
3169.00,0.4420
3168.00,0.4408
3167.00,0.4396
3166.00,0.4383
3165.00,0.4370
3164.00,0.4358
3163.00,0.4347
3162.00,0.4337
3161.00,0.4327
3160.00,0.4316
3159.00,0.4306
3158.00,0.4295
3157.00,0.4284
3156.00,0.4273
3155.00,0.4262
3154.00,0.4252
3153.00,0.4242
3152.00,0.4232
3151.00,0.4223
3150.00,0.4213
3149.00,0.4205
3148.00,0.4197
3147.00,0.4189
3146.00,0.4181
3145.00,0.4173
3144.00,0.4165
3143.00,0.4157
3142.00,0.4148
3141.00,0.4141
3140.00,0.4134
3139.00,0.4128
3138.00,0.4122
3137.00,0.4116
3136.00,0.4109
3135.00,0.4103
3134.00,0.4097
3133.00,0.4091
3132.00,0.4086
3131.00,0.4082
3130.00,0.4077
3129.00,0.4073
3128.00,0.4069
3127.00,0.4065
3126.00,0.4062
3125.00,0.4059
3124.00,0.4056
3123.00,0.4054
3122.00,0.4053
3121.00,0.4051
3120.00,0.4050
3119.00,0.4050
3118.00,0.4050
3117.00,0.4051
3116.00,0.4052
3115.00,0.4054
3114.00,0.4056
3113.00,0.4058
3112.00,0.4061
3111.00,0.4065
3110.00,0.4070
3109.00,0.4077
3108.00,0.4084
3107.00,0.4093
3106.00,0.4103
3105.00,0.4114
3104.00,0.4127
3103.00,0.4140
3102.00,0.4153
3101.00,0.4166
3100.00,0.4179
3099.00,0.4190
3098.00,0.4200
3097.00,0.4208
3096.00,0.4217
3095.00,0.4224
3094.00,0.4232
3093.00,0.4241
3092.00,0.4251
3091.00,0.4263
3090.00,0.4276
3089.00,0.4292
3088.00,0.4309
3087.00,0.4328
3086.00,0.4349
3085.00,0.4372
3084.00,0.4397
3083.00,0.4424
3082.00,0.4451
3081.00,0.4480
3080.00,0.4509
3079.00,0.4539
3078.00,0.4570
3077.00,0.4601
3076.00,0.4633
3075.00,0.4666
3074.00,0.4699
3073.00,0.4731
3072.00,0.4762
3071.00,0.4792
3070.00,0.4821
3069.00,0.4850
3068.00,0.4881
3067.00,0.4913
3066.00,0.4946
3065.00,0.4980
3064.00,0.5015
3063.00,0.5049
3062.00,0.5083
3061.00,0.5116
3060.00,0.5149
3059.00,0.5180
3058.00,0.5209
3057.00,0.5237
3056.00,0.5265
3055.00,0.5294
3054.00,0.5325
3053.00,0.5358
3052.00,0.5393
3051.00,0.5431
3050.00,0.5472
3049.00,0.5516
3048.00,0.5563
3047.00,0.5610
3046.00,0.5655
3045.00,0.5697
3044.00,0.5735
3043.00,0.5771
3042.00,0.5805
3041.00,0.5840
3040.00,0.5876
3039.00,0.5914
3038.00,0.5955
3037.00,0.6001
3036.00,0.6051
3035.00,0.6105
3034.00,0.6162
3033.00,0.6223
3032.00,0.6286
3031.00,0.6350
3030.00,0.6416
3029.00,0.6481
3028.00,0.6546
3027.00,0.6612
3026.00,0.6680
3025.00,0.6751
3024.00,0.6826
3023.00,0.6904
3022.00,0.6984
3021.00,0.7068
3020.00,0.7155
3019.00,0.7245
3018.00,0.7338
3017.00,0.7433
3016.00,0.7531
3015.00,0.7633
3014.00,0.7740
3013.00,0.7854
3012.00,0.7974
3011.00,0.8102
3010.00,0.8237
3009.00,0.8379
3008.00,0.8527
3007.00,0.8683
3006.00,0.8845
3005.00,0.9013
3004.00,0.9189
3003.00,0.9372
3002.00,0.9565
3001.00,0.9770
3000.00,0.9987
2999.00,1.0220
2998.00,1.0469
2997.00,1.0734
2996.00,1.1018
2995.00,1.1322
2994.00,1.1652
2993.00,1.2010
2992.00,1.2399
2991.00,1.2824
2990.00,1.3291
2989.00,1.3802
2988.00,1.4361
2987.00,1.4975
2986.00,1.5652
2985.00,1.6401
2984.00,1.7225
2983.00,1.8131
2982.00,1.9125
2981.00,2.0224
2980.00,2.1444
2979.00,2.2808
2978.00,2.4341
2977.00,2.6062
2976.00,2.7989
2975.00,3.0140
2974.00,3.2470
2973.00,3.4671
2972.00,3.6163
2971.00,3.6911
2970.00,3.7418
2969.00,3.8105
2968.00,3.9014
2967.00,4.0713
2966.00,4.2763
2965.00,4.2159
2964.00,4.1203
2963.00,4.1104
2962.00,4.2594
2961.00,4.3329
2960.00,4.1427
2959.00,4.0195
2958.00,3.9952
2957.00,4.0625
2956.00,4.0450
2955.00,3.9635
2954.00,3.9663
2953.00,4.0869
2952.00,4.2181
2951.00,4.1990
2950.00,4.1204
2949.00,4.0918
2948.00,4.2069
2947.00,4.2131
2946.00,3.9782
2945.00,3.8160
2944.00,3.7966
2943.00,3.8926
2942.00,3.9614
2941.00,3.9609
2940.00,3.9468
2939.00,3.9215
2938.00,3.9583
2937.00,4.1254
2936.00,4.2830
2935.00,4.2244
2934.00,4.1110
2933.00,4.0646
2932.00,4.0334
2931.00,3.9526
2930.00,3.8951
2929.00,3.8492
2928.00,3.8217
2927.00,3.8228
2926.00,3.8047
2925.00,3.7671
2924.00,3.7500
2923.00,3.7875
2922.00,3.8741
2921.00,4.0183
2920.00,4.1477
2919.00,4.1279
2918.00,4.0560
2917.00,4.0536
2916.00,4.1561
2915.00,4.1986
2914.00,4.1807
2913.00,4.3257
2912.00,4.4510
2911.00,4.2315
2910.00,4.0043
2909.00,3.9159
2908.00,3.9215
2907.00,3.8665
2906.00,3.8002
2905.00,3.7679
2904.00,3.7720
2903.00,3.8242
2902.00,3.8483
2901.00,3.7944
2900.00,3.6814
2899.00,3.5740
2898.00,3.5192
2897.00,3.5320
2896.00,3.6141
2895.00,3.7127
2894.00,3.7626
2893.00,3.8170
2892.00,3.9217
2891.00,4.0013
2890.00,3.9649
2889.00,3.9020
2888.00,3.9127
2887.00,4.0527
2886.00,4.2300
2885.00,4.1848
2884.00,4.0399
2883.00,4.0269
2882.00,4.2767
2881.00,4.3382
2880.00,4.0445
2879.00,3.8860
2878.00,3.9197
2877.00,4.1350
2876.00,4.2810
2875.00,4.2170
2874.00,4.0969
2873.00,4.0168
2872.00,3.9789
2871.00,3.9279
2870.00,3.8952
2869.00,3.9312
2868.00,4.0220
2867.00,4.1287
2866.00,4.2143
2865.00,4.1327
2864.00,3.9506
2863.00,3.8428
2862.00,3.8648
2861.00,3.9775
2860.00,4.0627
2859.00,4.1367
2858.00,4.3314
2857.00,4.7290
2856.00,5.0093
2855.00,5.0254
2854.00,5.0339
2853.00,5.2074
2852.00,5.0232
2851.00,4.4229
2850.00,4.1365
2849.00,4.0259
2848.00,4.1752
2847.00,4.6107
2846.00,4.6799
2845.00,4.4373
2844.00,4.2309
2843.00,4.1371
2842.00,3.9810
2841.00,3.8244
2840.00,3.6557
2839.00,3.4162
2838.00,3.1551
2837.00,2.9149
2836.00,2.7082
2835.00,2.5292
2834.00,2.3717
2833.00,2.2323
2832.00,2.1086
2831.00,1.9983
2830.00,1.8982
2829.00,1.8063
2828.00,1.7225
2827.00,1.6471
2826.00,1.5794
2825.00,1.5180
2824.00,1.4618
2823.00,1.4100
2822.00,1.3621
2821.00,1.3177
2820.00,1.2765
2819.00,1.2384
2818.00,1.2031
2817.00,1.1703
2816.00,1.1396
2815.00,1.1106
2814.00,1.0832
2813.00,1.0571
2812.00,1.0323
2811.00,1.0087
2810.00,0.9864
2809.00,0.9653
2808.00,0.9450
2807.00,0.9257
2806.00,0.9071
2805.00,0.8891
2804.00,0.8718
2803.00,0.8552
2802.00,0.8393
2801.00,0.8239
2800.00,0.8091
2799.00,0.7948
2798.00,0.7810
2797.00,0.7677
2796.00,0.7549
2795.00,0.7427
2794.00,0.7311
2793.00,0.7200
2792.00,0.7093
2791.00,0.6989
2790.00,0.6888
2789.00,0.6790
2788.00,0.6693
2787.00,0.6598
2786.00,0.6503
2785.00,0.6410
2784.00,0.6320
2783.00,0.6232
2782.00,0.6147
2781.00,0.6064
2780.00,0.5984
2779.00,0.5906
2778.00,0.5833
2777.00,0.5764
2776.00,0.5699
2775.00,0.5636
2774.00,0.5579
2773.00,0.5525
2772.00,0.5476
2771.00,0.5431
2770.00,0.5390
2769.00,0.5353
2768.00,0.5320
2767.00,0.5290
2766.00,0.5265
2765.00,0.5243
2764.00,0.5224
2763.00,0.5207
2762.00,0.5193
2761.00,0.5179
2760.00,0.5167
2759.00,0.5155
2758.00,0.5145
2757.00,0.5136
2756.00,0.5127
2755.00,0.5120
2754.00,0.5114
2753.00,0.5109
2752.00,0.5106
2751.00,0.5105
2750.00,0.5106
2749.00,0.5109
2748.00,0.5114
2747.00,0.5121
2746.00,0.5130
2745.00,0.5141
2744.00,0.5154
2743.00,0.5169
2742.00,0.5188
2741.00,0.5210
2740.00,0.5234
2739.00,0.5263
2738.00,0.5296
2737.00,0.5332
2736.00,0.5371
2735.00,0.5413
2734.00,0.5457
2733.00,0.5499
2732.00,0.5535
2731.00,0.5561
2730.00,0.5571
2729.00,0.5566
2728.00,0.5547
2727.00,0.5516
2726.00,0.5478
2725.00,0.5437
2724.00,0.5397
2723.00,0.5359
2722.00,0.5323
2721.00,0.5289
2720.00,0.5257
2719.00,0.5227
2718.00,0.5197
2717.00,0.5167
2716.00,0.5136
2715.00,0.5104
2714.00,0.5072
2713.00,0.5040
2712.00,0.5008
2711.00,0.4979
2710.00,0.4952
2709.00,0.4929
2708.00,0.4908
2707.00,0.4890
2706.00,0.4875
2705.00,0.4862
2704.00,0.4853
2703.00,0.4846
2702.00,0.4843
2701.00,0.4843
2700.00,0.4845
2699.00,0.4850
2698.00,0.4857
2697.00,0.4866
2696.00,0.4878
2695.00,0.4893
2694.00,0.4910
2693.00,0.4929
2692.00,0.4949
2691.00,0.4969
2690.00,0.4988
2689.00,0.5006
2688.00,0.5022
2687.00,0.5038
2686.00,0.5051
2685.00,0.5062
2684.00,0.5071
2683.00,0.5077
2682.00,0.5081
2681.00,0.5084
2680.00,0.5086
2679.00,0.5087
2678.00,0.5087
2677.00,0.5087
2676.00,0.5086
2675.00,0.5085
2674.00,0.5083
2673.00,0.5080
2672.00,0.5075
2671.00,0.5068
2670.00,0.5057
2669.00,0.5044
2668.00,0.5027
2667.00,0.5007
2666.00,0.4984
2665.00,0.4959
2664.00,0.4934
2663.00,0.4908
2662.00,0.4882
2661.00,0.4855
2660.00,0.4830
2659.00,0.4806
2658.00,0.4783
2657.00,0.4762
2656.00,0.4742
2655.00,0.4722
2654.00,0.4704
2653.00,0.4686
2652.00,0.4668
2651.00,0.4651
2650.00,0.4633
2649.00,0.4616
2648.00,0.4599
2647.00,0.4582
2646.00,0.4565
2645.00,0.4549
2644.00,0.4534
2643.00,0.4519
2642.00,0.4504
2641.00,0.4491
2640.00,0.4478
2639.00,0.4466
2638.00,0.4455
2637.00,0.4444
2636.00,0.4433
2635.00,0.4422
2634.00,0.4412
2633.00,0.4401
2632.00,0.4391
2631.00,0.4380
2630.00,0.4370
2629.00,0.4359
2628.00,0.4348
2627.00,0.4337
2626.00,0.4325
2625.00,0.4313
2624.00,0.4301
2623.00,0.4289
2622.00,0.4277
2621.00,0.4266
2620.00,0.4254
2619.00,0.4242
2618.00,0.4230
2617.00,0.4218
2616.00,0.4206
2615.00,0.4194
2614.00,0.4183
2613.00,0.4171
2612.00,0.4160
2611.00,0.4149
2610.00,0.4138
2609.00,0.4127
2608.00,0.4117
2607.00,0.4108
2606.00,0.4099
2605.00,0.4090
2604.00,0.4080
2603.00,0.4069
2602.00,0.4058
2601.00,0.4046
2600.00,0.4034
2599.00,0.4021
2598.00,0.4006
2597.00,0.3992
2596.00,0.3976
2595.00,0.3960
2594.00,0.3943
2593.00,0.3926
2592.00,0.3910
2591.00,0.3893
2590.00,0.3877
2589.00,0.3861
2588.00,0.3845
2587.00,0.3829
2586.00,0.3813
2585.00,0.3797
2584.00,0.3781
2583.00,0.3765
2582.00,0.3748
2581.00,0.3731
2580.00,0.3715
2579.00,0.3699
2578.00,0.3683
2577.00,0.3667
2576.00,0.3652
2575.00,0.3638
2574.00,0.3625
2573.00,0.3612
2572.00,0.3600
2571.00,0.3587
2570.00,0.3575
2569.00,0.3563
2568.00,0.3551
2567.00,0.3539
2566.00,0.3526
2565.00,0.3513
2564.00,0.3500
2563.00,0.3486
2562.00,0.3471
2561.00,0.3457
2560.00,0.3443
2559.00,0.3430
2558.00,0.3417
2557.00,0.3405
2556.00,0.3393
2555.00,0.3380
2554.00,0.3368
2553.00,0.3356
2552.00,0.3344
2551.00,0.3334
2550.00,0.3324
2549.00,0.3315
2548.00,0.3306
2547.00,0.3299
2546.00,0.3291
2545.00,0.3283
2544.00,0.3276
2543.00,0.3268
2542.00,0.3260
2541.00,0.3254
2540.00,0.3248
2539.00,0.3242
2538.00,0.3236
2537.00,0.3231
2536.00,0.3226
2535.00,0.3220
2534.00,0.3215
2533.00,0.3209
2532.00,0.3203
2531.00,0.3195
2530.00,0.3187
2529.00,0.3178
2528.00,0.3168
2527.00,0.3157
2526.00,0.3146
2525.00,0.3135
2524.00,0.3123
2523.00,0.3111
2522.00,0.3099
2521.00,0.3087
2520.00,0.3076
2519.00,0.3066
2518.00,0.3055
2517.00,0.3045
2516.00,0.3035
2515.00,0.3025
2514.00,0.3016
2513.00,0.3007
2512.00,0.2999
2511.00,0.2991
2510.00,0.2983
2509.00,0.2976
2508.00,0.2969
2507.00,0.2963
2506.00,0.2957
2505.00,0.2953
2504.00,0.2950
2503.00,0.2947
2502.00,0.2945
2501.00,0.2944
2500.00,0.2943
2499.00,0.2942
2498.00,0.2941
2497.00,0.2940
2496.00,0.2938
2495.00,0.2936
2494.00,0.2933
2493.00,0.2930
2492.00,0.2926
2491.00,0.2922
2490.00,0.2917
2489.00,0.2911
2488.00,0.2905
2487.00,0.2898
2486.00,0.2891
2485.00,0.2884
2484.00,0.2877
2483.00,0.2869
2482.00,0.2861
2481.00,0.2853
2480.00,0.2846
2479.00,0.2839
2478.00,0.2833
2477.00,0.2826
2476.00,0.2820
2475.00,0.2814
2474.00,0.2808
2473.00,0.2802
2472.00,0.2797
2471.00,0.2793
2470.00,0.2789
2469.00,0.2785
2468.00,0.2781
2467.00,0.2777
2466.00,0.2774
2465.00,0.2771
2464.00,0.2768
2463.00,0.2765
2462.00,0.2763
2461.00,0.2761
2460.00,0.2760
2459.00,0.2758
2458.00,0.2756
2457.00,0.2754
2456.00,0.2752
2455.00,0.2751
2454.00,0.2750
2453.00,0.2749
2452.00,0.2748
2451.00,0.2747
2450.00,0.2745
2449.00,0.2745
2448.00,0.2744
2447.00,0.2744
2446.00,0.2744
2445.00,0.2745
2444.00,0.2745
2443.00,0.2745
2442.00,0.2745
2441.00,0.2744
2440.00,0.2744
2439.00,0.2745
2438.00,0.2745
2437.00,0.2745
2436.00,0.2746
2435.00,0.2746
2434.00,0.2745
2433.00,0.2746
2432.00,0.2746
2431.00,0.2748
2430.00,0.2749
2429.00,0.2751
2428.00,0.2752
2427.00,0.2753
2426.00,0.2754
2425.00,0.2756
2424.00,0.2758
2423.00,0.2759
2422.00,0.2761
2421.00,0.2763
2420.00,0.2765
2419.00,0.2767
2418.00,0.2768
2417.00,0.2769
2416.00,0.2771
2415.00,0.2773
2414.00,0.2774
2413.00,0.2775
2412.00,0.2776
2411.00,0.2777
2410.00,0.2778
2409.00,0.2778
2408.00,0.2779
2407.00,0.2779
2406.00,0.2779
2405.00,0.2779
2404.00,0.2779
2403.00,0.2779
2402.00,0.2779
2401.00,0.2779
2400.00,0.2779
2399.00,0.2778
2398.00,0.2778
2397.00,0.2778
2396.00,0.2779
2395.00,0.2779
2394.00,0.2779
2393.00,0.2780
2392.00,0.2782
2391.00,0.2783
2390.00,0.2785
2389.00,0.2787
2388.00,0.2790
2387.00,0.2793
2386.00,0.2796
2385.00,0.2799
2384.00,0.2801
2383.00,0.2804
2382.00,0.2806
2381.00,0.2809
2380.00,0.2812
2379.00,0.2813
2378.00,0.2814
2377.00,0.2814
2376.00,0.2813
2375.00,0.2811
2374.00,0.2809
2373.00,0.2808
2372.00,0.2808
2371.00,0.2808
2370.00,0.2808
2369.00,0.2809
2368.00,0.2808
2367.00,0.2807
2366.00,0.2807
2365.00,0.2807
2364.00,0.2808
2363.00,0.2808
2362.00,0.2808
2361.00,0.2808
2360.00,0.2808
2359.00,0.2807
2358.00,0.2807
2357.00,0.2807
2356.00,0.2808
2355.00,0.2809
2354.00,0.2813
2353.00,0.2815
2352.00,0.2813
2351.00,0.2808
2350.00,0.2801
2349.00,0.2794
2348.00,0.2790
2347.00,0.2788
2346.00,0.2787
2345.00,0.2788
2344.00,0.2790
2343.00,0.2791
2342.00,0.2792
2341.00,0.2792
2340.00,0.2792
2339.00,0.2792
2338.00,0.2791
2337.00,0.2791
2336.00,0.2789
2335.00,0.2787
2334.00,0.2785
2333.00,0.2782
2332.00,0.2778
2331.00,0.2774
2330.00,0.2770
2329.00,0.2766
2328.00,0.2761
2327.00,0.2757
2326.00,0.2752
2325.00,0.2748
2324.00,0.2745
2323.00,0.2743
2322.00,0.2739
2321.00,0.2736
2320.00,0.2732
2319.00,0.2728
2318.00,0.2725
2317.00,0.2722
2316.00,0.2719
2315.00,0.2717
2314.00,0.2714
2313.00,0.2712
2312.00,0.2709
2311.00,0.2706
2310.00,0.2702
2309.00,0.2697
2308.00,0.2692
2307.00,0.2686
2306.00,0.2680
2305.00,0.2676
2304.00,0.2673
2303.00,0.2669
2302.00,0.2666
2301.00,0.2662
2300.00,0.2658
2299.00,0.2654
2298.00,0.2651
2297.00,0.2648
2296.00,0.2644
2295.00,0.2641
2294.00,0.2637
2293.00,0.2633
2292.00,0.2628
2291.00,0.2623
2290.00,0.2617
2289.00,0.2612
2288.00,0.2606
2287.00,0.2601
2286.00,0.2596
2285.00,0.2592
2284.00,0.2588
2283.00,0.2584
2282.00,0.2581
2281.00,0.2578
2280.00,0.2574
2279.00,0.2571
2278.00,0.2568
2277.00,0.2564
2276.00,0.2561
2275.00,0.2559
2274.00,0.2556
2273.00,0.2555
2272.00,0.2553
2271.00,0.2552
2270.00,0.2550
2269.00,0.2550
2268.00,0.2549
2267.00,0.2548
2266.00,0.2547
2265.00,0.2546
2264.00,0.2544
2263.00,0.2542
2262.00,0.2540
2261.00,0.2538
2260.00,0.2536
2259.00,0.2533
2258.00,0.2529
2257.00,0.2525
2256.00,0.2521
2255.00,0.2517
2254.00,0.2514
2253.00,0.2511
2252.00,0.2507
2251.00,0.2504
2250.00,0.2500
2249.00,0.2497
2248.00,0.2495
2247.00,0.2493
2246.00,0.2491
2245.00,0.2489
2244.00,0.2487
2243.00,0.2484
2242.00,0.2482
2241.00,0.2480
2240.00,0.2478
2239.00,0.2476
2238.00,0.2475
2237.00,0.2473
2236.00,0.2471
2235.00,0.2470
2234.00,0.2468
2233.00,0.2467
2232.00,0.2465
2231.00,0.2463
2230.00,0.2461
2229.00,0.2459
2228.00,0.2457
2227.00,0.2455
2226.00,0.2453
2225.00,0.2451
2224.00,0.2450
2223.00,0.2448
2222.00,0.2446
2221.00,0.2445
2220.00,0.2443
2219.00,0.2443
2218.00,0.2442
2217.00,0.2442
2216.00,0.2441
2215.00,0.2441
2214.00,0.2440
2213.00,0.2440
2212.00,0.2440
2211.00,0.2440
2210.00,0.2439
2209.00,0.2439
2208.00,0.2439
2207.00,0.2438
2206.00,0.2439
2205.00,0.2439
2204.00,0.2439
2203.00,0.2439
2202.00,0.2439
2201.00,0.2440
2200.00,0.2440
2199.00,0.2441
2198.00,0.2441
2197.00,0.2441
2196.00,0.2442
2195.00,0.2442
2194.00,0.2443
2193.00,0.2444
2192.00,0.2446
2191.00,0.2447
2190.00,0.2447
2189.00,0.2448
2188.00,0.2449
2187.00,0.2450
2186.00,0.2451
2185.00,0.2451
2184.00,0.2451
2183.00,0.2452
2182.00,0.2452
2181.00,0.2452
2180.00,0.2452
2179.00,0.2452
2178.00,0.2451
2177.00,0.2450
2176.00,0.2449
2175.00,0.2448
2174.00,0.2447
2173.00,0.2446
2172.00,0.2446
2171.00,0.2445
2170.00,0.2446
2169.00,0.2446
2168.00,0.2447
2167.00,0.2447
2166.00,0.2446
2165.00,0.2446
2164.00,0.2445
2163.00,0.2445
2162.00,0.2444
2161.00,0.2444
2160.00,0.2444
2159.00,0.2444
2158.00,0.2444
2157.00,0.2444
2156.00,0.2444
2155.00,0.2443
2154.00,0.2442
2153.00,0.2442
2152.00,0.2441
2151.00,0.2440
2150.00,0.2439
2149.00,0.2436
2148.00,0.2433
2147.00,0.2428
2146.00,0.2423
2145.00,0.2418
2144.00,0.2411
2143.00,0.2404
2142.00,0.2397
2141.00,0.2390
2140.00,0.2384
2139.00,0.2378
2138.00,0.2373
2137.00,0.2367
2136.00,0.2363
2135.00,0.2359
2134.00,0.2355
2133.00,0.2351
2132.00,0.2347
2131.00,0.2343
2130.00,0.2340
2129.00,0.2337
2128.00,0.2335
2127.00,0.2333
2126.00,0.2331
2125.00,0.2330
2124.00,0.2329
2123.00,0.2328
2122.00,0.2328
2121.00,0.2327
2120.00,0.2327
2119.00,0.2326
2118.00,0.2326
2117.00,0.2326
2116.00,0.2326
2115.00,0.2326
2114.00,0.2326
2113.00,0.2327
2112.00,0.2327
2111.00,0.2326
2110.00,0.2326
2109.00,0.2325
2108.00,0.2324
2107.00,0.2323
2106.00,0.2322
2105.00,0.2321
2104.00,0.2321
2103.00,0.2320
2102.00,0.2319
2101.00,0.2318
2100.00,0.2316
2099.00,0.2315
2098.00,0.2314
2097.00,0.2313
2096.00,0.2312
2095.00,0.2311
2094.00,0.2310
2093.00,0.2309
2092.00,0.2308
2091.00,0.2308
2090.00,0.2308
2089.00,0.2308
2088.00,0.2308
2087.00,0.2308
2086.00,0.2308
2085.00,0.2309
2084.00,0.2310
2083.00,0.2311
2082.00,0.2313
2081.00,0.2314
2080.00,0.2315
2079.00,0.2316
2078.00,0.2318
2077.00,0.2319
2076.00,0.2321
2075.00,0.2322
2074.00,0.2323
2073.00,0.2325
2072.00,0.2326
2071.00,0.2328
2070.00,0.2329
2069.00,0.2330
2068.00,0.2331
2067.00,0.2332
2066.00,0.2333
2065.00,0.2335
2064.00,0.2337
2063.00,0.2339
2062.00,0.2341
2061.00,0.2342
2060.00,0.2343
2059.00,0.2344
2058.00,0.2346
2057.00,0.2348
2056.00,0.2350
2055.00,0.2352
2054.00,0.2354
2053.00,0.2356
2052.00,0.2359
2051.00,0.2362
2050.00,0.2366
2049.00,0.2370
2048.00,0.2374
2047.00,0.2378
2046.00,0.2382
2045.00,0.2386
2044.00,0.2389
2043.00,0.2392
2042.00,0.2396
2041.00,0.2400
2040.00,0.2404
2039.00,0.2407
2038.00,0.2410
2037.00,0.2412
2036.00,0.2414
2035.00,0.2416
2034.00,0.2417
2033.00,0.2419
2032.00,0.2421
2031.00,0.2423
2030.00,0.2424
2029.00,0.2426
2028.00,0.2426
2027.00,0.2427
2026.00,0.2426
2025.00,0.2426
2024.00,0.2425
2023.00,0.2422
2022.00,0.2419
2021.00,0.2413
2020.00,0.2407
2019.00,0.2399
2018.00,0.2391
2017.00,0.2382
2016.00,0.2373
2015.00,0.2364
2014.00,0.2354
2013.00,0.2345
2012.00,0.2335
2011.00,0.2326
2010.00,0.2318
2009.00,0.2311
2008.00,0.2305
2007.00,0.2301
2006.00,0.2297
2005.00,0.2294
2004.00,0.2292
2003.00,0.2289
2002.00,0.2287
2001.00,0.2286
2000.00,0.2286
1999.00,0.2285
1998.00,0.2284
1997.00,0.2283
1996.00,0.2283
1995.00,0.2281
1994.00,0.2279
1993.00,0.2278
1992.00,0.2278
1991.00,0.2278
1990.00,0.2277
1989.00,0.2276
1988.00,0.2275
1987.00,0.2273
1986.00,0.2272
1985.00,0.2270
1984.00,0.2268
1983.00,0.2266
1982.00,0.2264
1981.00,0.2261
1980.00,0.2259
1979.00,0.2257
1978.00,0.2256
1977.00,0.2255
1976.00,0.2255
1975.00,0.2255
1974.00,0.2255
1973.00,0.2256
1972.00,0.2257
1971.00,0.2258
1970.00,0.2258
1969.00,0.2259
1968.00,0.2260
1967.00,0.2263
1966.00,0.2266
1965.00,0.2269
1964.00,0.2271
1963.00,0.2273
1962.00,0.2275
1961.00,0.2277
1960.00,0.2280
1959.00,0.2283
1958.00,0.2286
1957.00,0.2290
1956.00,0.2293
1955.00,0.2296
1954.00,0.2298
1953.00,0.2298
1952.00,0.2297
1951.00,0.2294
1950.00,0.2291
1949.00,0.2287
1948.00,0.2285
1947.00,0.2283
1946.00,0.2282
1945.00,0.2282
1944.00,0.2283
1943.00,0.2286
1942.00,0.2291
1941.00,0.2298
1940.00,0.2305
1939.00,0.2312
1938.00,0.2319
1937.00,0.2327
1936.00,0.2335
1935.00,0.2341
1934.00,0.2347
1933.00,0.2350
1932.00,0.2352
1931.00,0.2351
1930.00,0.2347
1929.00,0.2343
1928.00,0.2338
1927.00,0.2331
1926.00,0.2324
1925.00,0.2318
1924.00,0.2315
1923.00,0.2313
1922.00,0.2314
1921.00,0.2317
1920.00,0.2319
1919.00,0.2321
1918.00,0.2323
1917.00,0.2325
1916.00,0.2326
1915.00,0.2325
1914.00,0.2323
1913.00,0.2321
1912.00,0.2319
1911.00,0.2318
1910.00,0.2318
1909.00,0.2319
1908.00,0.2321
1907.00,0.2322
1906.00,0.2321
1905.00,0.2320
1904.00,0.2319
1903.00,0.2317
1902.00,0.2315
1901.00,0.2314
1900.00,0.2314
1899.00,0.2313
1898.00,0.2311
1897.00,0.2311
1896.00,0.2311
1895.00,0.2312
1894.00,0.2313
1893.00,0.2315
1892.00,0.2316
1891.00,0.2317
1890.00,0.2318
1889.00,0.2321
1888.00,0.2325
1887.00,0.2326
1886.00,0.2327
1885.00,0.2329
1884.00,0.2330
1883.00,0.2331
1882.00,0.2332
1881.00,0.2332
1880.00,0.2332
1879.00,0.2332
1878.00,0.2331
1877.00,0.2331
1876.00,0.2330
1875.00,0.2328
1874.00,0.2324
1873.00,0.2320
1872.00,0.2315
1871.00,0.2309
1870.00,0.2303
1869.00,0.2299
1868.00,0.2297
1867.00,0.2297
1866.00,0.2295
1865.00,0.2294
1864.00,0.2292
1863.00,0.2291
1862.00,0.2290
1861.00,0.2290
1860.00,0.2291
1859.00,0.2292
1858.00,0.2293
1857.00,0.2294
1856.00,0.2295
1855.00,0.2294
1854.00,0.2292
1853.00,0.2289
1852.00,0.2286
1851.00,0.2281
1850.00,0.2276
1849.00,0.2270
1848.00,0.2266
1847.00,0.2264
1846.00,0.2262
1845.00,0.2260
1844.00,0.2259
1843.00,0.2257
1842.00,0.2255
1841.00,0.2252
1840.00,0.2248
1839.00,0.2244
1838.00,0.2241
1837.00,0.2240
1836.00,0.2239
1835.00,0.2238
1834.00,0.2235
1833.00,0.2233
1832.00,0.2231
1831.00,0.2229
1830.00,0.2230
1829.00,0.2233
1828.00,0.2236
1827.00,0.2237
1826.00,0.2237
1825.00,0.2238
1824.00,0.2240
1823.00,0.2242
1822.00,0.2243
1821.00,0.2243
1820.00,0.2243
1819.00,0.2244
1818.00,0.2245
1817.00,0.2247
1816.00,0.2248
1815.00,0.2248
1814.00,0.2247
1813.00,0.2246
1812.00,0.2246
1811.00,0.2248
1810.00,0.2251
1809.00,0.2255
1808.00,0.2258
1807.00,0.2260
1806.00,0.2262
1805.00,0.2263
1804.00,0.2265
1803.00,0.2266
1802.00,0.2268
1801.00,0.2272
1800.00,0.2276
1799.00,0.2279
1798.00,0.2281
1797.00,0.2284
1796.00,0.2287
1795.00,0.2291
1794.00,0.2296
1793.00,0.2303
1792.00,0.2312
1791.00,0.2322
1790.00,0.2330
1789.00,0.2337
1788.00,0.2343
1787.00,0.2349
1786.00,0.2355
1785.00,0.2363
1784.00,0.2371
1783.00,0.2378
1782.00,0.2385
1781.00,0.2393
1780.00,0.2403
1779.00,0.2412
1778.00,0.2419
1777.00,0.2424
1776.00,0.2427
1775.00,0.2429
1774.00,0.2430
1773.00,0.2436
1772.00,0.2446
1771.00,0.2456
1770.00,0.2462
1769.00,0.2465
1768.00,0.2466
1767.00,0.2466
1766.00,0.2466
1765.00,0.2467
1764.00,0.2469
1763.00,0.2472
1762.00,0.2477
1761.00,0.2483
1760.00,0.2490
1759.00,0.2496
1758.00,0.2503
1757.00,0.2512
1756.00,0.2521
1755.00,0.2529
1754.00,0.2535
1753.00,0.2541
1752.00,0.2549
1751.00,0.2559
1750.00,0.2572
1749.00,0.2587
1748.00,0.2603
1747.00,0.2617
1746.00,0.2630
1745.00,0.2644
1744.00,0.2660
1743.00,0.2678
1742.00,0.2696
1741.00,0.2714
1740.00,0.2730
1739.00,0.2743
1738.00,0.2753
1737.00,0.2761
1736.00,0.2767
1735.00,0.2773
1734.00,0.2781
1733.00,0.2793
1732.00,0.2802
1731.00,0.2809
1730.00,0.2815
1729.00,0.2824
1728.00,0.2834
1727.00,0.2846
1726.00,0.2859
1725.00,0.2876
1724.00,0.2896
1723.00,0.2917
1722.00,0.2939
1721.00,0.2959
1720.00,0.2977
1719.00,0.2993
1718.00,0.3017
1717.00,0.3051
1716.00,0.3086
1715.00,0.3114
1714.00,0.3137
1713.00,0.3157
1712.00,0.3177
1711.00,0.3197
1710.00,0.3219
1709.00,0.3243
1708.00,0.3267
1707.00,0.3290
1706.00,0.3310
1705.00,0.3325
1704.00,0.3332
1703.00,0.3331
1702.00,0.3321
1701.00,0.3293
1700.00,0.3250
1699.00,0.3208
1698.00,0.3176
1697.00,0.3155
1696.00,0.3140
1695.00,0.3127
1694.00,0.3117
1693.00,0.3108
1692.00,0.3099
1691.00,0.3091
1690.00,0.3084
1689.00,0.3080
1688.00,0.3074
1687.00,0.3067
1686.00,0.3060
1685.00,0.3058
1684.00,0.3063
1683.00,0.3067
1682.00,0.3064
1681.00,0.3060
1680.00,0.3056
1679.00,0.3055
1678.00,0.3058
1677.00,0.3064
1676.00,0.3068
1675.00,0.3071
1674.00,0.3073
1673.00,0.3074
1672.00,0.3076
1671.00,0.3081
1670.00,0.3090
1669.00,0.3103
1668.00,0.3114
1667.00,0.3121
1666.00,0.3126
1665.00,0.3133
1664.00,0.3142
1663.00,0.3152
1662.00,0.3165
1661.00,0.3177
1660.00,0.3188
1659.00,0.3197
1658.00,0.3205
1657.00,0.3212
1656.00,0.3219
1655.00,0.3226
1654.00,0.3244
1653.00,0.3281
1652.00,0.3314
1651.00,0.3332
1650.00,0.3341
1649.00,0.3349
1648.00,0.3365
1647.00,0.3394
1646.00,0.3429
1645.00,0.3461
1644.00,0.3488
1643.00,0.3511
1642.00,0.3534
1641.00,0.3560
1640.00,0.3589
1639.00,0.3616
1638.00,0.3646
1637.00,0.3689
1636.00,0.3751
1635.00,0.3817
1634.00,0.3873
1633.00,0.3921
1632.00,0.3968
1631.00,0.4016
1630.00,0.4071
1629.00,0.4136
1628.00,0.4210
1627.00,0.4287
1626.00,0.4367
1625.00,0.4456
1624.00,0.4559
1623.00,0.4676
1622.00,0.4800
1621.00,0.4924
1620.00,0.5049
1619.00,0.5183
1618.00,0.5349
1617.00,0.5563
1616.00,0.5814
1615.00,0.6064
1614.00,0.6305
1613.00,0.6558
1612.00,0.6840
1611.00,0.7145
1610.00,0.7459
1609.00,0.7778
1608.00,0.8100
1607.00,0.8417
1606.00,0.8736
1605.00,0.9090
1604.00,0.9515
1603.00,1.0025
1602.00,1.0631
1601.00,1.1358
1600.00,1.2222
1599.00,1.3206
1598.00,1.4303
1597.00,1.5588
1596.00,1.7167
1595.00,1.9043
1594.00,2.1123
1593.00,2.3477
1592.00,2.6416
1591.00,2.9786
1590.00,3.2074
1589.00,3.4616
1588.00,4.0016
1587.00,3.9208
1586.00,3.9514
1585.00,3.8932
1584.00,3.8829
1583.00,3.6859
1582.00,4.0618
1581.00,4.5501
1580.00,3.6221
1579.00,3.5185
1578.00,3.8672
1577.00,3.5887
1576.00,3.2969
1575.00,2.9922
1574.00,2.6882
1573.00,2.4973
1572.00,2.3822
1571.00,2.2987
1570.00,2.2466
1569.00,2.2567
1568.00,2.3407
1567.00,2.4734
1566.00,2.6256
1565.00,2.8273
1564.00,3.1596
1563.00,3.5715
1562.00,3.5304
1561.00,3.4318
1560.00,3.6914
1559.00,3.5774
1558.00,2.9971
1557.00,2.6452
1556.00,2.3683
1555.00,2.0940
1554.00,1.8554
1553.00,1.6750
1552.00,1.5409
1551.00,1.4332
1550.00,1.3447
1549.00,1.2784
1548.00,1.2337
1547.00,1.2040
1546.00,1.1843
1545.00,1.1740
1544.00,1.1729
1543.00,1.1767
1542.00,1.1791
1541.00,1.1762
1540.00,1.1630
1539.00,1.1356
1538.00,1.1003
1537.00,1.0643
1536.00,1.0275
1535.00,0.9855
1534.00,0.9386
1533.00,0.8948
1532.00,0.8602
1531.00,0.8344
1530.00,0.8147
1529.00,0.7996
1528.00,0.7873
1527.00,0.7751
1526.00,0.7618
1525.00,0.7489
1524.00,0.7377
1523.00,0.7285
1522.00,0.7224
1521.00,0.7209
1520.00,0.7234
1519.00,0.7274
1518.00,0.7316
1517.00,0.7353
1516.00,0.7363
1515.00,0.7315
1514.00,0.7204
1513.00,0.7043
1512.00,0.6854
1511.00,0.6659
1510.00,0.6479
1509.00,0.6325
1508.00,0.6206
1507.00,0.6127
1506.00,0.6082
1505.00,0.6063
1504.00,0.6066
1503.00,0.6082
1502.00,0.6107
1501.00,0.6151
1500.00,0.6215
1499.00,0.6300
1498.00,0.6415
1497.00,0.6589
1496.00,0.6835
1495.00,0.7143
1494.00,0.7514
1493.00,0.7985
1492.00,0.8585
1491.00,0.9251
1490.00,0.9769
1489.00,0.9910
1488.00,0.9711
1487.00,0.9412
1486.00,0.9212
1485.00,0.9176
1484.00,0.9284
1483.00,0.9497
1482.00,0.9807
1481.00,1.0223
1480.00,1.0739
1479.00,1.1343
1478.00,1.2066
1477.00,1.2963
1476.00,1.4061
1475.00,1.5366
1474.00,1.6971
1473.00,1.9105
1472.00,2.1970
1471.00,2.5492
1470.00,2.9415
1469.00,3.4011
1468.00,3.8578
1467.00,3.9143
1466.00,4.1017
1465.00,4.5666
1464.00,4.3824
1463.00,4.1853
1462.00,3.9683
1461.00,4.0445
1460.00,4.3561
1459.00,4.1050
1458.00,4.0078
1457.00,4.0394
1456.00,4.1201
1455.00,4.2223
1454.00,4.0653
1453.00,3.9268
1452.00,3.8299
1451.00,4.0456
1450.00,4.2684
1449.00,3.9445
1448.00,3.8337
1447.00,4.1020
1446.00,4.1020
1445.00,4.0881
1444.00,4.4450
1443.00,4.2169
1442.00,4.1332
1441.00,4.2126
1440.00,3.9864
1439.00,3.4636
1438.00,3.1093
1437.00,2.8785
1436.00,2.6706
1435.00,2.4668
1434.00,2.2864
1433.00,2.1280
1432.00,1.9802
1431.00,1.8421
1430.00,1.7205
1429.00,1.6191
1428.00,1.5361
1427.00,1.4688
1426.00,1.4143
1425.00,1.3707
1424.00,1.3366
1423.00,1.3114
1422.00,1.2939
1421.00,1.2829
1420.00,1.2777
1419.00,1.2787
1418.00,1.2871
1417.00,1.3034
1416.00,1.3269
1415.00,1.3562
1414.00,1.3891
1413.00,1.4221
1412.00,1.4500
1411.00,1.4658
1410.00,1.4656
1409.00,1.4492
1408.00,1.4166
1407.00,1.3683
1406.00,1.3072
1405.00,1.2388
1404.00,1.1688
1403.00,1.1022
1402.00,1.0416
1401.00,0.9867
1400.00,0.9371
1399.00,0.8947
1398.00,0.8609
1397.00,0.8351
1396.00,0.8147
1395.00,0.7978
1394.00,0.7837
1393.00,0.7734
1392.00,0.7681
1391.00,0.7691
1390.00,0.7778
1389.00,0.7966
1388.00,0.8291
1387.00,0.8776
1386.00,0.9409
1385.00,1.0172
1384.00,1.1080
1383.00,1.2176
1382.00,1.3491
1381.00,1.5030
1380.00,1.6741
1379.00,1.8383
1378.00,1.9405
1377.00,1.9325
1376.00,1.8326
1375.00,1.6937
1374.00,1.5567
1373.00,1.4427
1372.00,1.3561
1371.00,1.2924
1370.00,1.2460
1369.00,1.2136
1368.00,1.1913
1367.00,1.1726
1366.00,1.1493
1365.00,1.1155
1364.00,1.0705
1363.00,1.0195
1362.00,0.9705
1361.00,0.9293
1360.00,0.8975
1359.00,0.8741
1358.00,0.8581
1357.00,0.8486
1356.00,0.8451
1355.00,0.8467
1354.00,0.8522
1353.00,0.8603
1352.00,0.8705
1351.00,0.8830
1350.00,0.8993
1349.00,0.9216
1348.00,0.9523
1347.00,0.9913
1346.00,1.0330
1345.00,1.0659
1344.00,1.0768
1343.00,1.0599
1342.00,1.0213
1341.00,0.9724
1340.00,0.9225
1339.00,0.8764
1338.00,0.8354
1337.00,0.7994
1336.00,0.7679
1335.00,0.7407
1334.00,0.7176
1333.00,0.6986
1332.00,0.6836
1331.00,0.6724
1330.00,0.6649
1329.00,0.6608
1328.00,0.6599
1327.00,0.6616
1326.00,0.6648
1325.00,0.6682
1324.00,0.6709
1323.00,0.6723
1322.00,0.6728
1321.00,0.6730
1320.00,0.6733
1319.00,0.6743
1318.00,0.6762
1317.00,0.6793
1316.00,0.6839
1315.00,0.6901
1314.00,0.6979
1313.00,0.7073
1312.00,0.7180
1311.00,0.7297
1310.00,0.7419
1309.00,0.7539
1308.00,0.7647
1307.00,0.7729
1306.00,0.7774
1305.00,0.7782
1304.00,0.7765
1303.00,0.7740
1302.00,0.7720
1301.00,0.7709
1300.00,0.7706
1299.00,0.7698
1298.00,0.7673
1297.00,0.7626
1296.00,0.7560
1295.00,0.7487
1294.00,0.7416
1293.00,0.7344
1292.00,0.7262
1291.00,0.7157
1290.00,0.7028
1289.00,0.6885
1288.00,0.6745
1287.00,0.6622
1286.00,0.6520
1285.00,0.6440
1284.00,0.6390
1283.00,0.6380
1282.00,0.6421
1281.00,0.6514
1280.00,0.6640
1279.00,0.6753
1278.00,0.6788
1277.00,0.6704
1276.00,0.6512
1275.00,0.6267
1274.00,0.6030
1273.00,0.5839
1272.00,0.5707
1271.00,0.5627
1270.00,0.5586
1269.00,0.5565
1268.00,0.5549
1267.00,0.5525
1266.00,0.5493
1265.00,0.5454
1264.00,0.5416
1263.00,0.5383
1262.00,0.5354
1261.00,0.5327
1260.00,0.5303
1259.00,0.5285
1258.00,0.5274
1257.00,0.5269
1256.00,0.5272
1255.00,0.5284
1254.00,0.5304
1253.00,0.5327
1252.00,0.5343
1251.00,0.5344
1250.00,0.5327
1249.00,0.5296
1248.00,0.5260
1247.00,0.5227
1246.00,0.5200
1245.00,0.5181
1244.00,0.5172
1243.00,0.5174
1242.00,0.5180
1241.00,0.5180
1240.00,0.5168
1239.00,0.5147
1238.00,0.5133
1237.00,0.5144
1236.00,0.5192
1235.00,0.5280
1234.00,0.5400
1233.00,0.5536
1232.00,0.5671
1231.00,0.5781
1230.00,0.5843
1229.00,0.5840
1228.00,0.5770
1227.00,0.5643
1226.00,0.5483
1225.00,0.5313
1224.00,0.5152
1223.00,0.5012
1222.00,0.4896
1221.00,0.4802
1220.00,0.4728
1219.00,0.4671
1218.00,0.4630
1217.00,0.4603
1216.00,0.4592
1215.00,0.4595
1214.00,0.4607
1213.00,0.4623
1212.00,0.4638
1211.00,0.4647
1210.00,0.4648
1209.00,0.4639
1208.00,0.4622
1207.00,0.4608
1206.00,0.4609
1205.00,0.4636
1204.00,0.4703
1203.00,0.4822
1202.00,0.4999
1201.00,0.5226
1200.00,0.5483
1199.00,0.5745
1198.00,0.5997
1197.00,0.6249
1196.00,0.6523
1195.00,0.6834
1194.00,0.7174
1193.00,0.7512
1192.00,0.7813
1191.00,0.8036
1190.00,0.8146
1189.00,0.8125
1188.00,0.7972
1187.00,0.7704
1186.00,0.7349
1185.00,0.6942
1184.00,0.6514
1183.00,0.6096
1182.00,0.5713
1181.00,0.5379
1180.00,0.5104
1179.00,0.4885
1178.00,0.4716
1177.00,0.4588
1176.00,0.4495
1175.00,0.4431
1174.00,0.4393
1173.00,0.4376
1172.00,0.4377
1171.00,0.4392
1170.00,0.4417
1169.00,0.4445
1168.00,0.4479
1167.00,0.4523
1166.00,0.4587
1165.00,0.4680
1164.00,0.4812
1163.00,0.4982
1162.00,0.5162
1161.00,0.5299
1160.00,0.5333
1159.00,0.5246
1158.00,0.5076
1157.00,0.4891
1156.00,0.4740
1155.00,0.4634
1154.00,0.4561
1153.00,0.4506
1152.00,0.4460
1151.00,0.4420
1150.00,0.4385
1149.00,0.4357
1148.00,0.4336
1147.00,0.4324
1146.00,0.4320
1145.00,0.4325
1144.00,0.4341
1143.00,0.4375
1142.00,0.4427
1141.00,0.4499
1140.00,0.4591
1139.00,0.4703
1138.00,0.4834
1137.00,0.4984
1136.00,0.5152
1135.00,0.5326
1134.00,0.5485
1133.00,0.5598
1132.00,0.5645
1131.00,0.5632
1130.00,0.5582
1129.00,0.5534
1128.00,0.5517
1127.00,0.5539
1126.00,0.5579
1125.00,0.5600
1124.00,0.5571
1123.00,0.5488
1122.00,0.5377
1121.00,0.5273
1120.00,0.5205
1119.00,0.5184
1118.00,0.5207
1117.00,0.5263
1116.00,0.5334
1115.00,0.5394
1114.00,0.5415
1113.00,0.5378
1112.00,0.5285
1111.00,0.5158
1110.00,0.5026
1109.00,0.4916
1108.00,0.4842
1107.00,0.4809
1106.00,0.4816
1105.00,0.4857
1104.00,0.4927
1103.00,0.5019
1102.00,0.5125
1101.00,0.5230
1100.00,0.5312
1099.00,0.5348
1098.00,0.5324
1097.00,0.5250
1096.00,0.5155
1095.00,0.5066
1094.00,0.4998
1093.00,0.4949
1092.00,0.4915
1091.00,0.4891
1090.00,0.4874
1089.00,0.4867
1088.00,0.4874
1087.00,0.4901
1086.00,0.4949
1085.00,0.5018
1084.00,0.5106
1083.00,0.5209
1082.00,0.5320
1081.00,0.5432
1080.00,0.5535
1079.00,0.5617
1078.00,0.5668
1077.00,0.5678
1076.00,0.5648
1075.00,0.5583
1074.00,0.5494
1073.00,0.5395
1072.00,0.5296
1071.00,0.5200
1070.00,0.5104
1069.00,0.5003
1068.00,0.4903
1067.00,0.4810
1066.00,0.4728
1065.00,0.4657
1064.00,0.4598
1063.00,0.4549
1062.00,0.4512
1061.00,0.4481
1060.00,0.4454
1059.00,0.4425
1058.00,0.4392
1057.00,0.4355
1056.00,0.4314
1055.00,0.4272
1054.00,0.4230
1053.00,0.4187
1052.00,0.4147
1051.00,0.4115
1050.00,0.4093
1049.00,0.4080
1048.00,0.4074
1047.00,0.4071
1046.00,0.4068
1045.00,0.4062
1044.00,0.4052
1043.00,0.4042
1042.00,0.4034
1041.00,0.4032
1040.00,0.4035
1039.00,0.4044
1038.00,0.4057
1037.00,0.4072
1036.00,0.4092
1035.00,0.4122
1034.00,0.4169
1033.00,0.4234
1032.00,0.4318
1031.00,0.4424
1030.00,0.4547
1029.00,0.4678
1028.00,0.4803
1027.00,0.4902
1026.00,0.4951
1025.00,0.4925
1024.00,0.4814
1023.00,0.4640
1022.00,0.4445
1021.00,0.4269
1020.00,0.4133
1019.00,0.4040
1018.00,0.3978
1017.00,0.3934
1016.00,0.3900
1015.00,0.3874
1014.00,0.3856
1013.00,0.3849
1012.00,0.3863
1011.00,0.3916
1010.00,0.4012
1009.00,0.4128
1008.00,0.4213
1007.00,0.4228
1006.00,0.4178
1005.00,0.4104
1004.00,0.4044
1003.00,0.4014
1002.00,0.4007
1001.00,0.4014
1000.00,0.4027
999.00,0.4038
998.00,0.4041
997.00,0.4033
996.00,0.4018
995.00,0.4000
994.00,0.3979
993.00,0.3959
992.00,0.3940
991.00,0.3924
990.00,0.3909
989.00,0.3892
988.00,0.3869
987.00,0.3838
986.00,0.3803
985.00,0.3773
984.00,0.3756
983.00,0.3757
982.00,0.3775
981.00,0.3809
980.00,0.3855
979.00,0.3914
978.00,0.3990
977.00,0.4096
976.00,0.4252
975.00,0.4486
974.00,0.4820
973.00,0.5280
972.00,0.5889
971.00,0.6664
970.00,0.7585
969.00,0.8553
968.00,0.9345
967.00,0.9667
966.00,0.9400
965.00,0.8731
964.00,0.7943
963.00,0.7220
962.00,0.6644
961.00,0.6248
960.00,0.6038
959.00,0.6000
958.00,0.6096
957.00,0.6268
956.00,0.6450
955.00,0.6590
954.00,0.6657
953.00,0.6654
952.00,0.6603
951.00,0.6532
950.00,0.6470
949.00,0.6441
948.00,0.6461
947.00,0.6537
946.00,0.6664
945.00,0.6829
944.00,0.7011
943.00,0.7188
942.00,0.7337
941.00,0.7444
940.00,0.7502
939.00,0.7512
938.00,0.7476
937.00,0.7405
936.00,0.7304
935.00,0.7176
934.00,0.7022
933.00,0.6843
932.00,0.6642
931.00,0.6423
930.00,0.6190
929.00,0.5952
928.00,0.5719
927.00,0.5504
926.00,0.5315
925.00,0.5163
924.00,0.5049
923.00,0.4969
922.00,0.4907
921.00,0.4838
920.00,0.4743
919.00,0.4613
918.00,0.4458
917.00,0.4297
916.00,0.4147
915.00,0.4019
914.00,0.3916
913.00,0.3837
912.00,0.3780
911.00,0.3742
910.00,0.3723
909.00,0.3723
908.00,0.3749
907.00,0.3805
906.00,0.3891
905.00,0.3998
904.00,0.4100
903.00,0.4170
902.00,0.4192
901.00,0.4172
900.00,0.4129
899.00,0.4077
898.00,0.4023
897.00,0.3974
896.00,0.3935
895.00,0.3914
894.00,0.3910
893.00,0.3921
892.00,0.3941
891.00,0.3967
890.00,0.3989
889.00,0.3999
888.00,0.3988
887.00,0.3953
886.00,0.3899
885.00,0.3833
884.00,0.3768
883.00,0.3712
882.00,0.3668
881.00,0.3636
880.00,0.3616
879.00,0.3604
878.00,0.3596
877.00,0.3591
876.00,0.3589
875.00,0.3593
874.00,0.3601
873.00,0.3610
872.00,0.3618
871.00,0.3625
870.00,0.3636
869.00,0.3652
868.00,0.3678
867.00,0.3719
866.00,0.3777
865.00,0.3853
864.00,0.3937
863.00,0.4014
862.00,0.4062
861.00,0.4060
860.00,0.4004
859.00,0.3907
858.00,0.3791
857.00,0.3679
856.00,0.3585
855.00,0.3512
854.00,0.3460
853.00,0.3423
852.00,0.3398
851.00,0.3382
850.00,0.3372
849.00,0.3367
848.00,0.3366
847.00,0.3369
846.00,0.3377
845.00,0.3390
844.00,0.3411
843.00,0.3443
842.00,0.3493
841.00,0.3569
840.00,0.3678
839.00,0.3821
838.00,0.3982
837.00,0.4127
836.00,0.4216
835.00,0.4225
834.00,0.4162
833.00,0.4064
832.00,0.3974
831.00,0.3921
830.00,0.3916
829.00,0.3949
828.00,0.4001
827.00,0.4052
826.00,0.4090
825.00,0.4115
824.00,0.4136
823.00,0.4157
822.00,0.4172
821.00,0.4173
820.00,0.4153
819.00,0.4116
818.00,0.4072
817.00,0.4033
816.00,0.4009
815.00,0.4007
814.00,0.4029
813.00,0.4074
812.00,0.4140
811.00,0.4226
810.00,0.4328
809.00,0.4441
808.00,0.4554
807.00,0.4655
806.00,0.4734
805.00,0.4784
804.00,0.4805
803.00,0.4797
802.00,0.4763
801.00,0.4707
800.00,0.4632
799.00,0.4544
798.00,0.4445
797.00,0.4341
796.00,0.4238
795.00,0.4142
794.00,0.4059
793.00,0.3993
792.00,0.3945
791.00,0.3914
790.00,0.3898
789.00,0.3890
788.00,0.3887
787.00,0.3890
786.00,0.3906
785.00,0.3941
784.00,0.4003
783.00,0.4097
782.00,0.4227
781.00,0.4393
780.00,0.4589
779.00,0.4794
778.00,0.4970
777.00,0.5081
776.00,0.5112
775.00,0.5085
774.00,0.5035
773.00,0.4987
772.00,0.4949
771.00,0.4919
770.00,0.4893
769.00,0.4869
768.00,0.4844
767.00,0.4819
766.00,0.4794
765.00,0.4773
764.00,0.4760
763.00,0.4760
762.00,0.4776
761.00,0.4808
760.00,0.4847
759.00,0.4890
758.00,0.4935
757.00,0.4990
756.00,0.5063
755.00,0.5157
754.00,0.5257
753.00,0.5343
752.00,0.5395
751.00,0.5417
750.00,0.5424
749.00,0.5437
748.00,0.5464
747.00,0.5503
746.00,0.5551
745.00,0.5605
744.00,0.5670
743.00,0.5748
742.00,0.5843
741.00,0.5954
740.00,0.6081
739.00,0.6220
738.00,0.6371
737.00,0.6534
736.00,0.6714
735.00,0.6910
734.00,0.7120
733.00,0.7344
732.00,0.7585
731.00,0.7861
730.00,0.8190
729.00,0.8590
728.00,0.9083
727.00,0.9692
726.00,1.0434
725.00,1.1297
724.00,1.2213
723.00,1.3034
722.00,1.3518
721.00,1.3445
720.00,1.2837
719.00,1.1963
718.00,1.1077
717.00,1.0304
716.00,0.9677
715.00,0.9189
714.00,0.8810
713.00,0.8506
712.00,0.8245
711.00,0.8008
710.00,0.7778
709.00,0.7539
708.00,0.7286
707.00,0.7031
706.00,0.6783
705.00,0.6547
704.00,0.6320
703.00,0.6109
702.00,0.5916
701.00,0.5741
700.00,0.5580
699.00,0.5432
698.00,0.5295
697.00,0.5169
696.00,0.5057
695.00,0.4968
694.00,0.4912
693.00,0.4897
692.00,0.4931
691.00,0.5020
690.00,0.5155
689.00,0.5295
688.00,0.5372
687.00,0.5326
686.00,0.5153
685.00,0.4907
684.00,0.4659
683.00,0.4460
682.00,0.4322
681.00,0.4235
680.00,0.4179
679.00,0.4143
678.00,0.4119
677.00,0.4103
676.00,0.4091
675.00,0.4082
674.00,0.4077
673.00,0.4073
672.00,0.4066
671.00,0.4056
670.00,0.4044
669.00,0.4038
668.00,0.4041
667.00,0.4052
666.00,0.4071
665.00,0.4089
664.00,0.4106
663.00,0.4123
662.00,0.4142
661.00,0.4162
660.00,0.4181
659.00,0.4198
658.00,0.4213
657.00,0.4225
656.00,0.4235
655.00,0.4242
654.00,0.4245
653.00,0.4245
652.00,0.4246
651.00,0.4253
650.00,0.4272
649.00,0.4303
648.00,0.4346
647.00,0.4391
646.00,0.4427
645.00,0.4446
644.00,0.4449
643.00,0.4442
642.00,0.4435
641.00,0.4432
640.00,0.4434
639.00,0.4439
638.00,0.4445
637.00,0.4452
636.00,0.4465
635.00,0.4483
634.00,0.4502
633.00,0.4519
632.00,0.4535
631.00,0.4557
630.00,0.4587
629.00,0.4622
628.00,0.4660
627.00,0.4697
626.00,0.4730
625.00,0.4761
624.00,0.4787
623.00,0.4809
622.00,0.4827
621.00,0.4842
620.00,0.4857
619.00,0.4872
618.00,0.4881
617.00,0.4885
616.00,0.4883
615.00,0.4876
614.00,0.4863
613.00,0.4848
612.00,0.4836
611.00,0.4828
610.00,0.4824
609.00,0.4820
608.00,0.4821
607.00,0.4827
606.00,0.4836
605.00,0.4841
604.00,0.4837
603.00,0.4826
602.00,0.4811
601.00,0.4796
600.00,0.4785
599.00,0.4778
598.00,0.4774
597.00,0.4769
596.00,0.4765
595.00,0.4765
594.00,0.4771
593.00,0.4784
592.00,0.4799
591.00,0.4814
590.00,0.4827
589.00,0.4836
588.00,0.4850
587.00,0.4873
586.00,0.4906
585.00,0.4944
584.00,0.4982
583.00,0.5018
582.00,0.5049
581.00,0.5079
580.00,0.5109
579.00,0.5141
578.00,0.5174
577.00,0.5206
576.00,0.5239
575.00,0.5277
574.00,0.5322
573.00,0.5374
572.00,0.5430
571.00,0.5484
570.00,0.5533
569.00,0.5576
568.00,0.5620
567.00,0.5672
566.00,0.5734
565.00,0.5800
564.00,0.5863
563.00,0.5917
562.00,0.5966
561.00,0.6018
560.00,0.6079
559.00,0.6145
558.00,0.6212
557.00,0.6283
556.00,0.6359
555.00,0.6435
554.00,0.6507
553.00,0.6575
552.00,0.6643
551.00,0.6706
550.00,0.6759
