Created as New Dataset,
cm-1,A
4000.00,0.3861
3999.00,0.3858
3998.00,0.3856
3997.00,0.3853
3996.00,0.3849
3995.00,0.3846
3994.00,0.3842
3993.00,0.3839
3992.00,0.3835
3991.00,0.3830
3990.00,0.3825
3989.00,0.3820
3988.00,0.3815
3987.00,0.3810
3986.00,0.3805
3985.00,0.3800
3984.00,0.3794
3983.00,0.3788
3982.00,0.3783
3981.00,0.3778
3980.00,0.3773
3979.00,0.3768
3978.00,0.3764
3977.00,0.3760
3976.00,0.3755
3975.00,0.3751
3974.00,0.3747
3973.00,0.3743
3972.00,0.3740
3971.00,0.3736
3970.00,0.3733
3969.00,0.3730
3968.00,0.3728
3967.00,0.3726
3966.00,0.3723
3965.00,0.3721
3964.00,0.3717
3963.00,0.3714
3962.00,0.3710
3961.00,0.3706
3960.00,0.3702
3959.00,0.3698
3958.00,0.3695
3957.00,0.3691
3956.00,0.3688
3955.00,0.3685
3954.00,0.3682
3953.00,0.3679
3952.00,0.3676
3951.00,0.3673
3950.00,0.3671
3949.00,0.3667
3948.00,0.3663
3947.00,0.3658
3946.00,0.3654
3945.00,0.3651
3944.00,0.3649
3943.00,0.3648
3942.00,0.3647
3941.00,0.3645
3940.00,0.3644
3939.00,0.3643
3938.00,0.3642
3937.00,0.3641
3936.00,0.3641
3935.00,0.3640
3934.00,0.3640
3933.00,0.3639
3932.00,0.3639
3931.00,0.3640
3930.00,0.3640
3929.00,0.3641
3928.00,0.3641
3927.00,0.3641
3926.00,0.3640
3925.00,0.3639
3924.00,0.3638
3923.00,0.3637
3922.00,0.3636
3921.00,0.3635
3920.00,0.3634
3919.00,0.3633
3918.00,0.3632
3917.00,0.3631
3916.00,0.3629
3915.00,0.3627
3914.00,0.3626
3913.00,0.3623
3912.00,0.3621
3911.00,0.3618
3910.00,0.3615
3909.00,0.3612
3908.00,0.3610
3907.00,0.3609
3906.00,0.3608
3905.00,0.3608
3904.00,0.3609
3903.00,0.3609
3902.00,0.3611
3901.00,0.3614
3900.00,0.3616
3899.00,0.3616
3898.00,0.3614
3897.00,0.3611
3896.00,0.3608
3895.00,0.3605
3894.00,0.3601
3893.00,0.3598
3892.00,0.3595
3891.00,0.3592
3890.00,0.3589
3889.00,0.3587
3888.00,0.3587
3887.00,0.3587
3886.00,0.3587
3885.00,0.3585
3884.00,0.3581
3883.00,0.3580
3882.00,0.3580
3881.00,0.3581
3880.00,0.3580
3879.00,0.3576
3878.00,0.3572
3877.00,0.3570
3876.00,0.3570
3875.00,0.3570
3874.00,0.3570
3873.00,0.3568
3872.00,0.3568
3871.00,0.3568
3870.00,0.3568
3869.00,0.3567
3868.00,0.3566
3867.00,0.3565
3866.00,0.3564
3865.00,0.3563
3864.00,0.3561
3863.00,0.3557
3862.00,0.3554
3861.00,0.3552
3860.00,0.3550
3859.00,0.3547
3858.00,0.3543
3857.00,0.3537
3856.00,0.3532
3855.00,0.3531
3854.00,0.3535
3853.00,0.3539
3852.00,0.3538
3851.00,0.3537
3850.00,0.3540
3849.00,0.3542
3848.00,0.3542
3847.00,0.3539
3846.00,0.3535
3845.00,0.3532
3844.00,0.3529
3843.00,0.3527
3842.00,0.3525
3841.00,0.3524
3840.00,0.3524
3839.00,0.3525
3838.00,0.3526
3837.00,0.3526
3836.00,0.3527
3835.00,0.3527
3834.00,0.3528
3833.00,0.3527
3832.00,0.3524
3831.00,0.3520
3830.00,0.3516
3829.00,0.3513
3828.00,0.3511
3827.00,0.3510
3826.00,0.3507
3825.00,0.3504
3824.00,0.3501
3823.00,0.3499
3822.00,0.3499
3821.00,0.3499
3820.00,0.3496
3819.00,0.3493
3818.00,0.3492
3817.00,0.3492
3816.00,0.3492
3815.00,0.3489
3814.00,0.3486
3813.00,0.3484
3812.00,0.3483
3811.00,0.3482
3810.00,0.3479
3809.00,0.3476
3808.00,0.3474
3807.00,0.3471
3806.00,0.3469
3805.00,0.3466
3804.00,0.3465
3803.00,0.3465
3802.00,0.3465
3801.00,0.3463
3800.00,0.3460
3799.00,0.3458
3798.00,0.3457
3797.00,0.3458
3796.00,0.3456
3795.00,0.3452
3794.00,0.3447
3793.00,0.3443
3792.00,0.3439
3791.00,0.3435
3790.00,0.3431
3789.00,0.3427
3788.00,0.3423
3787.00,0.3420
3786.00,0.3418
3785.00,0.3415
3784.00,0.3412
3783.00,0.3411
3782.00,0.3410
3781.00,0.3410
3780.00,0.3411
3779.00,0.3410
3778.00,0.3409
3777.00,0.3407
3776.00,0.3407
3775.00,0.3408
3774.00,0.3408
3773.00,0.3407
3772.00,0.3407
3771.00,0.3406
3770.00,0.3405
3769.00,0.3403
3768.00,0.3401
3767.00,0.3399
3766.00,0.3398
3765.00,0.3396
3764.00,0.3394
3763.00,0.3392
3762.00,0.3389
3761.00,0.3387
3760.00,0.3385
3759.00,0.3382
3758.00,0.3379
3757.00,0.3376
3756.00,0.3373
3755.00,0.3371
3754.00,0.3368
3753.00,0.3365
3752.00,0.3363
3751.00,0.3363
3750.00,0.3363
3749.00,0.3363
3748.00,0.3363
3747.00,0.3366
3746.00,0.3369
3745.00,0.3372
3744.00,0.3372
3743.00,0.3369
3742.00,0.3365
3741.00,0.3365
3740.00,0.3365
3739.00,0.3364
3738.00,0.3361
3737.00,0.3358
3736.00,0.3357
3735.00,0.3356
3734.00,0.3356
3733.00,0.3355
3732.00,0.3354
3731.00,0.3351
3730.00,0.3348
3729.00,0.3344
3728.00,0.3341
3727.00,0.3337
3726.00,0.3334
3725.00,0.3331
3724.00,0.3329
3723.00,0.3327
3722.00,0.3325
3721.00,0.3323
3720.00,0.3320
3719.00,0.3317
3718.00,0.3315
3717.00,0.3313
3716.00,0.3311
3715.00,0.3311
3714.00,0.3312
3713.00,0.3314
3712.00,0.3316
3711.00,0.3318
3710.00,0.3319
3709.00,0.3320
3708.00,0.3321
3707.00,0.3321
3706.00,0.3320
3705.00,0.3319
3704.00,0.3318
3703.00,0.3317
3702.00,0.3317
3701.00,0.3316
3700.00,0.3315
3699.00,0.3315
3698.00,0.3316
3697.00,0.3316
3696.00,0.3315
3695.00,0.3313
3694.00,0.3312
3693.00,0.3311
3692.00,0.3311
3691.00,0.3311
3690.00,0.3312
3689.00,0.3314
3688.00,0.3316
3687.00,0.3318
3686.00,0.3321
3685.00,0.3323
3684.00,0.3325
3683.00,0.3324
3682.00,0.3323
3681.00,0.3321
3680.00,0.3318
3679.00,0.3316
3678.00,0.3315
3677.00,0.3317
3676.00,0.3322
3675.00,0.3325
3674.00,0.3326
3673.00,0.3327
3672.00,0.3330
3671.00,0.3333
3670.00,0.3334
3669.00,0.3333
3668.00,0.3331
3667.00,0.3330
3666.00,0.3331
3665.00,0.3332
3664.00,0.3331
3663.00,0.3329
3662.00,0.3328
3661.00,0.3327
3660.00,0.3327
3659.00,0.3329
3658.00,0.3331
3657.00,0.3335
3656.00,0.3339
3655.00,0.3342
3654.00,0.3345
3653.00,0.3349
3652.00,0.3354
3651.00,0.3359
3650.00,0.3366
3649.00,0.3372
3648.00,0.3378
3647.00,0.3384
3646.00,0.3389
3645.00,0.3394
3644.00,0.3398
3643.00,0.3400
3642.00,0.3401
3641.00,0.3403
3640.00,0.3404
3639.00,0.3406
3638.00,0.3409
3637.00,0.3413
3636.00,0.3418
3635.00,0.3423
3634.00,0.3428
3633.00,0.3431
3632.00,0.3435
3631.00,0.3441
3630.00,0.3451
3629.00,0.3463
3628.00,0.3473
3627.00,0.3479
3626.00,0.3485
3625.00,0.3488
3624.00,0.3489
3623.00,0.3485
3622.00,0.3479
3621.00,0.3470
3620.00,0.3461
3619.00,0.3452
3618.00,0.3442
3617.00,0.3435
3616.00,0.3430
3615.00,0.3428
3614.00,0.3427
3613.00,0.3427
3612.00,0.3427
3611.00,0.3428
3610.00,0.3431
3609.00,0.3434
3608.00,0.3438
3607.00,0.3439
3606.00,0.3439
3605.00,0.3437
3604.00,0.3434
3603.00,0.3427
3602.00,0.3418
3601.00,0.3407
3600.00,0.3395
3599.00,0.3383
3598.00,0.3371
3597.00,0.3358
3596.00,0.3346
3595.00,0.3335
3594.00,0.3323
3593.00,0.3312
3592.00,0.3302
3591.00,0.3293
3590.00,0.3286
3589.00,0.3280
3588.00,0.3275
3587.00,0.3271
3586.00,0.3267
3585.00,0.3264
3584.00,0.3261
3583.00,0.3258
3582.00,0.3254
3581.00,0.3250
3580.00,0.3247
3579.00,0.3243
3578.00,0.3240
3577.00,0.3238
3576.00,0.3236
3575.00,0.3235
3574.00,0.3234
3573.00,0.3233
3572.00,0.3231
3571.00,0.3230
3570.00,0.3229
3569.00,0.3229
3568.00,0.3229
3567.00,0.3231
3566.00,0.3232
3565.00,0.3234
3564.00,0.3236
3563.00,0.3238
3562.00,0.3239
3561.00,0.3241
3560.00,0.3242
3559.00,0.3243
3558.00,0.3245
3557.00,0.3247
3556.00,0.3250
3555.00,0.3254
3554.00,0.3257
3553.00,0.3261
3552.00,0.3265
3551.00,0.3268
3550.00,0.3272
3549.00,0.3276
3548.00,0.3281
3547.00,0.3285
3546.00,0.3290
3545.00,0.3294
3544.00,0.3298
3543.00,0.3302
3542.00,0.3306
3541.00,0.3310
3540.00,0.3314
3539.00,0.3317
3538.00,0.3321
3537.00,0.3325
3536.00,0.3330
3535.00,0.3335
3534.00,0.3340
3533.00,0.3345
3532.00,0.3351
3531.00,0.3356
3530.00,0.3362
3529.00,0.3368
3528.00,0.3374
3527.00,0.3381
3526.00,0.3388
3525.00,0.3395
3524.00,0.3402
3523.00,0.3409
3522.00,0.3415
3521.00,0.3421
3520.00,0.3427
3519.00,0.3434
3518.00,0.3441
3517.00,0.3447
3516.00,0.3453
3515.00,0.3459
3514.00,0.3465
3513.00,0.3471
3512.00,0.3477
3511.00,0.3484
3510.00,0.3490
3509.00,0.3497
3508.00,0.3504
3507.00,0.3511
3506.00,0.3519
3505.00,0.3526
3504.00,0.3534
3503.00,0.3541
3502.00,0.3550
3501.00,0.3559
3500.00,0.3568
3499.00,0.3577
3498.00,0.3586
3497.00,0.3595
3496.00,0.3605
3495.00,0.3614
3494.00,0.3624
3493.00,0.3634
3492.00,0.3644
3491.00,0.3654
3490.00,0.3664
3489.00,0.3675
3488.00,0.3685
3487.00,0.3696
3486.00,0.3706
3485.00,0.3716
3484.00,0.3726
3483.00,0.3736
3482.00,0.3745
3481.00,0.3754
3480.00,0.3763
3479.00,0.3771
3478.00,0.3780
3477.00,0.3788
3476.00,0.3796
3475.00,0.3805
3474.00,0.3813
3473.00,0.3822
3472.00,0.3832
3471.00,0.3843
3470.00,0.3854
3469.00,0.3866
3468.00,0.3877
3467.00,0.3888
3466.00,0.3899
3465.00,0.3910
3464.00,0.3922
3463.00,0.3934
3462.00,0.3946
3461.00,0.3958
3460.00,0.3970
3459.00,0.3983
3458.00,0.3995
3457.00,0.4008
3456.00,0.4020
3455.00,0.4032
3454.00,0.4045
3453.00,0.4057
3452.00,0.4070
3451.00,0.4084
3450.00,0.4098
3449.00,0.4114
3448.00,0.4130
3447.00,0.4148
3446.00,0.4165
3445.00,0.4184
3444.00,0.4202
3443.00,0.4221
3442.00,0.4241
3441.00,0.4261
3440.00,0.4280
3439.00,0.4298
3438.00,0.4316
3437.00,0.4332
3436.00,0.4348
3435.00,0.4362
3434.00,0.4375
3433.00,0.4389
3432.00,0.4402
3431.00,0.4416
3430.00,0.4430
3429.00,0.4444
3428.00,0.4457
3427.00,0.4470
3426.00,0.4483
3425.00,0.4496
3424.00,0.4509
3423.00,0.4522
3422.00,0.4536
3421.00,0.4549
3420.00,0.4563
3419.00,0.4576
3418.00,0.4590
3417.00,0.4605
3416.00,0.4621
3415.00,0.4637
3414.00,0.4654
3413.00,0.4670
3412.00,0.4686
3411.00,0.4702
3410.00,0.4718
3409.00,0.4734
3408.00,0.4752
3407.00,0.4769
3406.00,0.4787
3405.00,0.4806
3404.00,0.4825
3403.00,0.4844
3402.00,0.4864
3401.00,0.4883
3400.00,0.4903
3399.00,0.4922
3398.00,0.4942
3397.00,0.4961
3396.00,0.4980
3395.00,0.4999
3394.00,0.5018
3393.00,0.5036
3392.00,0.5054
3391.00,0.5072
3390.00,0.5090
3389.00,0.5108
3388.00,0.5126
3387.00,0.5145
3386.00,0.5162
3385.00,0.5181
3384.00,0.5200
3383.00,0.5220
3382.00,0.5240
3381.00,0.5260
3380.00,0.5280
3379.00,0.5301
3378.00,0.5323
3377.00,0.5345
3376.00,0.5368
3375.00,0.5390
3374.00,0.5414
3373.00,0.5437
3372.00,0.5461
3371.00,0.5486
3370.00,0.5510
3369.00,0.5535
3368.00,0.5559
3367.00,0.5583
3366.00,0.5608
3365.00,0.5633
3364.00,0.5658
3363.00,0.5684
3362.00,0.5708
3361.00,0.5732
3360.00,0.5757
3359.00,0.5781
3358.00,0.5806
3357.00,0.5830
3356.00,0.5855
3355.00,0.5879
3354.00,0.5903
3353.00,0.5926
3352.00,0.5949
3351.00,0.5970
3350.00,0.5991
3349.00,0.6010
3348.00,0.6028
3347.00,0.6045
3346.00,0.6062
3345.00,0.6079
3344.00,0.6095
3343.00,0.6110
3342.00,0.6124
3341.00,0.6137
3340.00,0.6148
3339.00,0.6157
3338.00,0.6165
3337.00,0.6172
3336.00,0.6178
3335.00,0.6182
3334.00,0.6184
3333.00,0.6186
3332.00,0.6185
3331.00,0.6184
3330.00,0.6183
3329.00,0.6180
3328.00,0.6176
3327.00,0.6171
3326.00,0.6165
3325.00,0.6158
3324.00,0.6151
3323.00,0.6142
3322.00,0.6133
3321.00,0.6122
3320.00,0.6110
3319.00,0.6098
3318.00,0.6087
3317.00,0.6077
3316.00,0.6066
3315.00,0.6054
3314.00,0.6042
3313.00,0.6030
3312.00,0.6020
3311.00,0.6010
3310.00,0.6000
3309.00,0.5990
3308.00,0.5980
3307.00,0.5971
3306.00,0.5962
3305.00,0.5955
3304.00,0.5948
3303.00,0.5941
3302.00,0.5934
3301.00,0.5927
3300.00,0.5921
3299.00,0.5915
3298.00,0.5910
3297.00,0.5905
3296.00,0.5900
3295.00,0.5896
3294.00,0.5893
3293.00,0.5890
3292.00,0.5889
3291.00,0.5888
3290.00,0.5887
3289.00,0.5887
3288.00,0.5887
3287.00,0.5888
3286.00,0.5890
3285.00,0.5893
3284.00,0.5895
3283.00,0.5897
3282.00,0.5899
3281.00,0.5902
3280.00,0.5906
3279.00,0.5910
3278.00,0.5915
3277.00,0.5921
3276.00,0.5926
3275.00,0.5931
3274.00,0.5937
3273.00,0.5941
3272.00,0.5946
3271.00,0.5950
3270.00,0.5955
3269.00,0.5960
3268.00,0.5965
3267.00,0.5970
3266.00,0.5974
3265.00,0.5977
3264.00,0.5980
3263.00,0.5982
3262.00,0.5985
3261.00,0.5988
3260.00,0.5990
3259.00,0.5992
3258.00,0.5993
3257.00,0.5993
3256.00,0.5993
3255.00,0.5993
3254.00,0.5993
3253.00,0.5993
3252.00,0.5992
3251.00,0.5989
3250.00,0.5986
3249.00,0.5982
3248.00,0.5977
3247.00,0.5973
3246.00,0.5968
3245.00,0.5963
3244.00,0.5957
3243.00,0.5950
3242.00,0.5942
3241.00,0.5935
3240.00,0.5927
3239.00,0.5918
3238.00,0.5909
3237.00,0.5899
3236.00,0.5888
3235.00,0.5877
3234.00,0.5866
3233.00,0.5854
3232.00,0.5841
3231.00,0.5827
3230.00,0.5813
3229.00,0.5798
3228.00,0.5783
3227.00,0.5767
3226.00,0.5752
3225.00,0.5738
3224.00,0.5723
3223.00,0.5708
3222.00,0.5692
3221.00,0.5677
3220.00,0.5661
3219.00,0.5646
3218.00,0.5630
3217.00,0.5614
3216.00,0.5599
3215.00,0.5585
3214.00,0.5571
3213.00,0.5557
3212.00,0.5543
3211.00,0.5529
3210.00,0.5514
3209.00,0.5499
3208.00,0.5484
3207.00,0.5469
3206.00,0.5455
3205.00,0.5441
3204.00,0.5428
3203.00,0.5416
3202.00,0.5403
3201.00,0.5390
3200.00,0.5377
3199.00,0.5364
3198.00,0.5351
3197.00,0.5337
3196.00,0.5324
3195.00,0.5311
3194.00,0.5297
3193.00,0.5283
3192.00,0.5269
3191.00,0.5256
3190.00,0.5243
3189.00,0.5230
3188.00,0.5216
3187.00,0.5202
3186.00,0.5188
3185.00,0.5173
3184.00,0.5159
3183.00,0.5145
3182.00,0.5131
3181.00,0.5117
3180.00,0.5103
3179.00,0.5089
3178.00,0.5074
3177.00,0.5059
3176.00,0.5044
3175.00,0.5029
3174.00,0.5014
3173.00,0.4999
3172.00,0.4985
3171.00,0.4970
3170.00,0.4956
3169.00,0.4941
3168.00,0.4928
3167.00,0.4915
3166.00,0.4902
3165.00,0.4890
3164.00,0.4877
3163.00,0.4865
3162.00,0.4852
3161.00,0.4840
3160.00,0.4829
3159.00,0.4817
3158.00,0.4806
3157.00,0.4794
3156.00,0.4783
3155.00,0.4772
3154.00,0.4761
3153.00,0.4751
3152.00,0.4741
3151.00,0.4731
3150.00,0.4722
3149.00,0.4713
3148.00,0.4704
3147.00,0.4694
3146.00,0.4685
3145.00,0.4676
3144.00,0.4668
3143.00,0.4659
3142.00,0.4650
3141.00,0.4642
3140.00,0.4634
3139.00,0.4627
3138.00,0.4620
3137.00,0.4614
3136.00,0.4608
3135.00,0.4602
3134.00,0.4596
3133.00,0.4592
3132.00,0.4587
3131.00,0.4582
3130.00,0.4577
3129.00,0.4573
3128.00,0.4569
3127.00,0.4565
3126.00,0.4561
3125.00,0.4558
3124.00,0.4555
3123.00,0.4552
3122.00,0.4549
3121.00,0.4548
3120.00,0.4547
3119.00,0.4547
3118.00,0.4548
3117.00,0.4548
3116.00,0.4550
3115.00,0.4552
3114.00,0.4555
3113.00,0.4559
3112.00,0.4564
3111.00,0.4569
3110.00,0.4575
3109.00,0.4583
3108.00,0.4592
3107.00,0.4603
3106.00,0.4616
3105.00,0.4630
3104.00,0.4645
3103.00,0.4660
3102.00,0.4675
3101.00,0.4690
3100.00,0.4704
3099.00,0.4717
3098.00,0.4729
3097.00,0.4739
3096.00,0.4749
3095.00,0.4759
3094.00,0.4768
3093.00,0.4779
3092.00,0.4790
3091.00,0.4804
3090.00,0.4819
3089.00,0.4836
3088.00,0.4855
3087.00,0.4877
3086.00,0.4902
3085.00,0.4929
3084.00,0.4959
3083.00,0.4991
3082.00,0.5024
3081.00,0.5058
3080.00,0.5093
3079.00,0.5129
3078.00,0.5166
3077.00,0.5204
3076.00,0.5242
3075.00,0.5279
3074.00,0.5316
3073.00,0.5352
3072.00,0.5387
3071.00,0.5422
3070.00,0.5457
3069.00,0.5492
3068.00,0.5527
3067.00,0.5563
3066.00,0.5601
3065.00,0.5639
3064.00,0.5680
3063.00,0.5720
3062.00,0.5761
3061.00,0.5800
3060.00,0.5837
3059.00,0.5871
3058.00,0.5905
3057.00,0.5938
3056.00,0.5972
3055.00,0.6006
3054.00,0.6042
3053.00,0.6080
3052.00,0.6120
3051.00,0.6163
3050.00,0.6210
3049.00,0.6259
3048.00,0.6311
3047.00,0.6364
3046.00,0.6416
3045.00,0.6464
3044.00,0.6508
3043.00,0.6548
3042.00,0.6587
3041.00,0.6627
3040.00,0.6668
3039.00,0.6712
3038.00,0.6759
3037.00,0.6810
3036.00,0.6867
3035.00,0.6929
3034.00,0.6996
3033.00,0.7066
3032.00,0.7139
3031.00,0.7213
3030.00,0.7286
3029.00,0.7360
3028.00,0.7434
3027.00,0.7509
3026.00,0.7586
3025.00,0.7667
3024.00,0.7751
3023.00,0.7840
3022.00,0.7933
3021.00,0.8029
3020.00,0.8129
3019.00,0.8232
3018.00,0.8338
3017.00,0.8449
3016.00,0.8564
3015.00,0.8684
3014.00,0.8810
3013.00,0.8941
3012.00,0.9079
3011.00,0.9224
3010.00,0.9378
3009.00,0.9541
3008.00,0.9711
3007.00,0.9890
3006.00,1.0078
3005.00,1.0275
3004.00,1.0481
3003.00,1.0696
3002.00,1.0920
3001.00,1.1154
3000.00,1.1399
2999.00,1.1658
2998.00,1.1935
2997.00,1.2234
2996.00,1.2555
2995.00,1.2902
2994.00,1.3279
2993.00,1.3690
2992.00,1.4137
2991.00,1.4624
2990.00,1.5156
2989.00,1.5737
2988.00,1.6370
2987.00,1.7056
2986.00,1.7805
2985.00,1.8630
2984.00,1.9554
2983.00,2.0596
2982.00,2.1756
2981.00,2.3022
2980.00,2.4382
2979.00,2.5857
2978.00,2.7482
2977.00,2.9278
2976.00,3.1264
2975.00,3.3443
2974.00,3.5505
2973.00,3.6778
2972.00,3.7035
2971.00,3.6826
2970.00,3.6496
2969.00,3.6308
2968.00,3.6598
2967.00,3.8065
2966.00,4.1703
2965.00,4.4602
2964.00,4.3104
2963.00,4.1175
2962.00,4.0949
2961.00,4.0789
2960.00,4.0561
2959.00,4.1235
2958.00,4.1003
2957.00,4.0185
2956.00,4.0098
2955.00,4.0943
2954.00,4.1798
2953.00,4.2577
2952.00,4.3692
2951.00,4.4653
2950.00,4.6252
2949.00,4.6339
2948.00,4.3398
2947.00,4.1369
2946.00,4.0624
2945.00,4.0590
2944.00,4.0248
2943.00,4.0262
2942.00,4.0817
2941.00,4.0600
2940.00,3.9457
2939.00,3.8528
2938.00,3.8234
2937.00,3.7951
2936.00,3.7355
2935.00,3.6824
2934.00,3.6684
2933.00,3.6760
2932.00,3.7078
2931.00,3.7822
2930.00,3.9769
2929.00,4.3434
2928.00,4.4705
2927.00,4.5318
2926.00,4.2407
2925.00,3.9453
2924.00,3.7523
2923.00,3.7119
2922.00,3.8216
2921.00,3.9304
2920.00,4.0341
2919.00,4.1149
2918.00,4.0703
2917.00,3.9504
2916.00,3.8507
2915.00,3.8083
2914.00,3.8010
2913.00,3.8168
2912.00,3.8539
2911.00,3.8981
2910.00,3.9049
2909.00,3.8783
2908.00,3.8535
2907.00,3.8503
2906.00,3.8719
2905.00,3.9549
2904.00,4.0988
2903.00,4.0918
2902.00,4.0311
2901.00,4.0268
2900.00,3.9810
2899.00,3.8550
2898.00,3.7444
2897.00,3.7406
2896.00,3.7993
2895.00,3.8814
2894.00,3.9501
2893.00,3.9393
2892.00,3.8938
2891.00,3.8676
2890.00,3.8712
2889.00,3.9178
2888.00,4.0133
2887.00,4.0949
2886.00,4.2205
2885.00,4.5532
2884.00,4.7904
2883.00,4.7280
2882.00,4.5318
2881.00,4.2912
2880.00,3.9959
2879.00,3.7895
2878.00,3.7379
2877.00,3.7886
2876.00,3.9711
2875.00,4.3044
2874.00,4.7031
2873.00,4.8312
2872.00,4.3460
2871.00,4.1301
2870.00,4.0357
2869.00,4.0729
2868.00,4.1529
2867.00,4.2512
2866.00,4.3868
2865.00,4.3005
2864.00,4.1136
2863.00,3.9353
2862.00,3.8512
2861.00,3.8717
2860.00,3.9420
2859.00,3.9679
2858.00,3.9502
2857.00,3.9681
2856.00,3.9792
2855.00,3.9297
2854.00,3.9571
2853.00,4.1497
2852.00,4.4101
2851.00,4.5483
2850.00,4.4314
2849.00,4.3467
2848.00,4.2562
2847.00,4.1147
2846.00,4.0223
2845.00,4.0307
2844.00,4.2808
2843.00,4.7415
2842.00,4.4952
2841.00,4.1871
2840.00,4.0103
2839.00,3.8381
2838.00,3.5814
2837.00,3.3049
2836.00,3.0626
2835.00,2.8621
2834.00,2.6905
2833.00,2.5341
2832.00,2.3905
2831.00,2.2610
2830.00,2.1450
2829.00,2.0402
2828.00,1.9454
2827.00,1.8601
2826.00,1.7829
2825.00,1.7123
2824.00,1.6469
2823.00,1.5867
2822.00,1.5316
2821.00,1.4811
2820.00,1.4346
2819.00,1.3915
2818.00,1.3514
2817.00,1.3137
2816.00,1.2784
2815.00,1.2452
2814.00,1.2139
2813.00,1.1843
2812.00,1.1564
2811.00,1.1301
2810.00,1.1050
2809.00,1.0808
2808.00,1.0575
2807.00,1.0352
2806.00,1.0139
2805.00,0.9934
2804.00,0.9737
2803.00,0.9548
2802.00,0.9364
2801.00,0.9187
2800.00,0.9016
2799.00,0.8851
2798.00,0.8693
2797.00,0.8540
2796.00,0.8394
2795.00,0.8254
2794.00,0.8121
2793.00,0.7992
2792.00,0.7869
2791.00,0.7750
2790.00,0.7634
2789.00,0.7522
2788.00,0.7412
2787.00,0.7304
2786.00,0.7199
2785.00,0.7096
2784.00,0.6994
2783.00,0.6895
2782.00,0.6799
2781.00,0.6706
2780.00,0.6617
2779.00,0.6530
2778.00,0.6447
2777.00,0.6367
2776.00,0.6292
2775.00,0.6221
2774.00,0.6156
2773.00,0.6096
2772.00,0.6040
2771.00,0.5988
2770.00,0.5942
2769.00,0.5899
2768.00,0.5862
2767.00,0.5828
2766.00,0.5799
2765.00,0.5773
2764.00,0.5751
2763.00,0.5731
2762.00,0.5713
2761.00,0.5698
2760.00,0.5685
2759.00,0.5673
2758.00,0.5663
2757.00,0.5654
2756.00,0.5645
2755.00,0.5637
2754.00,0.5630
2753.00,0.5625
2752.00,0.5622
2751.00,0.5622
2750.00,0.5623
2749.00,0.5627
2748.00,0.5632
2747.00,0.5639
2746.00,0.5648
2745.00,0.5658
2744.00,0.5672
2743.00,0.5688
2742.00,0.5709
2741.00,0.5735
2740.00,0.5764
2739.00,0.5797
2738.00,0.5834
2737.00,0.5874
2736.00,0.5919
2735.00,0.5969
2734.00,0.6020
2733.00,0.6068
2732.00,0.6109
2731.00,0.6137
2730.00,0.6150
2729.00,0.6146
2728.00,0.6126
2727.00,0.6093
2726.00,0.6052
2725.00,0.6007
2724.00,0.5962
2723.00,0.5918
2722.00,0.5878
2721.00,0.5840
2720.00,0.5804
2719.00,0.5769
2718.00,0.5735
2717.00,0.5701
2716.00,0.5666
2715.00,0.5630
2714.00,0.5593
2713.00,0.5556
2712.00,0.5520
2711.00,0.5485
2710.00,0.5455
2709.00,0.5427
2708.00,0.5404
2707.00,0.5384
2706.00,0.5366
2705.00,0.5352
2704.00,0.5341
2703.00,0.5333
2702.00,0.5330
2701.00,0.5329
2700.00,0.5332
2699.00,0.5337
2698.00,0.5346
2697.00,0.5358
2696.00,0.5372
2695.00,0.5389
2694.00,0.5408
2693.00,0.5429
2692.00,0.5451
2691.00,0.5474
2690.00,0.5498
2689.00,0.5520
2688.00,0.5540
2687.00,0.5558
2686.00,0.5573
2685.00,0.5586
2684.00,0.5596
2683.00,0.5603
2682.00,0.5608
2681.00,0.5611
2680.00,0.5612
2679.00,0.5612
2678.00,0.5612
2677.00,0.5611
2676.00,0.5610
2675.00,0.5609
2674.00,0.5607
2673.00,0.5604
2672.00,0.5598
2671.00,0.5590
2670.00,0.5578
2669.00,0.5562
2668.00,0.5542
2667.00,0.5518
2666.00,0.5492
2665.00,0.5464
2664.00,0.5435
2663.00,0.5405
2662.00,0.5376
2661.00,0.5347
2660.00,0.5319
2659.00,0.5292
2658.00,0.5267
2657.00,0.5242
2656.00,0.5219
2655.00,0.5197
2654.00,0.5176
2653.00,0.5156
2652.00,0.5136
2651.00,0.5117
2650.00,0.5098
2649.00,0.5079
2648.00,0.5060
2647.00,0.5041
2646.00,0.5023
2645.00,0.5005
2644.00,0.4987
2643.00,0.4968
2642.00,0.4950
2641.00,0.4934
2640.00,0.4919
2639.00,0.4905
2638.00,0.4891
2637.00,0.4878
2636.00,0.4866
2635.00,0.4854
2634.00,0.4843
2633.00,0.4832
2632.00,0.4820
2631.00,0.4808
2630.00,0.4795
2629.00,0.4782
2628.00,0.4769
2627.00,0.4756
2626.00,0.4744
2625.00,0.4732
2624.00,0.4719
2623.00,0.4705
2622.00,0.4691
2621.00,0.4677
2620.00,0.4662
2619.00,0.4648
2618.00,0.4634
2617.00,0.4621
2616.00,0.4607
2615.00,0.4592
2614.00,0.4578
2613.00,0.4565
2612.00,0.4552
2611.00,0.4540
2610.00,0.4527
2609.00,0.4516
2608.00,0.4505
2607.00,0.4494
2606.00,0.4483
2605.00,0.4472
2604.00,0.4461
2603.00,0.4450
2602.00,0.4438
2601.00,0.4425
2600.00,0.4411
2599.00,0.4396
2598.00,0.4380
2597.00,0.4362
2596.00,0.4344
2595.00,0.4325
2594.00,0.4306
2593.00,0.4287
2592.00,0.4268
2591.00,0.4250
2590.00,0.4231
2589.00,0.4213
2588.00,0.4195
2587.00,0.4177
2586.00,0.4159
2585.00,0.4141
2584.00,0.4124
2583.00,0.4105
2582.00,0.4087
2581.00,0.4068
2580.00,0.4050
2579.00,0.4032
2578.00,0.4014
2577.00,0.3998
2576.00,0.3981
2575.00,0.3965
2574.00,0.3949
2573.00,0.3934
2572.00,0.3919
2571.00,0.3905
2570.00,0.3892
2569.00,0.3879
2568.00,0.3866
2567.00,0.3853
2566.00,0.3839
2565.00,0.3825
2564.00,0.3810
2563.00,0.3794
2562.00,0.3777
2561.00,0.3761
2560.00,0.3745
2559.00,0.3730
2558.00,0.3715
2557.00,0.3701
2556.00,0.3686
2555.00,0.3671
2554.00,0.3657
2553.00,0.3644
2552.00,0.3631
2551.00,0.3619
2550.00,0.3607
2549.00,0.3596
2548.00,0.3585
2547.00,0.3576
2546.00,0.3567
2545.00,0.3558
2544.00,0.3549
2543.00,0.3541
2542.00,0.3533
2541.00,0.3525
2540.00,0.3518
2539.00,0.3511
2538.00,0.3504
2537.00,0.3497
2536.00,0.3490
2535.00,0.3484
2534.00,0.3477
2533.00,0.3470
2532.00,0.3463
2531.00,0.3455
2530.00,0.3446
2529.00,0.3435
2528.00,0.3424
2527.00,0.3411
2526.00,0.3398
2525.00,0.3385
2524.00,0.3371
2523.00,0.3358
2522.00,0.3345
2521.00,0.3332
2520.00,0.3320
2519.00,0.3308
2518.00,0.3297
2517.00,0.3285
2516.00,0.3274
2515.00,0.3263
2514.00,0.3252
2513.00,0.3242
2512.00,0.3232
2511.00,0.3223
2510.00,0.3214
2509.00,0.3206
2508.00,0.3199
2507.00,0.3193
2506.00,0.3188
2505.00,0.3183
2504.00,0.3180
2503.00,0.3177
2502.00,0.3175
2501.00,0.3174
2500.00,0.3174
2499.00,0.3173
2498.00,0.3172
2497.00,0.3171
2496.00,0.3169
2495.00,0.3167
2494.00,0.3164
2493.00,0.3160
2492.00,0.3155
2491.00,0.3149
2490.00,0.3143
2489.00,0.3135
2488.00,0.3126
2487.00,0.3117
2486.00,0.3108
2485.00,0.3099
2484.00,0.3090
2483.00,0.3080
2482.00,0.3070
2481.00,0.3061
2480.00,0.3052
2479.00,0.3043
2478.00,0.3035
2477.00,0.3027
2476.00,0.3019
2475.00,0.3012
2474.00,0.3005
2473.00,0.2999
2472.00,0.2993
2471.00,0.2988
2470.00,0.2984
2469.00,0.2980
2468.00,0.2976
2467.00,0.2972
2466.00,0.2968
2465.00,0.2964
2464.00,0.2961
2463.00,0.2957
2462.00,0.2955
2461.00,0.2952
2460.00,0.2950
2459.00,0.2947
2458.00,0.2944
2457.00,0.2942
2456.00,0.2939
2455.00,0.2937
2454.00,0.2935
2453.00,0.2933
2452.00,0.2931
2451.00,0.2929
2450.00,0.2927
2449.00,0.2925
2448.00,0.2924
2447.00,0.2923
2446.00,0.2922
2445.00,0.2922
2444.00,0.2922
2443.00,0.2922
2442.00,0.2921
2441.00,0.2921
2440.00,0.2922
2439.00,0.2923
2438.00,0.2923
2437.00,0.2924
2436.00,0.2924
2435.00,0.2924
2434.00,0.2924
2433.00,0.2925
2432.00,0.2926
2431.00,0.2927
2430.00,0.2928
2429.00,0.2930
2428.00,0.2931
2427.00,0.2932
2426.00,0.2933
2425.00,0.2935
2424.00,0.2936
2423.00,0.2938
2422.00,0.2939
2421.00,0.2940
2420.00,0.2941
2419.00,0.2942
2418.00,0.2943
2417.00,0.2943
2416.00,0.2944
2415.00,0.2944
2414.00,0.2945
2413.00,0.2946
2412.00,0.2946
2411.00,0.2946
2410.00,0.2946
2409.00,0.2947
2408.00,0.2947
2407.00,0.2948
2406.00,0.2948
2405.00,0.2949
2404.00,0.2950
2403.00,0.2950
2402.00,0.2951
2401.00,0.2951
2400.00,0.2952
2399.00,0.2953
2398.00,0.2955
2397.00,0.2955
2396.00,0.2956
2395.00,0.2957
2394.00,0.2957
2393.00,0.2958
2392.00,0.2959
2391.00,0.2960
2390.00,0.2962
2389.00,0.2963
2388.00,0.2965
2387.00,0.2968
2386.00,0.2970
2385.00,0.2971
2384.00,0.2973
2383.00,0.2974
2382.00,0.2977
2381.00,0.2979
2380.00,0.2981
2379.00,0.2983
2378.00,0.2984
2377.00,0.2985
2376.00,0.2985
2375.00,0.2984
2374.00,0.2983
2373.00,0.2982
2372.00,0.2981
2371.00,0.2980
2370.00,0.2980
2369.00,0.2979
2368.00,0.2979
2367.00,0.2980
2366.00,0.2981
2365.00,0.2982
2364.00,0.2982
2363.00,0.2984
2362.00,0.2985
2361.00,0.2987
2360.00,0.2990
2359.00,0.2992
2358.00,0.2996
2357.00,0.3002
2356.00,0.3007
2355.00,0.3013
2354.00,0.3016
2353.00,0.3012
2352.00,0.3000
2351.00,0.2986
2350.00,0.2977
2349.00,0.2975
2348.00,0.2977
2347.00,0.2977
2346.00,0.2973
2345.00,0.2968
2344.00,0.2966
2343.00,0.2965
2342.00,0.2964
2341.00,0.2963
2340.00,0.2963
2339.00,0.2962
2338.00,0.2960
2337.00,0.2958
2336.00,0.2954
2335.00,0.2950
2334.00,0.2947
2333.00,0.2945
2332.00,0.2942
2331.00,0.2938
2330.00,0.2933
2329.00,0.2927
2328.00,0.2922
2327.00,0.2918
2326.00,0.2915
2325.00,0.2912
2324.00,0.2909
2323.00,0.2904
2322.00,0.2899
2321.00,0.2893
2320.00,0.2888
2319.00,0.2882
2318.00,0.2877
2317.00,0.2873
2316.00,0.2870
2315.00,0.2867
2314.00,0.2864
2313.00,0.2860
2312.00,0.2856
2311.00,0.2852
2310.00,0.2847
2309.00,0.2841
2308.00,0.2834
2307.00,0.2828
2306.00,0.2823
2305.00,0.2818
2304.00,0.2814
2303.00,0.2810
2302.00,0.2807
2301.00,0.2803
2300.00,0.2799
2299.00,0.2795
2298.00,0.2792
2297.00,0.2788
2296.00,0.2784
2295.00,0.2780
2294.00,0.2775
2293.00,0.2769
2292.00,0.2763
2291.00,0.2757
2290.00,0.2751
2289.00,0.2744
2288.00,0.2737
2287.00,0.2730
2286.00,0.2724
2285.00,0.2718
2284.00,0.2713
2283.00,0.2708
2282.00,0.2704
2281.00,0.2701
2280.00,0.2697
2279.00,0.2694
2278.00,0.2690
2277.00,0.2688
2276.00,0.2685
2275.00,0.2682
2274.00,0.2680
2273.00,0.2678
2272.00,0.2676
2271.00,0.2674
2270.00,0.2673
2269.00,0.2672
2268.00,0.2671
2267.00,0.2669
2266.00,0.2668
2265.00,0.2667
2264.00,0.2665
2263.00,0.2663
2262.00,0.2660
2261.00,0.2656
2260.00,0.2652
2259.00,0.2647
2258.00,0.2642
2257.00,0.2637
2256.00,0.2632
2255.00,0.2628
2254.00,0.2623
2253.00,0.2619
2252.00,0.2615
2251.00,0.2611
2250.00,0.2607
2249.00,0.2603
2248.00,0.2600
2247.00,0.2598
2246.00,0.2595
2245.00,0.2594
2244.00,0.2592
2243.00,0.2591
2242.00,0.2589
2241.00,0.2588
2240.00,0.2586
2239.00,0.2584
2238.00,0.2582
2237.00,0.2580
2236.00,0.2578
2235.00,0.2576
2234.00,0.2573
2233.00,0.2570
2232.00,0.2568
2231.00,0.2565
2230.00,0.2562
2229.00,0.2559
2228.00,0.2556
2227.00,0.2553
2226.00,0.2550
2225.00,0.2547
2224.00,0.2545
2223.00,0.2543
2222.00,0.2541
2221.00,0.2539
2220.00,0.2537
2219.00,0.2537
2218.00,0.2536
2217.00,0.2536
2216.00,0.2535
2215.00,0.2535
2214.00,0.2534
2213.00,0.2535
2212.00,0.2536
2211.00,0.2536
2210.00,0.2536
2209.00,0.2536
2208.00,0.2535
2207.00,0.2534
2206.00,0.2534
2205.00,0.2533
2204.00,0.2533
2203.00,0.2533
2202.00,0.2533
2201.00,0.2532
2200.00,0.2532
2199.00,0.2532
2198.00,0.2532
2197.00,0.2533
2196.00,0.2533
2195.00,0.2532
2194.00,0.2532
2193.00,0.2532
2192.00,0.2532
2191.00,0.2532
2190.00,0.2533
2189.00,0.2534
2188.00,0.2535
2187.00,0.2536
2186.00,0.2537
2185.00,0.2538
2184.00,0.2539
2183.00,0.2540
2182.00,0.2541
2181.00,0.2542
2180.00,0.2542
2179.00,0.2542
2178.00,0.2541
2177.00,0.2541
2176.00,0.2540
2175.00,0.2539
2174.00,0.2538
2173.00,0.2537
2172.00,0.2536
2171.00,0.2535
2170.00,0.2534
2169.00,0.2533
2168.00,0.2532
2167.00,0.2531
2166.00,0.2529
2165.00,0.2528
2164.00,0.2528
2163.00,0.2527
2162.00,0.2526
2161.00,0.2526
2160.00,0.2525
2159.00,0.2525
2158.00,0.2524
2157.00,0.2523
2156.00,0.2522
2155.00,0.2522
2154.00,0.2521
2153.00,0.2522
2152.00,0.2522
2151.00,0.2522
2150.00,0.2520
2149.00,0.2519
2148.00,0.2516
2147.00,0.2512
2146.00,0.2506
2145.00,0.2499
2144.00,0.2492
2143.00,0.2484
2142.00,0.2476
2141.00,0.2468
2140.00,0.2461
2139.00,0.2453
2138.00,0.2446
2137.00,0.2439
2136.00,0.2433
2135.00,0.2427
2134.00,0.2422
2133.00,0.2417
2132.00,0.2413
2131.00,0.2409
2130.00,0.2405
2129.00,0.2401
2128.00,0.2398
2127.00,0.2395
2126.00,0.2394
2125.00,0.2392
2124.00,0.2391
2123.00,0.2391
2122.00,0.2390
2121.00,0.2391
2120.00,0.2391
2119.00,0.2391
2118.00,0.2392
2117.00,0.2392
2116.00,0.2392
2115.00,0.2391
2114.00,0.2391
2113.00,0.2391
2112.00,0.2390
2111.00,0.2389
2110.00,0.2387
2109.00,0.2385
2108.00,0.2382
2107.00,0.2380
2106.00,0.2377
2105.00,0.2376
2104.00,0.2374
2103.00,0.2372
2102.00,0.2369
2101.00,0.2368
2100.00,0.2366
2099.00,0.2365
2098.00,0.2363
2097.00,0.2363
2096.00,0.2362
2095.00,0.2362
2094.00,0.2362
2093.00,0.2361
2092.00,0.2361
2091.00,0.2361
2090.00,0.2361
2089.00,0.2362
2088.00,0.2364
2087.00,0.2366
2086.00,0.2367
2085.00,0.2369
2084.00,0.2371
2083.00,0.2372
2082.00,0.2373
2081.00,0.2374
2080.00,0.2375
2079.00,0.2375
2078.00,0.2375
2077.00,0.2375
2076.00,0.2375
2075.00,0.2374
2074.00,0.2374
2073.00,0.2374
2072.00,0.2374
2071.00,0.2374
2070.00,0.2374
2069.00,0.2374
2068.00,0.2374
2067.00,0.2374
2066.00,0.2375
2065.00,0.2377
2064.00,0.2380
2063.00,0.2383
2062.00,0.2385
2061.00,0.2388
2060.00,0.2391
2059.00,0.2394
2058.00,0.2397
2057.00,0.2401
2056.00,0.2404
2055.00,0.2407
2054.00,0.2411
2053.00,0.2415
2052.00,0.2419
2051.00,0.2422
2050.00,0.2426
2049.00,0.2431
2048.00,0.2435
2047.00,0.2438
2046.00,0.2441
2045.00,0.2443
2044.00,0.2445
2043.00,0.2447
2042.00,0.2449
2041.00,0.2451
2040.00,0.2454
2039.00,0.2456
2038.00,0.2457
2037.00,0.2458
2036.00,0.2459
2035.00,0.2460
2034.00,0.2461
2033.00,0.2462
2032.00,0.2464
2031.00,0.2466
2030.00,0.2468
2029.00,0.2470
2028.00,0.2472
2027.00,0.2474
2026.00,0.2476
2025.00,0.2476
2024.00,0.2476
2023.00,0.2475
2022.00,0.2472
2021.00,0.2468
2020.00,0.2461
2019.00,0.2452
2018.00,0.2442
2017.00,0.2432
2016.00,0.2423
2015.00,0.2413
2014.00,0.2402
2013.00,0.2391
2012.00,0.2380
2011.00,0.2368
2010.00,0.2357
2009.00,0.2348
2008.00,0.2340
2007.00,0.2333
2006.00,0.2326
2005.00,0.2321
2004.00,0.2316
2003.00,0.2312
2002.00,0.2309
2001.00,0.2306
2000.00,0.2304
1999.00,0.2303
1998.00,0.2302
1997.00,0.2302
1996.00,0.2301
1995.00,0.2300
1994.00,0.2297
1993.00,0.2296
1992.00,0.2296
1991.00,0.2297
1990.00,0.2299
1989.00,0.2300
1988.00,0.2300
1987.00,0.2299
1986.00,0.2298
1985.00,0.2298
1984.00,0.2296
1983.00,0.2294
1982.00,0.2291
1981.00,0.2288
1980.00,0.2285
1979.00,0.2283
1978.00,0.2280
1977.00,0.2278
1976.00,0.2277
1975.00,0.2275
1974.00,0.2275
1973.00,0.2274
1972.00,0.2274
1971.00,0.2272
1970.00,0.2270
1969.00,0.2268
1968.00,0.2268
1967.00,0.2270
1966.00,0.2274
1965.00,0.2278
1964.00,0.2282
1963.00,0.2285
1962.00,0.2287
1961.00,0.2290
1960.00,0.2293
1959.00,0.2296
1958.00,0.2300
1957.00,0.2304
1956.00,0.2308
1955.00,0.2311
1954.00,0.2314
1953.00,0.2315
1952.00,0.2315
1951.00,0.2312
1950.00,0.2309
1949.00,0.2305
1948.00,0.2301
1947.00,0.2298
1946.00,0.2294
1945.00,0.2292
1944.00,0.2291
1943.00,0.2293
1942.00,0.2299
1941.00,0.2307
1940.00,0.2315
1939.00,0.2323
1938.00,0.2330
1937.00,0.2338
1936.00,0.2347
1935.00,0.2354
1934.00,0.2359
1933.00,0.2363
1932.00,0.2365
1931.00,0.2364
1930.00,0.2361
1929.00,0.2357
1928.00,0.2352
1927.00,0.2345
1926.00,0.2337
1925.00,0.2330
1924.00,0.2324
1923.00,0.2320
1922.00,0.2320
1921.00,0.2322
1920.00,0.2325
1919.00,0.2327
1918.00,0.2329
1917.00,0.2331
1916.00,0.2333
1915.00,0.2334
1914.00,0.2332
1913.00,0.2329
1912.00,0.2327
1911.00,0.2324
1910.00,0.2323
1909.00,0.2324
1908.00,0.2326
1907.00,0.2328
1906.00,0.2328
1905.00,0.2329
1904.00,0.2328
1903.00,0.2328
1902.00,0.2327
1901.00,0.2326
1900.00,0.2326
1899.00,0.2324
1898.00,0.2323
1897.00,0.2322
1896.00,0.2322
1895.00,0.2323
1894.00,0.2324
1893.00,0.2326
1892.00,0.2326
1891.00,0.2325
1890.00,0.2325
1889.00,0.2327
1888.00,0.2330
1887.00,0.2332
1886.00,0.2332
1885.00,0.2333
1884.00,0.2333
1883.00,0.2333
1882.00,0.2333
1881.00,0.2332
1880.00,0.2332
1879.00,0.2331
1878.00,0.2331
1877.00,0.2330
1876.00,0.2329
1875.00,0.2326
1874.00,0.2322
1873.00,0.2317
1872.00,0.2311
1871.00,0.2305
1870.00,0.2298
1869.00,0.2294
1868.00,0.2293
1867.00,0.2294
1866.00,0.2295
1865.00,0.2296
1864.00,0.2296
1863.00,0.2294
1862.00,0.2292
1861.00,0.2292
1860.00,0.2292
1859.00,0.2293
1858.00,0.2293
1857.00,0.2293
1856.00,0.2293
1855.00,0.2290
1854.00,0.2287
1853.00,0.2282
1852.00,0.2276
1851.00,0.2269
1850.00,0.2259
1849.00,0.2250
1848.00,0.2241
1847.00,0.2236
1846.00,0.2233
1845.00,0.2232
1844.00,0.2232
1843.00,0.2232
1842.00,0.2231
1841.00,0.2230
1840.00,0.2229
1839.00,0.2225
1838.00,0.2223
1837.00,0.2222
1836.00,0.2223
1835.00,0.2224
1834.00,0.2223
1833.00,0.2222
1832.00,0.2222
1831.00,0.2221
1830.00,0.2222
1829.00,0.2224
1828.00,0.2226
1827.00,0.2226
1826.00,0.2225
1825.00,0.2225
1824.00,0.2226
1823.00,0.2228
1822.00,0.2228
1821.00,0.2227
1820.00,0.2226
1819.00,0.2224
1818.00,0.2222
1817.00,0.2221
1816.00,0.2221
1815.00,0.2220
1814.00,0.2217
1813.00,0.2215
1812.00,0.2215
1811.00,0.2216
1810.00,0.2220
1809.00,0.2225
1808.00,0.2231
1807.00,0.2235
1806.00,0.2239
1805.00,0.2241
1804.00,0.2242
1803.00,0.2244
1802.00,0.2248
1801.00,0.2257
1800.00,0.2267
1799.00,0.2276
1798.00,0.2281
1797.00,0.2284
1796.00,0.2288
1795.00,0.2292
1794.00,0.2298
1793.00,0.2305
1792.00,0.2314
1791.00,0.2325
1790.00,0.2334
1789.00,0.2343
1788.00,0.2349
1787.00,0.2353
1786.00,0.2358
1785.00,0.2366
1784.00,0.2374
1783.00,0.2382
1782.00,0.2389
1781.00,0.2397
1780.00,0.2407
1779.00,0.2417
1778.00,0.2425
1777.00,0.2430
1776.00,0.2433
1775.00,0.2436
1774.00,0.2442
1773.00,0.2449
1772.00,0.2457
1771.00,0.2464
1770.00,0.2469
1769.00,0.2472
1768.00,0.2476
1767.00,0.2480
1766.00,0.2482
1765.00,0.2483
1764.00,0.2484
1763.00,0.2486
1762.00,0.2489
1761.00,0.2495
1760.00,0.2501
1759.00,0.2506
1758.00,0.2511
1757.00,0.2519
1756.00,0.2529
1755.00,0.2538
1754.00,0.2545
1753.00,0.2551
1752.00,0.2559
1751.00,0.2571
1750.00,0.2587
1749.00,0.2609
1748.00,0.2634
1747.00,0.2660
1746.00,0.2685
1745.00,0.2711
1744.00,0.2739
1743.00,0.2769
1742.00,0.2801
1741.00,0.2833
1740.00,0.2860
1739.00,0.2878
1738.00,0.2890
1737.00,0.2898
1736.00,0.2906
1735.00,0.2910
1734.00,0.2915
1733.00,0.2921
1732.00,0.2927
1731.00,0.2930
1730.00,0.2934
1729.00,0.2943
1728.00,0.2956
1727.00,0.2971
1726.00,0.2989
1725.00,0.3011
1724.00,0.3039
1723.00,0.3070
1722.00,0.3102
1721.00,0.3133
1720.00,0.3164
1719.00,0.3193
1718.00,0.3226
1717.00,0.3268
1716.00,0.3311
1715.00,0.3348
1714.00,0.3379
1713.00,0.3406
1712.00,0.3431
1711.00,0.3455
1710.00,0.3481
1709.00,0.3508
1708.00,0.3535
1707.00,0.3559
1706.00,0.3578
1705.00,0.3589
1704.00,0.3591
1703.00,0.3585
1702.00,0.3569
1701.00,0.3533
1700.00,0.3474
1699.00,0.3411
1698.00,0.3360
1697.00,0.3320
1696.00,0.3286
1695.00,0.3255
1694.00,0.3228
1693.00,0.3207
1692.00,0.3189
1691.00,0.3171
1690.00,0.3156
1689.00,0.3144
1688.00,0.3135
1687.00,0.3126
1686.00,0.3118
1685.00,0.3109
1684.00,0.3103
1683.00,0.3099
1682.00,0.3093
1681.00,0.3086
1680.00,0.3080
1679.00,0.3079
1678.00,0.3083
1677.00,0.3091
1676.00,0.3099
1675.00,0.3105
1674.00,0.3109
1673.00,0.3112
1672.00,0.3115
1671.00,0.3121
1670.00,0.3132
1669.00,0.3148
1668.00,0.3162
1667.00,0.3171
1666.00,0.3177
1665.00,0.3185
1664.00,0.3195
1663.00,0.3205
1662.00,0.3218
1661.00,0.3231
1660.00,0.3242
1659.00,0.3250
1658.00,0.3255
1657.00,0.3261
1656.00,0.3268
1655.00,0.3281
1654.00,0.3305
1653.00,0.3344
1652.00,0.3375
1651.00,0.3387
1650.00,0.3391
1649.00,0.3397
1648.00,0.3411
1647.00,0.3439
1646.00,0.3476
1645.00,0.3510
1644.00,0.3536
1643.00,0.3555
1642.00,0.3574
1641.00,0.3595
1640.00,0.3616
1639.00,0.3638
1638.00,0.3662
1637.00,0.3699
1636.00,0.3753
1635.00,0.3813
1634.00,0.3863
1633.00,0.3905
1632.00,0.3946
1631.00,0.3989
1630.00,0.4040
1629.00,0.4102
1628.00,0.4173
1627.00,0.4246
1626.00,0.4322
1625.00,0.4406
1624.00,0.4503
1623.00,0.4611
1622.00,0.4724
1621.00,0.4837
1620.00,0.4951
1619.00,0.5073
1618.00,0.5222
1617.00,0.5411
1616.00,0.5629
1615.00,0.5846
1614.00,0.6059
1613.00,0.6289
1612.00,0.6549
1611.00,0.6837
1610.00,0.7140
1609.00,0.7452
1608.00,0.7766
1607.00,0.8068
1606.00,0.8362
1605.00,0.8676
1604.00,0.9044
1603.00,0.9481
1602.00,1.0004
1601.00,1.0634
1600.00,1.1377
1599.00,1.2218
1598.00,1.3153
1597.00,1.4244
1596.00,1.5567
1595.00,1.7126
1594.00,1.8881
1593.00,2.0904
1592.00,2.3387
1591.00,2.6228
1590.00,2.8770
1589.00,3.1356
1588.00,3.6426
1587.00,8.0000
1586.00,3.9645
1585.00,3.7919
1584.00,4.2887
1583.00,4.3329
1582.00,3.7191
1581.00,3.5418
1580.00,3.9404
1579.00,4.4973
1578.00,3.9101
1577.00,3.9661
1576.00,3.7745
1575.00,3.7247
1574.00,3.5923
1573.00,3.1539
1572.00,2.9435
1571.00,2.7583
1570.00,2.5911
1569.00,2.5272
1568.00,2.5662
1567.00,2.6650
1566.00,2.7768
1565.00,2.9487
1564.00,3.2761
1563.00,3.7623
1562.00,3.7159
1561.00,3.6758
1560.00,4.0420
1559.00,4.1056
1558.00,3.4789
1557.00,3.0380
1556.00,2.7358
1555.00,2.4101
1554.00,2.1213
1553.00,1.9054
1552.00,1.7403
1551.00,1.6026
1550.00,1.4867
1549.00,1.3981
1548.00,1.3345
1547.00,1.2866
1546.00,1.2482
1545.00,1.2197
1544.00,1.2020
1543.00,1.1909
1542.00,1.1809
1541.00,1.1687
1540.00,1.1515
1539.00,1.1269
1538.00,1.0978
1537.00,1.0694
1536.00,1.0413
1535.00,1.0100
1534.00,0.9755
1533.00,0.9440
1532.00,0.9207
1531.00,0.9046
1530.00,0.8932
1529.00,0.8853
1528.00,0.8786
1527.00,0.8700
1526.00,0.8577
1525.00,0.8436
1524.00,0.8300
1523.00,0.8180
1522.00,0.8088
1521.00,0.8050
1520.00,0.8062
1519.00,0.8095
1518.00,0.8130
1517.00,0.8160
1516.00,0.8165
1515.00,0.8113
1514.00,0.7993
1513.00,0.7818
1512.00,0.7609
1511.00,0.7391
1510.00,0.7190
1509.00,0.7020
1508.00,0.6890
1507.00,0.6808
1506.00,0.6771
1505.00,0.6761
1504.00,0.6766
1503.00,0.6779
1502.00,0.6803
1501.00,0.6846
1500.00,0.6914
1499.00,0.7005
1498.00,0.7131
1497.00,0.7320
1496.00,0.7585
1495.00,0.7914
1494.00,0.8309
1493.00,0.8811
1492.00,0.9452
1491.00,1.0171
1490.00,1.0740
1489.00,1.0909
1488.00,1.0713
1487.00,1.0409
1486.00,1.0207
1485.00,1.0181
1484.00,1.0311
1483.00,1.0557
1482.00,1.0912
1481.00,1.1382
1480.00,1.1960
1479.00,1.2635
1478.00,1.3438
1477.00,1.4436
1476.00,1.5667
1475.00,1.7135
1474.00,1.8913
1473.00,2.1211
1472.00,2.4252
1471.00,2.7975
1470.00,3.2253
1469.00,3.6945
1468.00,3.6597
1467.00,3.5312
1466.00,3.5830
1465.00,3.6661
1464.00,3.6998
1463.00,3.7683
1462.00,3.9357
1461.00,3.8198
1460.00,3.6148
1459.00,3.6216
1458.00,3.7998
1457.00,3.8203
1456.00,3.8384
1455.00,4.1114
1454.00,4.3161
1453.00,4.4683
1452.00,4.0533
1451.00,3.8712
1450.00,3.8289
1449.00,3.9473
1448.00,4.5338
1447.00,4.0563
1446.00,3.7706
1445.00,3.9501
1444.00,4.5104
1443.00,4.6069
1442.00,4.0151
1441.00,3.7733
1440.00,3.6373
1439.00,3.3916
1438.00,3.1332
1437.00,2.9083
1436.00,2.6900
1435.00,2.4853
1434.00,2.3088
1433.00,2.1513
1432.00,1.9997
1431.00,1.8553
1430.00,1.7277
1429.00,1.6222
1428.00,1.5375
1427.00,1.4701
1426.00,1.4168
1425.00,1.3755
1424.00,1.3456
1423.00,1.3264
1422.00,1.3165
1421.00,1.3148
1420.00,1.3217
1419.00,1.3385
1418.00,1.3659
1417.00,1.4041
1416.00,1.4527
1415.00,1.5099
1414.00,1.5717
1413.00,1.6328
1412.00,1.6841
1411.00,1.7136
1410.00,1.7144
1409.00,1.6886
1408.00,1.6402
1407.00,1.5726
1406.00,1.4910
1405.00,1.4027
1404.00,1.3148
1403.00,1.2335
1402.00,1.1614
1401.00,1.0974
1400.00,1.0401
1399.00,0.9909
1398.00,0.9514
1397.00,0.9211
1396.00,0.8971
1395.00,0.8774
1394.00,0.8613
1393.00,0.8494
1392.00,0.8430
1391.00,0.8436
1390.00,0.8528
1389.00,0.8736
1388.00,0.9096
1387.00,0.9635
1386.00,1.0340
1385.00,1.1191
1384.00,1.2200
1383.00,1.3413
1382.00,1.4866
1381.00,1.6576
1380.00,1.8507
1379.00,2.0421
1378.00,2.1667
1377.00,2.1614
1376.00,2.0469
1375.00,1.8874
1374.00,1.7302
1373.00,1.5997
1372.00,1.5009
1371.00,1.4283
1370.00,1.3761
1369.00,1.3403
1368.00,1.3162
1367.00,1.2958
1366.00,1.2695
1365.00,1.2308
1364.00,1.1792
1363.00,1.1206
1362.00,1.0644
1361.00,1.0171
1360.00,0.9804
1359.00,0.9533
1358.00,0.9343
1357.00,0.9225
1356.00,0.9174
1355.00,0.9181
1354.00,0.9233
1353.00,0.9317
1352.00,0.9424
1351.00,0.9553
1350.00,0.9722
1349.00,0.9961
1348.00,1.0301
1347.00,1.0743
1346.00,1.1224
1345.00,1.1608
1344.00,1.1734
1343.00,1.1531
1342.00,1.1078
1341.00,1.0517
1340.00,0.9953
1339.00,0.9435
1338.00,0.8977
1337.00,0.8576
1336.00,0.8227
1335.00,0.7928
1334.00,0.7674
1333.00,0.7464
1332.00,0.7295
1331.00,0.7165
1330.00,0.7075
1329.00,0.7023
1328.00,0.7008
1327.00,0.7022
1326.00,0.7053
1325.00,0.7085
1324.00,0.7107
1323.00,0.7111
1322.00,0.7101
1321.00,0.7086
1320.00,0.7077
1319.00,0.7081
1318.00,0.7098
1317.00,0.7131
1316.00,0.7179
1315.00,0.7246
1314.00,0.7330
1313.00,0.7431
1312.00,0.7548
1311.00,0.7677
1310.00,0.7814
1309.00,0.7949
1308.00,0.8069
1307.00,0.8157
1306.00,0.8202
1305.00,0.8205
1304.00,0.8183
1303.00,0.8154
1302.00,0.8130
1301.00,0.8119
1300.00,0.8118
1299.00,0.8114
1298.00,0.8096
1297.00,0.8060
1296.00,0.8011
1295.00,0.7959
1294.00,0.7909
1293.00,0.7858
1292.00,0.7792
1291.00,0.7698
1290.00,0.7568
1289.00,0.7413
1288.00,0.7253
1287.00,0.7105
1286.00,0.6979
1285.00,0.6883
1284.00,0.6822
1283.00,0.6811
1282.00,0.6859
1281.00,0.6970
1280.00,0.7118
1279.00,0.7246
1278.00,0.7278
1277.00,0.7164
1276.00,0.6926
1275.00,0.6634
1274.00,0.6358
1273.00,0.6141
1272.00,0.5992
1271.00,0.5904
1270.00,0.5857
1269.00,0.5831
1268.00,0.5807
1267.00,0.5776
1266.00,0.5736
1265.00,0.5689
1264.00,0.5645
1263.00,0.5605
1262.00,0.5572
1261.00,0.5545
1260.00,0.5524
1259.00,0.5511
1258.00,0.5506
1257.00,0.5507
1256.00,0.5514
1255.00,0.5530
1254.00,0.5557
1253.00,0.5586
1252.00,0.5608
1251.00,0.5608
1250.00,0.5583
1249.00,0.5541
1248.00,0.5494
1247.00,0.5452
1246.00,0.5418
1245.00,0.5396
1244.00,0.5389
1243.00,0.5398
1242.00,0.5413
1241.00,0.5415
1240.00,0.5392
1239.00,0.5351
1238.00,0.5314
1237.00,0.5305
1236.00,0.5342
1235.00,0.5426
1234.00,0.5548
1233.00,0.5693
1232.00,0.5840
1231.00,0.5969
1230.00,0.6056
1229.00,0.6080
1228.00,0.6035
1227.00,0.5928
1226.00,0.5781
1225.00,0.5618
1224.00,0.5460
1223.00,0.5319
1222.00,0.5198
1221.00,0.5095
1220.00,0.5010
1219.00,0.4941
1218.00,0.4889
1217.00,0.4853
1216.00,0.4834
1215.00,0.4834
1214.00,0.4846
1213.00,0.4865
1212.00,0.4883
1211.00,0.4895
1210.00,0.4898
1209.00,0.4889
1208.00,0.4873
1207.00,0.4860
1206.00,0.4864
1205.00,0.4898
1204.00,0.4977
1203.00,0.5112
1202.00,0.5313
1201.00,0.5570
1200.00,0.5861
1199.00,0.6152
1198.00,0.6425
1197.00,0.6692
1196.00,0.6979
1195.00,0.7307
1194.00,0.7665
1193.00,0.8022
1192.00,0.8337
1191.00,0.8569
1190.00,0.8680
1189.00,0.8650
1188.00,0.8474
1187.00,0.8173
1186.00,0.7778
1185.00,0.7329
1184.00,0.6861
1183.00,0.6408
1182.00,0.5995
1181.00,0.5638
1180.00,0.5343
1179.00,0.5111
1178.00,0.4932
1177.00,0.4798
1176.00,0.4701
1175.00,0.4636
1174.00,0.4597
1173.00,0.4581
1172.00,0.4585
1171.00,0.4604
1170.00,0.4633
1169.00,0.4666
1168.00,0.4701
1167.00,0.4745
1166.00,0.4809
1165.00,0.4903
1164.00,0.5040
1163.00,0.5217
1162.00,0.5408
1161.00,0.5553
1160.00,0.5589
1159.00,0.5493
1158.00,0.5306
1157.00,0.5104
1156.00,0.4939
1155.00,0.4825
1154.00,0.4749
1153.00,0.4694
1152.00,0.4649
1151.00,0.4610
1150.00,0.4576
1149.00,0.4546
1148.00,0.4524
1147.00,0.4511
1146.00,0.4509
1145.00,0.4518
1144.00,0.4538
1143.00,0.4575
1142.00,0.4631
1141.00,0.4709
1140.00,0.4809
1139.00,0.4931
1138.00,0.5074
1137.00,0.5238
1136.00,0.5421
1135.00,0.5611
1134.00,0.5783
1133.00,0.5907
1132.00,0.5964
1131.00,0.5960
1130.00,0.5923
1129.00,0.5893
1128.00,0.5903
1127.00,0.5960
1126.00,0.6037
1125.00,0.6083
1124.00,0.6056
1123.00,0.5951
1122.00,0.5804
1121.00,0.5666
1120.00,0.5572
1119.00,0.5536
1118.00,0.5556
1117.00,0.5617
1116.00,0.5697
1115.00,0.5765
1114.00,0.5787
1113.00,0.5738
1112.00,0.5620
1111.00,0.5462
1110.00,0.5299
1109.00,0.5162
1108.00,0.5067
1107.00,0.5020
1106.00,0.5020
1105.00,0.5062
1104.00,0.5141
1103.00,0.5251
1102.00,0.5384
1101.00,0.5526
1100.00,0.5646
1099.00,0.5704
1098.00,0.5675
1097.00,0.5569
1096.00,0.5429
1095.00,0.5297
1094.00,0.5194
1093.00,0.5122
1092.00,0.5076
1091.00,0.5048
1090.00,0.5036
1089.00,0.5038
1088.00,0.5059
1087.00,0.5102
1086.00,0.5168
1085.00,0.5254
1084.00,0.5358
1083.00,0.5474
1082.00,0.5596
1081.00,0.5716
1080.00,0.5822
1079.00,0.5904
1078.00,0.5951
1077.00,0.5956
1076.00,0.5918
1075.00,0.5844
1074.00,0.5748
1073.00,0.5643
1072.00,0.5538
1071.00,0.5436
1070.00,0.5333
1069.00,0.5226
1068.00,0.5116
1067.00,0.5011
1066.00,0.4918
1065.00,0.4839
1064.00,0.4774
1063.00,0.4721
1062.00,0.4679
1061.00,0.4642
1060.00,0.4607
1059.00,0.4570
1058.00,0.4530
1057.00,0.4487
1056.00,0.4443
1055.00,0.4399
1054.00,0.4355
1053.00,0.4311
1052.00,0.4268
1051.00,0.4232
1050.00,0.4206
1049.00,0.4189
1048.00,0.4180
1047.00,0.4176
1046.00,0.4175
1045.00,0.4172
1044.00,0.4166
1043.00,0.4161
1042.00,0.4159
1041.00,0.4162
1040.00,0.4170
1039.00,0.4182
1038.00,0.4195
1037.00,0.4210
1036.00,0.4229
1035.00,0.4261
1034.00,0.4308
1033.00,0.4371
1032.00,0.4453
1031.00,0.4553
1030.00,0.4669
1029.00,0.4793
1028.00,0.4910
1027.00,0.5000
1026.00,0.5038
1025.00,0.4995
1024.00,0.4865
1023.00,0.4669
1022.00,0.4452
1021.00,0.4258
1020.00,0.4110
1019.00,0.4011
1018.00,0.3948
1017.00,0.3906
1016.00,0.3877
1015.00,0.3856
1014.00,0.3843
1013.00,0.3841
1012.00,0.3861
1011.00,0.3922
1010.00,0.4029
1009.00,0.4158
1008.00,0.4256
1007.00,0.4279
1006.00,0.4230
1005.00,0.4151
1004.00,0.4083
1003.00,0.4043
1002.00,0.4025
1001.00,0.4022
1000.00,0.4027
999.00,0.4032
998.00,0.4030
997.00,0.4018
996.00,0.3996
995.00,0.3970
994.00,0.3942
993.00,0.3918
992.00,0.3900
991.00,0.3889
990.00,0.3883
989.00,0.3875
988.00,0.3858
987.00,0.3826
986.00,0.3785
985.00,0.3747
984.00,0.3727
983.00,0.3731
982.00,0.3758
981.00,0.3805
980.00,0.3869
979.00,0.3947
978.00,0.4042
977.00,0.4163
976.00,0.4329
975.00,0.4560
974.00,0.4872
973.00,0.5282
972.00,0.5802
971.00,0.6435
970.00,0.7149
969.00,0.7857
968.00,0.8407
967.00,0.8649
966.00,0.8543
965.00,0.8191
964.00,0.7741
963.00,0.7297
962.00,0.6916
961.00,0.6634
960.00,0.6473
959.00,0.6439
958.00,0.6520
957.00,0.6677
956.00,0.6862
955.00,0.7024
954.00,0.7129
953.00,0.7167
952.00,0.7150
951.00,0.7100
950.00,0.7048
949.00,0.7022
948.00,0.7041
947.00,0.7116
946.00,0.7244
945.00,0.7414
944.00,0.7605
943.00,0.7789
942.00,0.7942
941.00,0.8046
940.00,0.8092
939.00,0.8082
938.00,0.8022
937.00,0.7924
936.00,0.7800
935.00,0.7653
934.00,0.7482
933.00,0.7284
932.00,0.7061
931.00,0.6815
930.00,0.6556
929.00,0.6293
928.00,0.6037
927.00,0.5800
926.00,0.5592
925.00,0.5423
924.00,0.5297
923.00,0.5209
922.00,0.5143
921.00,0.5073
920.00,0.4977
919.00,0.4844
918.00,0.4681
917.00,0.4507
916.00,0.4342
915.00,0.4199
914.00,0.4085
913.00,0.3998
912.00,0.3935
911.00,0.3893
910.00,0.3870
909.00,0.3867
908.00,0.3890
907.00,0.3946
906.00,0.4041
905.00,0.4163
904.00,0.4285
903.00,0.4372
902.00,0.4399
901.00,0.4371
900.00,0.4310
899.00,0.4239
898.00,0.4169
897.00,0.4107
896.00,0.4061
895.00,0.4035
894.00,0.4030
893.00,0.4045
892.00,0.4072
891.00,0.4104
890.00,0.4131
889.00,0.4144
888.00,0.4135
887.00,0.4102
886.00,0.4047
885.00,0.3979
884.00,0.3910
883.00,0.3849
882.00,0.3802
881.00,0.3770
880.00,0.3752
879.00,0.3741
878.00,0.3736
877.00,0.3732
876.00,0.3732
875.00,0.3735
874.00,0.3740
873.00,0.3745
872.00,0.3750
871.00,0.3756
870.00,0.3765
869.00,0.3779
868.00,0.3804
867.00,0.3846
866.00,0.3909
865.00,0.3992
864.00,0.4084
863.00,0.4168
862.00,0.4221
861.00,0.4222
860.00,0.4165
859.00,0.4062
858.00,0.3936
857.00,0.3813
856.00,0.3709
855.00,0.3630
854.00,0.3575
853.00,0.3539
852.00,0.3515
851.00,0.3501
850.00,0.3492
849.00,0.3487
848.00,0.3485
847.00,0.3488
846.00,0.3496
845.00,0.3507
844.00,0.3524
843.00,0.3552
842.00,0.3601
841.00,0.3679
840.00,0.3796
839.00,0.3951
838.00,0.4127
837.00,0.4287
836.00,0.4384
835.00,0.4393
834.00,0.4321
833.00,0.4210
832.00,0.4109
831.00,0.4053
830.00,0.4054
829.00,0.4101
828.00,0.4168
827.00,0.4229
826.00,0.4269
825.00,0.4289
824.00,0.4301
823.00,0.4312
822.00,0.4320
821.00,0.4315
820.00,0.4291
819.00,0.4251
818.00,0.4204
817.00,0.4162
816.00,0.4138
815.00,0.4135
814.00,0.4156
813.00,0.4196
812.00,0.4255
811.00,0.4332
810.00,0.4427
809.00,0.4533
808.00,0.4642
807.00,0.4741
806.00,0.4818
805.00,0.4865
804.00,0.4880
803.00,0.4867
802.00,0.4827
801.00,0.4763
800.00,0.4680
799.00,0.4585
798.00,0.4480
797.00,0.4370
796.00,0.4262
795.00,0.4163
794.00,0.4078
793.00,0.4010
792.00,0.3961
791.00,0.3931
790.00,0.3916
789.00,0.3911
788.00,0.3910
787.00,0.3916
786.00,0.3936
785.00,0.3979
784.00,0.4052
783.00,0.4158
782.00,0.4303
781.00,0.4489
780.00,0.4716
779.00,0.4959
778.00,0.5174
777.00,0.5308
776.00,0.5338
775.00,0.5290
774.00,0.5210
773.00,0.5137
772.00,0.5085
771.00,0.5050
770.00,0.5022
769.00,0.4997
768.00,0.4974
767.00,0.4950
766.00,0.4925
765.00,0.4901
764.00,0.4884
763.00,0.4882
762.00,0.4900
761.00,0.4935
760.00,0.4981
759.00,0.5032
758.00,0.5086
757.00,0.5152
756.00,0.5236
755.00,0.5342
754.00,0.5453
753.00,0.5546
752.00,0.5602
751.00,0.5622
750.00,0.5629
749.00,0.5643
748.00,0.5674
747.00,0.5721
746.00,0.5779
745.00,0.5845
744.00,0.5921
743.00,0.6009
742.00,0.6111
741.00,0.6228
740.00,0.6360
739.00,0.6511
738.00,0.6684
737.00,0.6878
736.00,0.7091
735.00,0.7316
734.00,0.7553
733.00,0.7803
732.00,0.8077
731.00,0.8393
730.00,0.8771
729.00,0.9229
728.00,0.9788
727.00,1.0474
726.00,1.1307
725.00,1.2281
724.00,1.3332
723.00,1.4291
722.00,1.4855
721.00,1.4732
720.00,1.3978
719.00,1.2961
718.00,1.1979
717.00,1.1144
716.00,1.0471
715.00,0.9944
714.00,0.9535
713.00,0.9208
712.00,0.8925
711.00,0.8658
710.00,0.8392
709.00,0.8117
708.00,0.7832
707.00,0.7547
706.00,0.7272
705.00,0.7006
704.00,0.6750
703.00,0.6510
702.00,0.6287
701.00,0.6080
700.00,0.5885
699.00,0.5703
698.00,0.5536
697.00,0.5384
696.00,0.5250
695.00,0.5143
694.00,0.5073
693.00,0.5052
692.00,0.5087
691.00,0.5182
690.00,0.5325
689.00,0.5473
688.00,0.5551
687.00,0.5496
686.00,0.5302
685.00,0.5029
684.00,0.4756
683.00,0.4535
682.00,0.4380
681.00,0.4276
680.00,0.4207
679.00,0.4157
678.00,0.4119
677.00,0.4087
676.00,0.4060
675.00,0.4037
674.00,0.4018
673.00,0.4000
672.00,0.3982
671.00,0.3964
670.00,0.3952
669.00,0.3951
668.00,0.3952
667.00,0.3952
666.00,0.3961
665.00,0.3976
664.00,0.3990
663.00,0.4008
662.00,0.4033
661.00,0.4065
660.00,0.4099
659.00,0.4132
658.00,0.4161
657.00,0.4187
656.00,0.4208
655.00,0.4223
654.00,0.4230
653.00,0.4233
652.00,0.4237
651.00,0.4248
650.00,0.4270
649.00,0.4304
648.00,0.4349
647.00,0.4396
646.00,0.4435
645.00,0.4455
644.00,0.4456
643.00,0.4444
642.00,0.4429
641.00,0.4421
640.00,0.4422
639.00,0.4430
638.00,0.4440
637.00,0.4452
636.00,0.4469
635.00,0.4492
634.00,0.4519
633.00,0.4549
632.00,0.4585
631.00,0.4627
630.00,0.4676
629.00,0.4730
628.00,0.4784
627.00,0.4834
626.00,0.4878
625.00,0.4918
624.00,0.4955
623.00,0.4985
622.00,0.5007
621.00,0.5022
620.00,0.5036
619.00,0.5050
618.00,0.5063
617.00,0.5072
616.00,0.5072
615.00,0.5059
614.00,0.5038
613.00,0.5014
612.00,0.4991
611.00,0.4971
610.00,0.4955
609.00,0.4944
608.00,0.4940
607.00,0.4939
606.00,0.4939
605.00,0.4938
604.00,0.4933
603.00,0.4924
602.00,0.4910
601.00,0.4895
600.00,0.4880
599.00,0.4870
598.00,0.4865
597.00,0.4864
596.00,0.4866
595.00,0.4865
594.00,0.4862
593.00,0.4861
592.00,0.4864
591.00,0.4870
590.00,0.4879
589.00,0.4893
588.00,0.4912
587.00,0.4934
586.00,0.4954
585.00,0.4975
584.00,0.5001
583.00,0.5029
582.00,0.5055
581.00,0.5079
580.00,0.5104
579.00,0.5133
578.00,0.5168
577.00,0.5209
576.00,0.5254
575.00,0.5298
574.00,0.5339
573.00,0.5384
572.00,0.5438
571.00,0.5504
570.00,0.5577
569.00,0.5656
568.00,0.5740
567.00,0.5826
566.00,0.5906
565.00,0.5979
564.00,0.6048
563.00,0.6116
562.00,0.6186
561.00,0.6261
560.00,0.6347
559.00,0.6438
558.00,0.6529
557.00,0.6618
556.00,0.6705
555.00,0.6787
554.00,0.6858
553.00,0.6925
552.00,0.7003
551.00,0.7089
550.00,0.7168
