Created as New Dataset,
cm-1,A
4000.00,1.2705
3999.00,1.2703
3998.00,1.2697
3997.00,1.2690
3996.00,1.2686
3995.00,1.2686
3994.00,1.2689
3993.00,1.2693
3992.00,1.2694
3991.00,1.2694
3990.00,1.2691
3989.00,1.2687
3988.00,1.2685
3987.00,1.2686
3986.00,1.2690
3985.00,1.2695
3984.00,1.2699
3983.00,1.2699
3982.00,1.2695
3981.00,1.2688
3980.00,1.2681
3979.00,1.2678
3978.00,1.2677
3977.00,1.2677
3976.00,1.2677
3975.00,1.2676
3974.00,1.2675
3973.00,1.2673
3972.00,1.2671
3971.00,1.2671
3970.00,1.2674
3969.00,1.2678
3968.00,1.2682
3967.00,1.2684
3966.00,1.2682
3965.00,1.2678
3964.00,1.2675
3963.00,1.2674
3962.00,1.2674
3961.00,1.2675
3960.00,1.2675
3959.00,1.2675
3958.00,1.2675
3957.00,1.2676
3956.00,1.2679
3955.00,1.2679
3954.00,1.2677
3953.00,1.2673
3952.00,1.2672
3951.00,1.2674
3950.00,1.2679
3949.00,1.2681
3948.00,1.2679
3947.00,1.2674
3946.00,1.2670
3945.00,1.2671
3944.00,1.2676
3943.00,1.2680
3942.00,1.2680
3941.00,1.2678
3940.00,1.2678
3939.00,1.2680
3938.00,1.2682
3937.00,1.2682
3936.00,1.2679
3935.00,1.2675
3934.00,1.2671
3933.00,1.2667
3932.00,1.2662
3931.00,1.2657
3930.00,1.2652
3929.00,1.2647
3928.00,1.2646
3927.00,1.2649
3926.00,1.2656
3925.00,1.2662
3924.00,1.2665
3923.00,1.2664
3922.00,1.2661
3921.00,1.2659
3920.00,1.2658
3919.00,1.2658
3918.00,1.2658
3917.00,1.2660
3916.00,1.2660
3915.00,1.2661
3914.00,1.2663
3913.00,1.2664
3912.00,1.2664
3911.00,1.2663
3910.00,1.2661
3909.00,1.2659
3908.00,1.2657
3907.00,1.2657
3906.00,1.2662
3905.00,1.2669
3904.00,1.2675
3903.00,1.2679
3902.00,1.2684
3901.00,1.2692
3900.00,1.2698
3899.00,1.2697
3898.00,1.2688
3897.00,1.2678
3896.00,1.2670
3895.00,1.2665
3894.00,1.2663
3893.00,1.2659
3892.00,1.2654
3891.00,1.2649
3890.00,1.2645
3889.00,1.2645
3888.00,1.2651
3887.00,1.2657
3886.00,1.2660
3885.00,1.2660
3884.00,1.2662
3883.00,1.2668
3882.00,1.2674
3881.00,1.2674
3880.00,1.2668
3879.00,1.2660
3878.00,1.2657
3877.00,1.2657
3876.00,1.2658
3875.00,1.2656
3874.00,1.2654
3873.00,1.2653
3872.00,1.2659
3871.00,1.2667
3870.00,1.2670
3869.00,1.2666
3868.00,1.2661
3867.00,1.2662
3866.00,1.2666
3865.00,1.2667
3864.00,1.2664
3863.00,1.2661
3862.00,1.2661
3861.00,1.2660
3860.00,1.2656
3859.00,1.2650
3858.00,1.2647
3857.00,1.2648
3856.00,1.2653
3855.00,1.2662
3854.00,1.2668
3853.00,1.2669
3852.00,1.2670
3851.00,1.2678
3850.00,1.2687
3849.00,1.2688
3848.00,1.2679
3847.00,1.2665
3846.00,1.2652
3845.00,1.2644
3844.00,1.2642
3843.00,1.2644
3842.00,1.2647
3841.00,1.2649
3840.00,1.2648
3839.00,1.2646
3838.00,1.2644
3837.00,1.2645
3836.00,1.2649
3835.00,1.2653
3834.00,1.2654
3833.00,1.2653
3832.00,1.2648
3831.00,1.2642
3830.00,1.2636
3829.00,1.2632
3828.00,1.2631
3827.00,1.2631
3826.00,1.2629
3825.00,1.2625
3824.00,1.2623
3823.00,1.2627
3822.00,1.2633
3821.00,1.2638
3820.00,1.2637
3819.00,1.2638
3818.00,1.2642
3817.00,1.2648
3816.00,1.2649
3815.00,1.2643
3814.00,1.2638
3813.00,1.2636
3812.00,1.2632
3811.00,1.2623
3810.00,1.2612
3809.00,1.2606
3808.00,1.2606
3807.00,1.2606
3806.00,1.2604
3805.00,1.2604
3804.00,1.2610
3803.00,1.2619
3802.00,1.2627
3801.00,1.2628
3800.00,1.2628
3799.00,1.2631
3798.00,1.2638
3797.00,1.2639
3796.00,1.2633
3795.00,1.2623
3794.00,1.2616
3793.00,1.2611
3792.00,1.2607
3791.00,1.2601
3790.00,1.2598
3789.00,1.2599
3788.00,1.2603
3787.00,1.2607
3786.00,1.2609
3785.00,1.2607
3784.00,1.2603
3783.00,1.2600
3782.00,1.2603
3781.00,1.2610
3780.00,1.2615
3779.00,1.2615
3778.00,1.2610
3777.00,1.2607
3776.00,1.2607
3775.00,1.2607
3774.00,1.2604
3773.00,1.2601
3772.00,1.2600
3771.00,1.2601
3770.00,1.2601
3769.00,1.2598
3768.00,1.2595
3767.00,1.2595
3766.00,1.2597
3765.00,1.2596
3764.00,1.2594
3763.00,1.2593
3762.00,1.2595
3761.00,1.2596
3760.00,1.2593
3759.00,1.2590
3758.00,1.2589
3757.00,1.2590
3756.00,1.2591
3755.00,1.2591
3754.00,1.2592
3753.00,1.2596
3752.00,1.2601
3751.00,1.2606
3750.00,1.2610
3749.00,1.2613
3748.00,1.2615
3747.00,1.2618
3746.00,1.2624
3745.00,1.2629
3744.00,1.2624
3743.00,1.2615
3742.00,1.2613
3741.00,1.2618
3740.00,1.2621
3739.00,1.2618
3738.00,1.2614
3737.00,1.2610
3736.00,1.2605
3735.00,1.2601
3734.00,1.2599
3733.00,1.2599
3732.00,1.2597
3731.00,1.2589
3730.00,1.2580
3729.00,1.2577
3728.00,1.2580
3727.00,1.2585
3726.00,1.2586
3725.00,1.2584
3724.00,1.2581
3723.00,1.2578
3722.00,1.2576
3721.00,1.2574
3720.00,1.2571
3719.00,1.2567
3718.00,1.2564
3717.00,1.2560
3716.00,1.2557
3715.00,1.2558
3714.00,1.2560
3713.00,1.2563
3712.00,1.2567
3711.00,1.2572
3710.00,1.2577
3709.00,1.2581
3708.00,1.2582
3707.00,1.2580
3706.00,1.2575
3705.00,1.2572
3704.00,1.2569
3703.00,1.2568
3702.00,1.2565
3701.00,1.2562
3700.00,1.2559
3699.00,1.2561
3698.00,1.2567
3697.00,1.2571
3696.00,1.2572
3695.00,1.2569
3694.00,1.2566
3693.00,1.2566
3692.00,1.2567
3691.00,1.2571
3690.00,1.2579
3689.00,1.2589
3688.00,1.2595
3687.00,1.2595
3686.00,1.2590
3685.00,1.2585
3684.00,1.2581
3683.00,1.2577
3682.00,1.2573
3681.00,1.2569
3680.00,1.2565
3679.00,1.2562
3678.00,1.2563
3677.00,1.2571
3676.00,1.2581
3675.00,1.2584
3674.00,1.2583
3673.00,1.2586
3672.00,1.2592
3671.00,1.2594
3670.00,1.2589
3669.00,1.2581
3668.00,1.2578
3667.00,1.2578
3666.00,1.2576
3665.00,1.2570
3664.00,1.2562
3663.00,1.2557
3662.00,1.2555
3661.00,1.2554
3660.00,1.2550
3659.00,1.2547
3658.00,1.2546
3657.00,1.2548
3656.00,1.2549
3655.00,1.2550
3654.00,1.2552
3653.00,1.2559
3652.00,1.2566
3651.00,1.2572
3650.00,1.2576
3649.00,1.2580
3648.00,1.2588
3647.00,1.2596
3646.00,1.2599
3645.00,1.2596
3644.00,1.2588
3643.00,1.2576
3642.00,1.2564
3641.00,1.2555
3640.00,1.2550
3639.00,1.2549
3638.00,1.2547
3637.00,1.2546
3636.00,1.2545
3635.00,1.2545
3634.00,1.2544
3633.00,1.2544
3632.00,1.2549
3631.00,1.2560
3630.00,1.2571
3629.00,1.2573
3628.00,1.2567
3627.00,1.2560
3626.00,1.2561
3625.00,1.2565
3624.00,1.2568
3623.00,1.2567
3622.00,1.2565
3621.00,1.2564
3620.00,1.2564
3619.00,1.2563
3618.00,1.2562
3617.00,1.2563
3616.00,1.2566
3615.00,1.2568
3614.00,1.2568
3613.00,1.2566
3612.00,1.2564
3611.00,1.2563
3610.00,1.2563
3609.00,1.2563
3608.00,1.2562
3607.00,1.2559
3606.00,1.2554
3605.00,1.2549
3604.00,1.2544
3603.00,1.2540
3602.00,1.2540
3601.00,1.2543
3600.00,1.2547
3599.00,1.2548
3598.00,1.2547
3597.00,1.2545
3596.00,1.2545
3595.00,1.2549
3594.00,1.2553
3593.00,1.2555
3592.00,1.2554
3591.00,1.2552
3590.00,1.2550
3589.00,1.2549
3588.00,1.2551
3587.00,1.2554
3586.00,1.2557
3585.00,1.2561
3584.00,1.2562
3583.00,1.2560
3582.00,1.2555
3581.00,1.2549
3580.00,1.2545
3579.00,1.2543
3578.00,1.2543
3577.00,1.2543
3576.00,1.2541
3575.00,1.2538
3574.00,1.2537
3573.00,1.2538
3572.00,1.2540
3571.00,1.2542
3570.00,1.2542
3569.00,1.2541
3568.00,1.2542
3567.00,1.2547
3566.00,1.2553
3565.00,1.2557
3564.00,1.2555
3563.00,1.2551
3562.00,1.2545
3561.00,1.2539
3560.00,1.2536
3559.00,1.2535
3558.00,1.2536
3557.00,1.2538
3556.00,1.2539
3555.00,1.2538
3554.00,1.2535
3553.00,1.2532
3552.00,1.2531
3551.00,1.2534
3550.00,1.2538
3549.00,1.2542
3548.00,1.2544
3547.00,1.2546
3546.00,1.2548
3545.00,1.2550
3544.00,1.2551
3543.00,1.2550
3542.00,1.2549
3541.00,1.2546
3540.00,1.2542
3539.00,1.2538
3538.00,1.2537
3537.00,1.2539
3536.00,1.2540
3535.00,1.2540
3534.00,1.2537
3533.00,1.2533
3532.00,1.2529
3531.00,1.2527
3530.00,1.2529
3529.00,1.2533
3528.00,1.2539
3527.00,1.2544
3526.00,1.2547
3525.00,1.2547
3524.00,1.2545
3523.00,1.2541
3522.00,1.2539
3521.00,1.2538
3520.00,1.2538
3519.00,1.2537
3518.00,1.2535
3517.00,1.2532
3516.00,1.2532
3515.00,1.2534
3514.00,1.2539
3513.00,1.2542
3512.00,1.2542
3511.00,1.2542
3510.00,1.2540
3509.00,1.2538
3508.00,1.2537
3507.00,1.2536
3506.00,1.2537
3505.00,1.2540
3504.00,1.2542
3503.00,1.2543
3502.00,1.2543
3501.00,1.2541
3500.00,1.2539
3499.00,1.2535
3498.00,1.2531
3497.00,1.2529
3496.00,1.2530
3495.00,1.2533
3494.00,1.2536
3493.00,1.2539
3492.00,1.2541
3491.00,1.2541
3490.00,1.2537
3489.00,1.2532
3488.00,1.2527
3487.00,1.2524
3486.00,1.2525
3485.00,1.2529
3484.00,1.2533
3483.00,1.2536
3482.00,1.2538
3481.00,1.2537
3480.00,1.2536
3479.00,1.2535
3478.00,1.2533
3477.00,1.2531
3476.00,1.2528
3475.00,1.2525
3474.00,1.2523
3473.00,1.2523
3472.00,1.2525
3471.00,1.2527
3470.00,1.2530
3469.00,1.2532
3468.00,1.2534
3467.00,1.2538
3466.00,1.2541
3465.00,1.2542
3464.00,1.2539
3463.00,1.2534
3462.00,1.2530
3461.00,1.2528
3460.00,1.2529
3459.00,1.2529
3458.00,1.2527
3457.00,1.2523
3456.00,1.2518
3455.00,1.2516
3454.00,1.2517
3453.00,1.2516
3452.00,1.2513
3451.00,1.2508
3450.00,1.2505
3449.00,1.2507
3448.00,1.2512
3447.00,1.2517
3446.00,1.2521
3445.00,1.2521
3444.00,1.2520
3443.00,1.2520
3442.00,1.2521
3441.00,1.2522
3440.00,1.2521
3439.00,1.2519
3438.00,1.2517
3437.00,1.2517
3436.00,1.2518
3435.00,1.2518
3434.00,1.2517
3433.00,1.2516
3432.00,1.2516
3431.00,1.2520
3430.00,1.2525
3429.00,1.2530
3428.00,1.2531
3427.00,1.2528
3426.00,1.2522
3425.00,1.2516
3424.00,1.2513
3423.00,1.2511
3422.00,1.2510
3421.00,1.2508
3420.00,1.2507
3419.00,1.2507
3418.00,1.2506
3417.00,1.2505
3416.00,1.2504
3415.00,1.2503
3414.00,1.2501
3413.00,1.2498
3412.00,1.2494
3411.00,1.2492
3410.00,1.2493
3409.00,1.2496
3408.00,1.2500
3407.00,1.2501
3406.00,1.2499
3405.00,1.2496
3404.00,1.2493
3403.00,1.2492
3402.00,1.2494
3401.00,1.2496
3400.00,1.2499
3399.00,1.2500
3398.00,1.2499
3397.00,1.2496
3396.00,1.2495
3395.00,1.2496
3394.00,1.2500
3393.00,1.2503
3392.00,1.2505
3391.00,1.2504
3390.00,1.2503
3389.00,1.2501
3388.00,1.2498
3387.00,1.2495
3386.00,1.2493
3385.00,1.2492
3384.00,1.2492
3383.00,1.2495
3382.00,1.2498
3381.00,1.2499
3380.00,1.2499
3379.00,1.2498
3378.00,1.2496
3377.00,1.2494
3376.00,1.2494
3375.00,1.2496
3374.00,1.2499
3373.00,1.2500
3372.00,1.2498
3371.00,1.2495
3370.00,1.2492
3369.00,1.2490
3368.00,1.2490
3367.00,1.2491
3366.00,1.2490
3365.00,1.2490
3364.00,1.2491
3363.00,1.2493
3362.00,1.2493
3361.00,1.2488
3360.00,1.2481
3359.00,1.2476
3358.00,1.2474
3357.00,1.2472
3356.00,1.2469
3355.00,1.2468
3354.00,1.2469
3353.00,1.2472
3352.00,1.2475
3351.00,1.2477
3350.00,1.2477
3349.00,1.2477
3348.00,1.2475
3347.00,1.2472
3346.00,1.2468
3345.00,1.2465
3344.00,1.2461
3343.00,1.2458
3342.00,1.2455
3341.00,1.2455
3340.00,1.2459
3339.00,1.2465
3338.00,1.2469
3337.00,1.2469
3336.00,1.2467
3335.00,1.2464
3334.00,1.2463
3333.00,1.2464
3332.00,1.2467
3331.00,1.2468
3330.00,1.2466
3329.00,1.2463
3328.00,1.2460
3327.00,1.2458
3326.00,1.2457
3325.00,1.2457
3324.00,1.2458
3323.00,1.2461
3322.00,1.2463
3321.00,1.2462
3320.00,1.2460
3319.00,1.2456
3318.00,1.2452
3317.00,1.2448
3316.00,1.2444
3315.00,1.2442
3314.00,1.2442
3313.00,1.2444
3312.00,1.2446
3311.00,1.2447
3310.00,1.2447
3309.00,1.2445
3308.00,1.2442
3307.00,1.2438
3306.00,1.2434
3305.00,1.2430
3304.00,1.2429
3303.00,1.2429
3302.00,1.2429
3301.00,1.2428
3300.00,1.2426
3299.00,1.2424
3298.00,1.2422
3297.00,1.2420
3296.00,1.2418
3295.00,1.2418
3294.00,1.2418
3293.00,1.2420
3292.00,1.2421
3291.00,1.2421
3290.00,1.2420
3289.00,1.2417
3288.00,1.2413
3287.00,1.2410
3286.00,1.2408
3285.00,1.2407
3284.00,1.2406
3283.00,1.2404
3282.00,1.2401
3281.00,1.2400
3280.00,1.2403
3279.00,1.2410
3278.00,1.2416
3277.00,1.2418
3276.00,1.2415
3275.00,1.2410
3274.00,1.2406
3273.00,1.2406
3272.00,1.2406
3271.00,1.2406
3270.00,1.2405
3269.00,1.2406
3268.00,1.2407
3267.00,1.2408
3266.00,1.2408
3265.00,1.2406
3264.00,1.2402
3263.00,1.2399
3262.00,1.2396
3261.00,1.2395
3260.00,1.2394
3259.00,1.2392
3258.00,1.2390
3257.00,1.2388
3256.00,1.2387
3255.00,1.2386
3254.00,1.2384
3253.00,1.2380
3252.00,1.2378
3251.00,1.2378
3250.00,1.2380
3249.00,1.2381
3248.00,1.2379
3247.00,1.2374
3246.00,1.2370
3245.00,1.2369
3244.00,1.2370
3243.00,1.2372
3242.00,1.2372
3241.00,1.2371
3240.00,1.2369
3239.00,1.2369
3238.00,1.2368
3237.00,1.2368
3236.00,1.2368
3235.00,1.2370
3234.00,1.2371
3233.00,1.2371
3232.00,1.2369
3231.00,1.2367
3230.00,1.2365
3229.00,1.2364
3228.00,1.2364
3227.00,1.2363
3226.00,1.2362
3225.00,1.2364
3224.00,1.2367
3223.00,1.2371
3222.00,1.2373
3221.00,1.2375
3220.00,1.2375
3219.00,1.2374
3218.00,1.2374
3217.00,1.2372
3216.00,1.2370
3215.00,1.2367
3214.00,1.2363
3213.00,1.2360
3212.00,1.2358
3211.00,1.2357
3210.00,1.2355
3209.00,1.2353
3208.00,1.2349
3207.00,1.2343
3206.00,1.2336
3205.00,1.2332
3204.00,1.2331
3203.00,1.2330
3202.00,1.2328
3201.00,1.2327
3200.00,1.2329
3199.00,1.2331
3198.00,1.2332
3197.00,1.2332
3196.00,1.2332
3195.00,1.2334
3194.00,1.2337
3193.00,1.2339
3192.00,1.2338
3191.00,1.2335
3190.00,1.2332
3189.00,1.2329
3188.00,1.2328
3187.00,1.2328
3186.00,1.2329
3185.00,1.2327
3184.00,1.2324
3183.00,1.2321
3182.00,1.2320
3181.00,1.2321
3180.00,1.2322
3179.00,1.2322
3178.00,1.2320
3177.00,1.2319
3176.00,1.2317
3175.00,1.2315
3174.00,1.2313
3173.00,1.2311
3172.00,1.2310
3171.00,1.2308
3170.00,1.2308
3169.00,1.2311
3168.00,1.2315
3167.00,1.2320
3166.00,1.2320
3165.00,1.2317
3164.00,1.2312
3163.00,1.2307
3162.00,1.2304
3161.00,1.2303
3160.00,1.2300
3159.00,1.2298
3158.00,1.2297
3157.00,1.2297
3156.00,1.2297
3155.00,1.2297
3154.00,1.2296
3153.00,1.2292
3152.00,1.2287
3151.00,1.2281
3150.00,1.2277
3149.00,1.2277
3148.00,1.2277
3147.00,1.2277
3146.00,1.2276
3145.00,1.2273
3144.00,1.2270
3143.00,1.2265
3142.00,1.2262
3141.00,1.2261
3140.00,1.2262
3139.00,1.2264
3138.00,1.2264
3137.00,1.2263
3136.00,1.2261
3135.00,1.2260
3134.00,1.2261
3133.00,1.2261
3132.00,1.2262
3131.00,1.2261
3130.00,1.2261
3129.00,1.2261
3128.00,1.2260
3127.00,1.2258
3126.00,1.2257
3125.00,1.2257
3124.00,1.2259
3123.00,1.2262
3122.00,1.2263
3121.00,1.2261
3120.00,1.2257
3119.00,1.2255
3118.00,1.2254
3117.00,1.2254
3116.00,1.2253
3115.00,1.2251
3114.00,1.2251
3113.00,1.2251
3112.00,1.2251
3111.00,1.2251
3110.00,1.2249
3109.00,1.2248
3108.00,1.2248
3107.00,1.2249
3106.00,1.2249
3105.00,1.2246
3104.00,1.2240
3103.00,1.2234
3102.00,1.2230
3101.00,1.2229
3100.00,1.2229
3099.00,1.2229
3098.00,1.2227
3097.00,1.2225
3096.00,1.2222
3095.00,1.2218
3094.00,1.2215
3093.00,1.2215
3092.00,1.2217
3091.00,1.2220
3090.00,1.2222
3089.00,1.2221
3088.00,1.2219
3087.00,1.2216
3086.00,1.2213
3085.00,1.2211
3084.00,1.2212
3083.00,1.2213
3082.00,1.2213
3081.00,1.2213
3080.00,1.2213
3079.00,1.2212
3078.00,1.2209
3077.00,1.2206
3076.00,1.2205
3075.00,1.2206
3074.00,1.2206
3073.00,1.2206
3072.00,1.2205
3071.00,1.2204
3070.00,1.2202
3069.00,1.2200
3068.00,1.2198
3067.00,1.2197
3066.00,1.2197
3065.00,1.2199
3064.00,1.2201
3063.00,1.2203
3062.00,1.2203
3061.00,1.2202
3060.00,1.2203
3059.00,1.2204
3058.00,1.2204
3057.00,1.2203
3056.00,1.2201
3055.00,1.2199
3054.00,1.2196
3053.00,1.2193
3052.00,1.2190
3051.00,1.2188
3050.00,1.2187
3049.00,1.2187
3048.00,1.2187
3047.00,1.2186
3046.00,1.2183
3045.00,1.2181
3044.00,1.2178
3043.00,1.2177
3042.00,1.2176
3041.00,1.2177
3040.00,1.2178
3039.00,1.2179
3038.00,1.2178
3037.00,1.2174
3036.00,1.2168
3035.00,1.2162
3034.00,1.2159
3033.00,1.2157
3032.00,1.2158
3031.00,1.2159
3030.00,1.2161
3029.00,1.2163
3028.00,1.2163
3027.00,1.2161
3026.00,1.2160
3025.00,1.2160
3024.00,1.2161
3023.00,1.2161
3022.00,1.2161
3021.00,1.2161
3020.00,1.2163
3019.00,1.2165
3018.00,1.2167
3017.00,1.2166
3016.00,1.2165
3015.00,1.2164
3014.00,1.2164
3013.00,1.2165
3012.00,1.2167
3011.00,1.2167
3010.00,1.2166
3009.00,1.2164
3008.00,1.2164
3007.00,1.2165
3006.00,1.2166
3005.00,1.2164
3004.00,1.2160
3003.00,1.2157
3002.00,1.2157
3001.00,1.2160
3000.00,1.2163
2999.00,1.2164
2998.00,1.2166
2997.00,1.2168
2996.00,1.2172
2995.00,1.2176
2994.00,1.2178
2993.00,1.2179
2992.00,1.2180
2991.00,1.2182
2990.00,1.2185
2989.00,1.2187
2988.00,1.2189
2987.00,1.2189
2986.00,1.2192
2985.00,1.2199
2984.00,1.2210
2983.00,1.2223
2982.00,1.2236
2981.00,1.2247
2980.00,1.2258
2979.00,1.2273
2978.00,1.2293
2977.00,1.2318
2976.00,1.2346
2975.00,1.2373
2974.00,1.2401
2973.00,1.2432
2972.00,1.2472
2971.00,1.2520
2970.00,1.2572
2969.00,1.2626
2968.00,1.2681
2967.00,1.2739
2966.00,1.2802
2965.00,1.2869
2964.00,1.2935
2963.00,1.2998
2962.00,1.3056
2961.00,1.3111
2960.00,1.3162
2959.00,1.3206
2958.00,1.3239
2957.00,1.3260
2956.00,1.3275
2955.00,1.3282
2954.00,1.3280
2953.00,1.3268
2952.00,1.3245
2951.00,1.3218
2950.00,1.3191
2949.00,1.3169
2948.00,1.3154
2947.00,1.3149
2946.00,1.3153
2945.00,1.3168
2944.00,1.3196
2943.00,1.3239
2942.00,1.3297
2941.00,1.3369
2940.00,1.3450
2939.00,1.3537
2938.00,1.3628
2937.00,1.3724
2936.00,1.3830
2935.00,1.3947
2934.00,1.4068
2933.00,1.4186
2932.00,1.4301
2931.00,1.4412
2930.00,1.4522
2929.00,1.4626
2928.00,1.4716
2927.00,1.4791
2926.00,1.4850
2925.00,1.4893
2924.00,1.4922
2923.00,1.4933
2922.00,1.4919
2921.00,1.4876
2920.00,1.4805
2919.00,1.4717
2918.00,1.4620
2917.00,1.4519
2916.00,1.4414
2915.00,1.4308
2914.00,1.4206
2913.00,1.4107
2912.00,1.4012
2911.00,1.3922
2910.00,1.3839
2909.00,1.3764
2908.00,1.3698
2907.00,1.3640
2906.00,1.3587
2905.00,1.3537
2904.00,1.3489
2903.00,1.3446
2902.00,1.3409
2901.00,1.3374
2900.00,1.3340
2899.00,1.3306
2898.00,1.3275
2897.00,1.3243
2896.00,1.3211
2895.00,1.3176
2894.00,1.3142
2893.00,1.3109
2892.00,1.3076
2891.00,1.3042
2890.00,1.3007
2889.00,1.2974
2888.00,1.2943
2887.00,1.2917
2886.00,1.2896
2885.00,1.2878
2884.00,1.2861
2883.00,1.2845
2882.00,1.2830
2881.00,1.2818
2880.00,1.2811
2879.00,1.2814
2878.00,1.2826
2877.00,1.2847
2876.00,1.2872
2875.00,1.2897
2874.00,1.2923
2873.00,1.2947
2872.00,1.2968
2871.00,1.2981
2870.00,1.2986
2869.00,1.2989
2868.00,1.2993
2867.00,1.3001
2866.00,1.3015
2865.00,1.3038
2864.00,1.3074
2863.00,1.3124
2862.00,1.3188
2861.00,1.3262
2860.00,1.3342
2859.00,1.3425
2858.00,1.3509
2857.00,1.3590
2856.00,1.3661
2855.00,1.3715
2854.00,1.3747
2853.00,1.3754
2852.00,1.3736
2851.00,1.3695
2850.00,1.3635
2849.00,1.3557
2848.00,1.3466
2847.00,1.3366
2846.00,1.3260
2845.00,1.3153
2844.00,1.3047
2843.00,1.2947
2842.00,1.2855
2841.00,1.2776
2840.00,1.2711
2839.00,1.2657
2838.00,1.2610
2837.00,1.2566
2836.00,1.2526
2835.00,1.2490
2834.00,1.2459
2833.00,1.2432
2832.00,1.2409
2831.00,1.2387
2830.00,1.2368
2829.00,1.2349
2828.00,1.2334
2827.00,1.2321
2826.00,1.2309
2825.00,1.2298
2824.00,1.2289
2823.00,1.2282
2822.00,1.2276
2821.00,1.2268
2820.00,1.2258
2819.00,1.2246
2818.00,1.2236
2817.00,1.2230
2816.00,1.2227
2815.00,1.2224
2814.00,1.2220
2813.00,1.2214
2812.00,1.2207
2811.00,1.2201
2810.00,1.2195
2809.00,1.2189
2808.00,1.2183
2807.00,1.2178
2806.00,1.2175
2805.00,1.2174
2804.00,1.2173
2803.00,1.2170
2802.00,1.2165
2801.00,1.2160
2800.00,1.2154
2799.00,1.2150
2798.00,1.2146
2797.00,1.2142
2796.00,1.2138
2795.00,1.2135
2794.00,1.2132
2793.00,1.2131
2792.00,1.2132
2791.00,1.2133
2790.00,1.2133
2789.00,1.2130
2788.00,1.2124
2787.00,1.2117
2786.00,1.2110
2785.00,1.2105
2784.00,1.2103
2783.00,1.2101
2782.00,1.2100
2781.00,1.2098
2780.00,1.2095
2779.00,1.2093
2778.00,1.2090
2777.00,1.2088
2776.00,1.2085
2775.00,1.2081
2774.00,1.2076
2773.00,1.2070
2772.00,1.2064
2771.00,1.2059
2770.00,1.2057
2769.00,1.2056
2768.00,1.2056
2767.00,1.2056
2766.00,1.2055
2765.00,1.2053
2764.00,1.2052
2763.00,1.2049
2762.00,1.2046
2761.00,1.2043
2760.00,1.2040
2759.00,1.2038
2758.00,1.2036
2757.00,1.2035
2756.00,1.2034
2755.00,1.2033
2754.00,1.2031
2753.00,1.2029
2752.00,1.2028
2751.00,1.2026
2750.00,1.2022
2749.00,1.2017
2748.00,1.2014
2747.00,1.2013
2746.00,1.2015
2745.00,1.2018
2744.00,1.2022
2743.00,1.2025
2742.00,1.2026
2741.00,1.2026
2740.00,1.2023
2739.00,1.2020
2738.00,1.2017
2737.00,1.2017
2736.00,1.2017
2735.00,1.2016
2734.00,1.2015
2733.00,1.2014
2732.00,1.2013
2731.00,1.2013
2730.00,1.2014
2729.00,1.2016
2728.00,1.2017
2727.00,1.2017
2726.00,1.2012
2725.00,1.2006
2724.00,1.1999
2723.00,1.1996
2722.00,1.1994
2721.00,1.1994
2720.00,1.1993
2719.00,1.1992
2718.00,1.1990
2717.00,1.1988
2716.00,1.1983
2715.00,1.1978
2714.00,1.1974
2713.00,1.1974
2712.00,1.1978
2711.00,1.1983
2710.00,1.1985
2709.00,1.1982
2708.00,1.1978
2707.00,1.1974
2706.00,1.1972
2705.00,1.1971
2704.00,1.1968
2703.00,1.1962
2702.00,1.1957
2701.00,1.1953
2700.00,1.1952
2699.00,1.1954
2698.00,1.1956
2697.00,1.1959
2696.00,1.1961
2695.00,1.1962
2694.00,1.1961
2693.00,1.1958
2692.00,1.1955
2691.00,1.1954
2690.00,1.1955
2689.00,1.1958
2688.00,1.1960
2687.00,1.1960
2686.00,1.1957
2685.00,1.1956
2684.00,1.1956
2683.00,1.1957
2682.00,1.1956
2681.00,1.1952
2680.00,1.1948
2679.00,1.1945
2678.00,1.1944
2677.00,1.1942
2676.00,1.1940
2675.00,1.1937
2674.00,1.1935
2673.00,1.1934
2672.00,1.1934
2671.00,1.1934
2670.00,1.1934
2669.00,1.1934
2668.00,1.1933
2667.00,1.1931
2666.00,1.1927
2665.00,1.1921
2664.00,1.1916
2663.00,1.1913
2662.00,1.1911
2661.00,1.1910
2660.00,1.1910
2659.00,1.1911
2658.00,1.1913
2657.00,1.1912
2656.00,1.1909
2655.00,1.1907
2654.00,1.1908
2653.00,1.1910
2652.00,1.1910
2651.00,1.1906
2650.00,1.1899
2649.00,1.1893
2648.00,1.1890
2647.00,1.1890
2646.00,1.1892
2645.00,1.1893
2644.00,1.1893
2643.00,1.1891
2642.00,1.1888
2641.00,1.1886
2640.00,1.1886
2639.00,1.1886
2638.00,1.1885
2637.00,1.1884
2636.00,1.1882
2635.00,1.1882
2634.00,1.1882
2633.00,1.1882
2632.00,1.1884
2631.00,1.1886
2630.00,1.1887
2629.00,1.1887
2628.00,1.1885
2627.00,1.1882
2626.00,1.1878
2625.00,1.1875
2624.00,1.1874
2623.00,1.1875
2622.00,1.1877
2621.00,1.1879
2620.00,1.1881
2619.00,1.1880
2618.00,1.1877
2617.00,1.1872
2616.00,1.1868
2615.00,1.1866
2614.00,1.1866
2613.00,1.1866
2612.00,1.1865
2611.00,1.1862
2610.00,1.1860
2609.00,1.1859
2608.00,1.1857
2607.00,1.1855
2606.00,1.1852
2605.00,1.1849
2604.00,1.1846
2603.00,1.1843
2602.00,1.1840
2601.00,1.1839
2600.00,1.1837
2599.00,1.1837
2598.00,1.1837
2597.00,1.1837
2596.00,1.1837
2595.00,1.1835
2594.00,1.1834
2593.00,1.1834
2592.00,1.1837
2591.00,1.1839
2590.00,1.1838
2589.00,1.1836
2588.00,1.1834
2587.00,1.1833
2586.00,1.1834
2585.00,1.1833
2584.00,1.1832
2583.00,1.1831
2582.00,1.1830
2581.00,1.1828
2580.00,1.1826
2579.00,1.1824
2578.00,1.1824
2577.00,1.1825
2576.00,1.1825
2575.00,1.1824
2574.00,1.1822
2573.00,1.1820
2572.00,1.1819
2571.00,1.1818
2570.00,1.1818
2569.00,1.1817
2568.00,1.1815
2567.00,1.1811
2566.00,1.1807
2565.00,1.1802
2564.00,1.1799
2563.00,1.1797
2562.00,1.1797
2561.00,1.1797
2560.00,1.1797
2559.00,1.1796
2558.00,1.1795
2557.00,1.1793
2556.00,1.1791
2555.00,1.1788
2554.00,1.1787
2553.00,1.1787
2552.00,1.1788
2551.00,1.1787
2550.00,1.1784
2549.00,1.1780
2548.00,1.1777
2547.00,1.1775
2546.00,1.1774
2545.00,1.1772
2544.00,1.1770
2543.00,1.1768
2542.00,1.1768
2541.00,1.1769
2540.00,1.1771
2539.00,1.1773
2538.00,1.1775
2537.00,1.1776
2536.00,1.1775
2535.00,1.1774
2534.00,1.1773
2533.00,1.1771
2532.00,1.1768
2531.00,1.1766
2530.00,1.1764
2529.00,1.1762
2528.00,1.1760
2527.00,1.1759
2526.00,1.1758
2525.00,1.1758
2524.00,1.1758
2523.00,1.1758
2522.00,1.1759
2521.00,1.1759
2520.00,1.1760
2519.00,1.1758
2518.00,1.1757
2517.00,1.1756
2516.00,1.1756
2515.00,1.1755
2514.00,1.1752
2513.00,1.1747
2512.00,1.1742
2511.00,1.1740
2510.00,1.1739
2509.00,1.1738
2508.00,1.1736
2507.00,1.1733
2506.00,1.1730
2505.00,1.1727
2504.00,1.1724
2503.00,1.1722
2502.00,1.1722
2501.00,1.1723
2500.00,1.1724
2499.00,1.1723
2498.00,1.1721
2497.00,1.1718
2496.00,1.1713
2495.00,1.1709
2494.00,1.1706
2493.00,1.1704
2492.00,1.1703
2491.00,1.1703
2490.00,1.1703
2489.00,1.1704
2488.00,1.1705
2487.00,1.1707
2486.00,1.1709
2485.00,1.1710
2484.00,1.1708
2483.00,1.1706
2482.00,1.1704
2481.00,1.1704
2480.00,1.1704
2479.00,1.1702
2478.00,1.1700
2477.00,1.1697
2476.00,1.1696
2475.00,1.1697
2474.00,1.1699
2473.00,1.1700
2472.00,1.1698
2471.00,1.1695
2470.00,1.1693
2469.00,1.1694
2468.00,1.1696
2467.00,1.1698
2466.00,1.1698
2465.00,1.1695
2464.00,1.1689
2463.00,1.1683
2462.00,1.1678
2461.00,1.1675
2460.00,1.1673
2459.00,1.1672
2458.00,1.1670
2457.00,1.1668
2456.00,1.1667
2455.00,1.1665
2454.00,1.1663
2453.00,1.1662
2452.00,1.1660
2451.00,1.1656
2450.00,1.1651
2449.00,1.1646
2448.00,1.1645
2447.00,1.1648
2446.00,1.1650
2445.00,1.1649
2444.00,1.1648
2443.00,1.1647
2442.00,1.1648
2441.00,1.1650
2440.00,1.1649
2439.00,1.1645
2438.00,1.1642
2437.00,1.1641
2436.00,1.1642
2435.00,1.1643
2434.00,1.1641
2433.00,1.1638
2432.00,1.1635
2431.00,1.1633
2430.00,1.1631
2429.00,1.1629
2428.00,1.1628
2427.00,1.1630
2426.00,1.1633
2425.00,1.1634
2424.00,1.1632
2423.00,1.1631
2422.00,1.1631
2421.00,1.1632
2420.00,1.1633
2419.00,1.1632
2418.00,1.1630
2417.00,1.1629
2416.00,1.1628
2415.00,1.1626
2414.00,1.1624
2413.00,1.1622
2412.00,1.1620
2411.00,1.1618
2410.00,1.1616
2409.00,1.1615
2408.00,1.1614
2407.00,1.1613
2406.00,1.1612
2405.00,1.1608
2404.00,1.1603
2403.00,1.1600
2402.00,1.1599
2401.00,1.1600
2400.00,1.1600
2399.00,1.1598
2398.00,1.1594
2397.00,1.1589
2396.00,1.1585
2395.00,1.1582
2394.00,1.1580
2393.00,1.1580
2392.00,1.1579
2391.00,1.1578
2390.00,1.1575
2389.00,1.1571
2388.00,1.1565
2387.00,1.1559
2386.00,1.1554
2385.00,1.1547
2384.00,1.1540
2383.00,1.1530
2382.00,1.1520
2381.00,1.1510
2380.00,1.1501
2379.00,1.1493
2378.00,1.1487
2377.00,1.1485
2376.00,1.1486
2375.00,1.1491
2374.00,1.1496
2373.00,1.1501
2372.00,1.1505
2371.00,1.1508
2370.00,1.1508
2369.00,1.1508
2368.00,1.1506
2367.00,1.1503
2366.00,1.1497
2365.00,1.1490
2364.00,1.1483
2363.00,1.1478
2362.00,1.1477
2361.00,1.1479
2360.00,1.1483
2359.00,1.1490
2358.00,1.1496
2357.00,1.1503
2356.00,1.1510
2355.00,1.1517
2354.00,1.1521
2353.00,1.1520
2352.00,1.1515
2351.00,1.1506
2350.00,1.1491
2349.00,1.1471
2348.00,1.1447
2347.00,1.1425
2346.00,1.1414
2345.00,1.1419
2344.00,1.1436
2343.00,1.1454
2342.00,1.1465
2341.00,1.1468
2340.00,1.1466
2339.00,1.1467
2338.00,1.1470
2337.00,1.1474
2336.00,1.1475
2335.00,1.1473
2334.00,1.1469
2333.00,1.1466
2332.00,1.1465
2331.00,1.1467
2330.00,1.1470
2329.00,1.1472
2328.00,1.1474
2327.00,1.1473
2326.00,1.1472
2325.00,1.1469
2324.00,1.1465
2323.00,1.1461
2322.00,1.1461
2321.00,1.1463
2320.00,1.1466
2319.00,1.1470
2318.00,1.1472
2317.00,1.1472
2316.00,1.1470
2315.00,1.1467
2314.00,1.1463
2313.00,1.1462
2312.00,1.1461
2311.00,1.1459
2310.00,1.1458
2309.00,1.1457
2308.00,1.1455
2307.00,1.1453
2306.00,1.1452
2305.00,1.1451
2304.00,1.1452
2303.00,1.1453
2302.00,1.1453
2301.00,1.1452
2300.00,1.1451
2299.00,1.1451
2298.00,1.1452
2297.00,1.1451
2296.00,1.1449
2295.00,1.1446
2294.00,1.1442
2293.00,1.1441
2292.00,1.1442
2291.00,1.1443
2290.00,1.1442
2289.00,1.1440
2288.00,1.1437
2287.00,1.1434
2286.00,1.1432
2285.00,1.1429
2284.00,1.1425
2283.00,1.1421
2282.00,1.1420
2281.00,1.1419
2280.00,1.1418
2279.00,1.1417
2278.00,1.1415
2277.00,1.1414
2276.00,1.1415
2275.00,1.1418
2274.00,1.1420
2273.00,1.1420
2272.00,1.1418
2271.00,1.1416
2270.00,1.1414
2269.00,1.1412
2268.00,1.1412
2267.00,1.1413
2266.00,1.1416
2265.00,1.1417
2264.00,1.1416
2263.00,1.1414
2262.00,1.1412
2261.00,1.1411
2260.00,1.1410
2259.00,1.1411
2258.00,1.1414
2257.00,1.1418
2256.00,1.1422
2255.00,1.1422
2254.00,1.1419
2253.00,1.1415
2252.00,1.1411
2251.00,1.1411
2250.00,1.1412
2249.00,1.1413
2248.00,1.1411
2247.00,1.1409
2246.00,1.1407
2245.00,1.1405
2244.00,1.1400
2243.00,1.1394
2242.00,1.1388
2241.00,1.1383
2240.00,1.1380
2239.00,1.1381
2238.00,1.1383
2237.00,1.1384
2236.00,1.1382
2235.00,1.1378
2234.00,1.1374
2233.00,1.1371
2232.00,1.1369
2231.00,1.1366
2230.00,1.1363
2229.00,1.1360
2228.00,1.1360
2227.00,1.1361
2226.00,1.1363
2225.00,1.1364
2224.00,1.1364
2223.00,1.1364
2222.00,1.1363
2221.00,1.1363
2220.00,1.1363
2219.00,1.1363
2218.00,1.1363
2217.00,1.1362
2216.00,1.1360
2215.00,1.1359
2214.00,1.1357
2213.00,1.1355
2212.00,1.1351
2211.00,1.1348
2210.00,1.1346
2209.00,1.1346
2208.00,1.1347
2207.00,1.1349
2206.00,1.1351
2205.00,1.1353
2204.00,1.1355
2203.00,1.1354
2202.00,1.1350
2201.00,1.1346
2200.00,1.1343
2199.00,1.1343
2198.00,1.1343
2197.00,1.1342
2196.00,1.1341
2195.00,1.1340
2194.00,1.1339
2193.00,1.1338
2192.00,1.1336
2191.00,1.1333
2190.00,1.1330
2189.00,1.1326
2188.00,1.1322
2187.00,1.1318
2186.00,1.1316
2185.00,1.1315
2184.00,1.1316
2183.00,1.1318
2182.00,1.1320
2181.00,1.1319
2180.00,1.1316
2179.00,1.1312
2178.00,1.1308
2177.00,1.1306
2176.00,1.1304
2175.00,1.1301
2174.00,1.1298
2173.00,1.1297
2172.00,1.1297
2171.00,1.1298
2170.00,1.1298
2169.00,1.1297
2168.00,1.1296
2167.00,1.1296
2166.00,1.1297
2165.00,1.1299
2164.00,1.1300
2163.00,1.1299
2162.00,1.1297
2161.00,1.1294
2160.00,1.1291
2159.00,1.1288
2158.00,1.1285
2157.00,1.1284
2156.00,1.1284
2155.00,1.1286
2154.00,1.1288
2153.00,1.1286
2152.00,1.1283
2151.00,1.1282
2150.00,1.1283
2149.00,1.1285
2148.00,1.1286
2147.00,1.1285
2146.00,1.1282
2145.00,1.1280
2144.00,1.1279
2143.00,1.1280
2142.00,1.1280
2141.00,1.1278
2140.00,1.1276
2139.00,1.1273
2138.00,1.1271
2137.00,1.1268
2136.00,1.1266
2135.00,1.1264
2134.00,1.1261
2133.00,1.1259
2132.00,1.1257
2131.00,1.1255
2130.00,1.1254
2129.00,1.1251
2128.00,1.1248
2127.00,1.1246
2126.00,1.1244
2125.00,1.1243
2124.00,1.1242
2123.00,1.1242
2122.00,1.1242
2121.00,1.1242
2120.00,1.1241
2119.00,1.1238
2118.00,1.1236
2117.00,1.1235
2116.00,1.1234
2115.00,1.1232
2114.00,1.1231
2113.00,1.1231
2112.00,1.1232
2111.00,1.1233
2110.00,1.1233
2109.00,1.1233
2108.00,1.1231
2107.00,1.1227
2106.00,1.1224
2105.00,1.1222
2104.00,1.1224
2103.00,1.1227
2102.00,1.1230
2101.00,1.1231
2100.00,1.1230
2099.00,1.1228
2098.00,1.1228
2097.00,1.1227
2096.00,1.1226
2095.00,1.1224
2094.00,1.1220
2093.00,1.1217
2092.00,1.1213
2091.00,1.1212
2090.00,1.1212
2089.00,1.1212
2088.00,1.1211
2087.00,1.1209
2086.00,1.1206
2085.00,1.1205
2084.00,1.1205
2083.00,1.1204
2082.00,1.1202
2081.00,1.1199
2080.00,1.1197
2079.00,1.1196
2078.00,1.1196
2077.00,1.1196
2076.00,1.1196
2075.00,1.1195
2074.00,1.1195
2073.00,1.1193
2072.00,1.1190
2071.00,1.1186
2070.00,1.1183
2069.00,1.1182
2068.00,1.1182
2067.00,1.1183
2066.00,1.1183
2065.00,1.1184
2064.00,1.1184
2063.00,1.1183
2062.00,1.1181
2061.00,1.1177
2060.00,1.1174
2059.00,1.1171
2058.00,1.1169
2057.00,1.1169
2056.00,1.1169
2055.00,1.1170
2054.00,1.1170
2053.00,1.1170
2052.00,1.1171
2051.00,1.1171
2050.00,1.1171
2049.00,1.1170
2048.00,1.1168
2047.00,1.1166
2046.00,1.1164
2045.00,1.1162
2044.00,1.1160
2043.00,1.1159
2042.00,1.1157
2041.00,1.1154
2040.00,1.1153
2039.00,1.1153
2038.00,1.1152
2037.00,1.1150
2036.00,1.1148
2035.00,1.1147
2034.00,1.1146
2033.00,1.1145
2032.00,1.1144
2031.00,1.1143
2030.00,1.1143
2029.00,1.1142
2028.00,1.1141
2027.00,1.1139
2026.00,1.1137
2025.00,1.1134
2024.00,1.1131
2023.00,1.1128
2022.00,1.1126
2021.00,1.1125
2020.00,1.1125
2019.00,1.1124
2018.00,1.1123
2017.00,1.1121
2016.00,1.1119
2015.00,1.1117
2014.00,1.1114
2013.00,1.1112
2012.00,1.1109
2011.00,1.1107
2010.00,1.1106
2009.00,1.1105
2008.00,1.1104
2007.00,1.1102
2006.00,1.1102
2005.00,1.1102
2004.00,1.1104
2003.00,1.1104
2002.00,1.1103
2001.00,1.1100
2000.00,1.1098
1999.00,1.1096
1998.00,1.1095
1997.00,1.1094
1996.00,1.1092
1995.00,1.1091
1994.00,1.1091
1993.00,1.1091
1992.00,1.1088
1991.00,1.1084
1990.00,1.1078
1989.00,1.1074
1988.00,1.1070
1987.00,1.1067
1986.00,1.1065
1985.00,1.1065
1984.00,1.1068
1983.00,1.1070
1982.00,1.1072
1981.00,1.1071
1980.00,1.1068
1979.00,1.1065
1978.00,1.1062
1977.00,1.1059
1976.00,1.1056
1975.00,1.1053
1974.00,1.1053
1973.00,1.1056
1972.00,1.1059
1971.00,1.1061
1970.00,1.1061
1969.00,1.1060
1968.00,1.1058
1967.00,1.1055
1966.00,1.1050
1965.00,1.1046
1964.00,1.1043
1963.00,1.1043
1962.00,1.1045
1961.00,1.1046
1960.00,1.1045
1959.00,1.1043
1958.00,1.1040
1957.00,1.1038
1956.00,1.1037
1955.00,1.1037
1954.00,1.1039
1953.00,1.1041
1952.00,1.1042
1951.00,1.1039
1950.00,1.1034
1949.00,1.1027
1948.00,1.1022
1947.00,1.1019
1946.00,1.1017
1945.00,1.1018
1944.00,1.1021
1943.00,1.1023
1942.00,1.1023
1941.00,1.1019
1940.00,1.1013
1939.00,1.1007
1938.00,1.1004
1937.00,1.1004
1936.00,1.1005
1935.00,1.1005
1934.00,1.1002
1933.00,1.0997
1932.00,1.0991
1931.00,1.0987
1930.00,1.0987
1929.00,1.0990
1928.00,1.0992
1927.00,1.0991
1926.00,1.0988
1925.00,1.0984
1924.00,1.0981
1923.00,1.0980
1922.00,1.0981
1921.00,1.0982
1920.00,1.0982
1919.00,1.0981
1918.00,1.0979
1917.00,1.0978
1916.00,1.0977
1915.00,1.0977
1914.00,1.0976
1913.00,1.0976
1912.00,1.0977
1911.00,1.0977
1910.00,1.0975
1909.00,1.0971
1908.00,1.0966
1907.00,1.0964
1906.00,1.0965
1905.00,1.0967
1904.00,1.0966
1903.00,1.0963
1902.00,1.0958
1901.00,1.0954
1900.00,1.0952
1899.00,1.0951
1898.00,1.0949
1897.00,1.0947
1896.00,1.0943
1895.00,1.0939
1894.00,1.0935
1893.00,1.0933
1892.00,1.0930
1891.00,1.0927
1890.00,1.0925
1889.00,1.0925
1888.00,1.0926
1887.00,1.0924
1886.00,1.0921
1885.00,1.0917
1884.00,1.0915
1883.00,1.0913
1882.00,1.0910
1881.00,1.0906
1880.00,1.0902
1879.00,1.0898
1878.00,1.0895
1877.00,1.0894
1876.00,1.0893
1875.00,1.0892
1874.00,1.0889
1873.00,1.0888
1872.00,1.0888
1871.00,1.0889
1870.00,1.0890
1869.00,1.0889
1868.00,1.0886
1867.00,1.0883
1866.00,1.0882
1865.00,1.0884
1864.00,1.0885
1863.00,1.0885
1862.00,1.0885
1861.00,1.0884
1860.00,1.0882
1859.00,1.0880
1858.00,1.0879
1857.00,1.0878
1856.00,1.0878
1855.00,1.0877
1854.00,1.0875
1853.00,1.0872
1852.00,1.0867
1851.00,1.0864
1850.00,1.0863
1849.00,1.0863
1848.00,1.0862
1847.00,1.0860
1846.00,1.0857
1845.00,1.0853
1844.00,1.0848
1843.00,1.0843
1842.00,1.0839
1841.00,1.0837
1840.00,1.0835
1839.00,1.0831
1838.00,1.0827
1837.00,1.0825
1836.00,1.0823
1835.00,1.0820
1834.00,1.0815
1833.00,1.0811
1832.00,1.0806
1831.00,1.0802
1830.00,1.0799
1829.00,1.0797
1828.00,1.0796
1827.00,1.0796
1826.00,1.0795
1825.00,1.0793
1824.00,1.0791
1823.00,1.0790
1822.00,1.0790
1821.00,1.0790
1820.00,1.0789
1819.00,1.0788
1818.00,1.0788
1817.00,1.0790
1816.00,1.0793
1815.00,1.0794
1814.00,1.0793
1813.00,1.0792
1812.00,1.0791
1811.00,1.0790
1810.00,1.0789
1809.00,1.0790
1808.00,1.0792
1807.00,1.0795
1806.00,1.0796
1805.00,1.0797
1804.00,1.0797
1803.00,1.0796
1802.00,1.0796
1801.00,1.0797
1800.00,1.0797
1799.00,1.0797
1798.00,1.0797
1797.00,1.0799
1796.00,1.0800
1795.00,1.0798
1794.00,1.0793
1793.00,1.0788
1792.00,1.0783
1791.00,1.0776
1790.00,1.0770
1789.00,1.0766
1788.00,1.0762
1787.00,1.0756
1786.00,1.0749
1785.00,1.0742
1784.00,1.0735
1783.00,1.0729
1782.00,1.0723
1781.00,1.0717
1780.00,1.0712
1779.00,1.0706
1778.00,1.0701
1777.00,1.0698
1776.00,1.0696
1775.00,1.0695
1774.00,1.0694
1773.00,1.0692
1772.00,1.0690
1771.00,1.0689
1770.00,1.0689
1769.00,1.0688
1768.00,1.0686
1767.00,1.0682
1766.00,1.0681
1765.00,1.0683
1764.00,1.0686
1763.00,1.0689
1762.00,1.0688
1761.00,1.0687
1760.00,1.0686
1759.00,1.0689
1758.00,1.0694
1757.00,1.0700
1756.00,1.0705
1755.00,1.0708
1754.00,1.0709
1753.00,1.0709
1752.00,1.0712
1751.00,1.0716
1750.00,1.0720
1749.00,1.0722
1748.00,1.0723
1747.00,1.0722
1746.00,1.0720
1745.00,1.0715
1744.00,1.0711
1743.00,1.0708
1742.00,1.0704
1741.00,1.0700
1740.00,1.0696
1739.00,1.0692
1738.00,1.0689
1737.00,1.0686
1736.00,1.0680
1735.00,1.0672
1734.00,1.0662
1733.00,1.0651
1732.00,1.0643
1731.00,1.0641
1730.00,1.0640
1729.00,1.0636
1728.00,1.0631
1727.00,1.0627
1726.00,1.0625
1725.00,1.0623
1724.00,1.0620
1723.00,1.0615
1722.00,1.0609
1721.00,1.0606
1720.00,1.0606
1719.00,1.0606
1718.00,1.0606
1717.00,1.0604
1716.00,1.0603
1715.00,1.0603
1714.00,1.0605
1713.00,1.0607
1712.00,1.0609
1711.00,1.0608
1710.00,1.0604
1709.00,1.0603
1708.00,1.0603
1707.00,1.0604
1706.00,1.0604
1705.00,1.0603
1704.00,1.0603
1703.00,1.0602
1702.00,1.0601
1701.00,1.0605
1700.00,1.0610
1699.00,1.0609
1698.00,1.0608
1697.00,1.0608
1696.00,1.0607
1695.00,1.0603
1694.00,1.0601
1693.00,1.0604
1692.00,1.0606
1691.00,1.0605
1690.00,1.0602
1689.00,1.0599
1688.00,1.0593
1687.00,1.0585
1686.00,1.0574
1685.00,1.0566
1684.00,1.0561
1683.00,1.0557
1682.00,1.0558
1681.00,1.0561
1680.00,1.0560
1679.00,1.0559
1678.00,1.0558
1677.00,1.0555
1676.00,1.0550
1675.00,1.0546
1674.00,1.0543
1673.00,1.0542
1672.00,1.0539
1671.00,1.0535
1670.00,1.0532
1669.00,1.0529
1668.00,1.0529
1667.00,1.0531
1666.00,1.0534
1665.00,1.0535
1664.00,1.0533
1663.00,1.0529
1662.00,1.0524
1661.00,1.0523
1660.00,1.0524
1659.00,1.0528
1658.00,1.0534
1657.00,1.0538
1656.00,1.0541
1655.00,1.0542
1654.00,1.0546
1653.00,1.0551
1652.00,1.0547
1651.00,1.0548
1650.00,1.0559
1649.00,1.0565
1648.00,1.0566
1647.00,1.0565
1646.00,1.0563
1645.00,1.0562
1644.00,1.0564
1643.00,1.0566
1642.00,1.0568
1641.00,1.0569
1640.00,1.0568
1639.00,1.0567
1638.00,1.0566
1637.00,1.0565
1636.00,1.0566
1635.00,1.0567
1634.00,1.0568
1633.00,1.0571
1632.00,1.0574
1631.00,1.0574
1630.00,1.0571
1629.00,1.0568
1628.00,1.0564
1627.00,1.0561
1626.00,1.0560
1625.00,1.0559
1624.00,1.0558
1623.00,1.0558
1622.00,1.0558
1621.00,1.0557
1620.00,1.0555
1619.00,1.0552
1618.00,1.0551
1617.00,1.0553
1616.00,1.0556
1615.00,1.0558
1614.00,1.0561
1613.00,1.0566
1612.00,1.0571
1611.00,1.0578
1610.00,1.0586
1609.00,1.0593
1608.00,1.0599
1607.00,1.0605
1606.00,1.0611
1605.00,1.0619
1604.00,1.0628
1603.00,1.0639
1602.00,1.0649
1601.00,1.0658
1600.00,1.0665
1599.00,1.0673
1598.00,1.0682
1597.00,1.0690
1596.00,1.0698
1595.00,1.0707
1594.00,1.0717
1593.00,1.0731
1592.00,1.0748
1591.00,1.0766
1590.00,1.0786
1589.00,1.0806
1588.00,1.0830
1587.00,1.0857
1586.00,1.0888
1585.00,1.0922
1584.00,1.0956
1583.00,1.0992
1582.00,1.1025
1581.00,1.1053
1580.00,1.1070
1579.00,1.1072
1578.00,1.1057
1577.00,1.1025
1576.00,1.0981
1575.00,1.0936
1574.00,1.0902
1573.00,1.0879
1572.00,1.0861
1571.00,1.0846
1570.00,1.0836
1569.00,1.0826
1568.00,1.0817
1567.00,1.0811
1566.00,1.0810
1565.00,1.0813
1564.00,1.0820
1563.00,1.0828
1562.00,1.0833
1561.00,1.0833
1560.00,1.0828
1559.00,1.0814
1558.00,1.0786
1557.00,1.0759
1556.00,1.0743
1555.00,1.0728
1554.00,1.0712
1553.00,1.0698
1552.00,1.0687
1551.00,1.0680
1550.00,1.0671
1549.00,1.0663
1548.00,1.0656
1547.00,1.0652
1546.00,1.0651
1545.00,1.0652
1544.00,1.0655
1543.00,1.0659
1542.00,1.0663
1541.00,1.0670
1540.00,1.0674
1539.00,1.0669
1538.00,1.0659
1537.00,1.0653
1536.00,1.0649
1535.00,1.0644
1534.00,1.0638
1533.00,1.0631
1532.00,1.0623
1531.00,1.0617
1530.00,1.0613
1529.00,1.0610
1528.00,1.0606
1527.00,1.0601
1526.00,1.0595
1525.00,1.0591
1524.00,1.0587
1523.00,1.0585
1522.00,1.0585
1521.00,1.0587
1520.00,1.0594
1519.00,1.0605
1518.00,1.0618
1517.00,1.0627
1516.00,1.0629
1515.00,1.0625
1514.00,1.0621
1513.00,1.0619
1512.00,1.0621
1511.00,1.0624
1510.00,1.0624
1509.00,1.0623
1508.00,1.0623
1507.00,1.0627
1506.00,1.0630
1505.00,1.0634
1504.00,1.0642
1503.00,1.0653
1502.00,1.0662
1501.00,1.0669
1500.00,1.0678
1499.00,1.0688
1498.00,1.0698
1497.00,1.0709
1496.00,1.0721
1495.00,1.0734
1494.00,1.0749
1493.00,1.0765
1492.00,1.0783
1491.00,1.0800
1490.00,1.0817
1489.00,1.0832
1488.00,1.0846
1487.00,1.0857
1486.00,1.0867
1485.00,1.0877
1484.00,1.0888
1483.00,1.0900
1482.00,1.0912
1481.00,1.0927
1480.00,1.0943
1479.00,1.0961
1478.00,1.0983
1477.00,1.1009
1476.00,1.1038
1475.00,1.1068
1474.00,1.1108
1473.00,1.1165
1472.00,1.1239
1471.00,1.1323
1470.00,1.1407
1469.00,1.1486
1468.00,1.1553
1467.00,1.1603
1466.00,1.1639
1465.00,1.1661
1464.00,1.1670
1463.00,1.1671
1462.00,1.1671
1461.00,1.1676
1460.00,1.1687
1459.00,1.1702
1458.00,1.1718
1457.00,1.1733
1456.00,1.1740
1455.00,1.1739
1454.00,1.1737
1453.00,1.1735
1452.00,1.1733
1451.00,1.1735
1450.00,1.1742
1449.00,1.1749
1448.00,1.1755
1447.00,1.1757
1446.00,1.1758
1445.00,1.1762
1444.00,1.1767
1443.00,1.1774
1442.00,1.1779
1441.00,1.1784
1440.00,1.1793
1439.00,1.1806
1438.00,1.1824
1437.00,1.1846
1436.00,1.1866
1435.00,1.1879
1434.00,1.1889
1433.00,1.1898
1432.00,1.1910
1431.00,1.1926
1430.00,1.1946
1429.00,1.1968
1428.00,1.1991
1427.00,1.2012
1426.00,1.2031
1425.00,1.2050
1424.00,1.2070
1423.00,1.2089
1422.00,1.2106
1421.00,1.2120
1420.00,1.2132
1419.00,1.2140
1418.00,1.2140
1417.00,1.2135
1416.00,1.2125
1415.00,1.2109
1414.00,1.2085
1413.00,1.2054
1412.00,1.2013
1411.00,1.1961
1410.00,1.1900
1409.00,1.1834
1408.00,1.1764
1407.00,1.1689
1406.00,1.1611
1405.00,1.1532
1404.00,1.1457
1403.00,1.1391
1402.00,1.1333
1401.00,1.1283
1400.00,1.1237
1399.00,1.1196
1398.00,1.1157
1397.00,1.1119
1396.00,1.1079
1395.00,1.1037
1394.00,1.0996
1393.00,1.0958
1392.00,1.0924
1391.00,1.0894
1390.00,1.0866
1389.00,1.0842
1388.00,1.0820
1387.00,1.0803
1386.00,1.0792
1385.00,1.0788
1384.00,1.0791
1383.00,1.0801
1382.00,1.0816
1381.00,1.0837
1380.00,1.0861
1379.00,1.0883
1378.00,1.0894
1377.00,1.0891
1376.00,1.0873
1375.00,1.0844
1374.00,1.0807
1373.00,1.0767
1372.00,1.0730
1371.00,1.0698
1370.00,1.0673
1369.00,1.0652
1368.00,1.0635
1367.00,1.0622
1366.00,1.0611
1365.00,1.0599
1364.00,1.0582
1363.00,1.0561
1362.00,1.0540
1361.00,1.0522
1360.00,1.0507
1359.00,1.0497
1358.00,1.0487
1357.00,1.0477
1356.00,1.0466
1355.00,1.0457
1354.00,1.0450
1353.00,1.0444
1352.00,1.0437
1351.00,1.0431
1350.00,1.0425
1349.00,1.0419
1348.00,1.0413
1347.00,1.0407
1346.00,1.0398
1345.00,1.0389
1344.00,1.0383
1343.00,1.0380
1342.00,1.0380
1341.00,1.0379
1340.00,1.0372
1339.00,1.0362
1338.00,1.0351
1337.00,1.0343
1336.00,1.0336
1335.00,1.0330
1334.00,1.0325
1333.00,1.0319
1332.00,1.0312
1331.00,1.0307
1330.00,1.0303
1329.00,1.0299
1328.00,1.0294
1327.00,1.0290
1326.00,1.0287
1325.00,1.0285
1324.00,1.0282
1323.00,1.0278
1322.00,1.0276
1321.00,1.0276
1320.00,1.0277
1319.00,1.0278
1318.00,1.0277
1317.00,1.0276
1316.00,1.0276
1315.00,1.0277
1314.00,1.0279
1313.00,1.0279
1312.00,1.0278
1311.00,1.0278
1310.00,1.0279
1309.00,1.0280
1308.00,1.0279
1307.00,1.0276
1306.00,1.0272
1305.00,1.0267
1304.00,1.0262
1303.00,1.0258
1302.00,1.0257
1301.00,1.0256
1300.00,1.0254
1299.00,1.0251
1298.00,1.0246
1297.00,1.0240
1296.00,1.0233
1295.00,1.0227
1294.00,1.0221
1293.00,1.0214
1292.00,1.0206
1291.00,1.0199
1290.00,1.0192
1289.00,1.0185
1288.00,1.0180
1287.00,1.0175
1286.00,1.0169
1285.00,1.0161
1284.00,1.0154
1283.00,1.0148
1282.00,1.0143
1281.00,1.0136
1280.00,1.0128
1279.00,1.0121
1278.00,1.0116
1277.00,1.0111
1276.00,1.0104
1275.00,1.0097
1274.00,1.0091
1273.00,1.0086
1272.00,1.0082
1271.00,1.0078
1270.00,1.0073
1269.00,1.0068
1268.00,1.0063
1267.00,1.0062
1266.00,1.0063
1265.00,1.0065
1264.00,1.0068
1263.00,1.0070
1262.00,1.0073
1261.00,1.0074
1260.00,1.0076
1259.00,1.0079
1258.00,1.0083
1257.00,1.0088
1256.00,1.0094
1255.00,1.0100
1254.00,1.0108
1253.00,1.0116
1252.00,1.0122
1251.00,1.0128
1250.00,1.0132
1249.00,1.0137
1248.00,1.0143
1247.00,1.0150
1246.00,1.0157
1245.00,1.0163
1244.00,1.0168
1243.00,1.0171
1242.00,1.0170
1241.00,1.0166
1240.00,1.0164
1239.00,1.0165
1238.00,1.0166
1237.00,1.0167
1236.00,1.0167
1235.00,1.0169
1234.00,1.0169
1233.00,1.0163
1232.00,1.0151
1231.00,1.0139
1230.00,1.0130
1229.00,1.0124
1228.00,1.0121
1227.00,1.0120
1226.00,1.0117
1225.00,1.0112
1224.00,1.0103
1223.00,1.0093
1222.00,1.0086
1221.00,1.0080
1220.00,1.0075
1219.00,1.0070
1218.00,1.0066
1217.00,1.0062
1216.00,1.0059
1215.00,1.0058
1214.00,1.0057
1213.00,1.0055
1212.00,1.0053
1211.00,1.0052
1210.00,1.0053
1209.00,1.0054
1208.00,1.0055
1207.00,1.0056
1206.00,1.0057
1205.00,1.0060
1204.00,1.0065
1203.00,1.0072
1202.00,1.0079
1201.00,1.0084
1200.00,1.0088
1199.00,1.0093
1198.00,1.0099
1197.00,1.0105
1196.00,1.0108
1195.00,1.0109
1194.00,1.0112
1193.00,1.0117
1192.00,1.0124
1191.00,1.0129
1190.00,1.0131
1189.00,1.0128
1188.00,1.0121
1187.00,1.0113
1186.00,1.0105
1185.00,1.0098
1184.00,1.0091
1183.00,1.0084
1182.00,1.0076
1181.00,1.0065
1180.00,1.0052
1179.00,1.0039
1178.00,1.0028
1177.00,1.0015
1176.00,1.0001
1175.00,0.9985
1174.00,0.9966
1173.00,0.9947
1172.00,0.9930
1171.00,0.9916
1170.00,0.9904
1169.00,0.9893
1168.00,0.9882
1167.00,0.9871
1166.00,0.9861
1165.00,0.9852
1164.00,0.9843
1163.00,0.9835
1162.00,0.9827
1161.00,0.9819
1160.00,0.9814
1159.00,0.9810
1158.00,0.9808
1157.00,0.9807
1156.00,0.9809
1155.00,0.9813
1154.00,0.9817
1153.00,0.9817
1152.00,0.9811
1151.00,0.9803
1150.00,0.9796
1149.00,0.9791
1148.00,0.9787
1147.00,0.9786
1146.00,0.9788
1145.00,0.9792
1144.00,0.9797
1143.00,0.9804
1142.00,0.9812
1141.00,0.9818
1140.00,0.9821
1139.00,0.9822
1138.00,0.9823
1137.00,0.9826
1136.00,0.9828
1135.00,0.9826
1134.00,0.9819
1133.00,0.9813
1132.00,0.9809
1131.00,0.9805
1130.00,0.9795
1129.00,0.9776
1128.00,0.9752
1127.00,0.9730
1126.00,0.9711
1125.00,0.9695
1124.00,0.9680
1123.00,0.9664
1122.00,0.9649
1121.00,0.9635
1120.00,0.9623
1119.00,0.9610
1118.00,0.9596
1117.00,0.9583
1116.00,0.9573
1115.00,0.9566
1114.00,0.9559
1113.00,0.9548
1112.00,0.9534
1111.00,0.9521
1110.00,0.9513
1109.00,0.9507
1108.00,0.9502
1107.00,0.9495
1106.00,0.9489
1105.00,0.9484
1104.00,0.9481
1103.00,0.9480
1102.00,0.9480
1101.00,0.9481
1100.00,0.9485
1099.00,0.9492
1098.00,0.9498
1097.00,0.9504
1096.00,0.9509
1095.00,0.9514
1094.00,0.9519
1093.00,0.9526
1092.00,0.9534
1091.00,0.9542
1090.00,0.9550
1089.00,0.9556
1088.00,0.9561
1087.00,0.9568
1086.00,0.9574
1085.00,0.9579
1084.00,0.9584
1083.00,0.9591
1082.00,0.9597
1081.00,0.9600
1080.00,0.9599
1079.00,0.9596
1078.00,0.9591
1077.00,0.9581
1076.00,0.9566
1075.00,0.9552
1074.00,0.9541
1073.00,0.9530
1072.00,0.9518
1071.00,0.9505
1070.00,0.9492
1069.00,0.9476
1068.00,0.9458
1067.00,0.9440
1066.00,0.9425
1065.00,0.9414
1064.00,0.9407
1063.00,0.9402
1062.00,0.9399
1061.00,0.9396
1060.00,0.9391
1059.00,0.9384
1058.00,0.9377
1057.00,0.9372
1056.00,0.9369
1055.00,0.9367
1054.00,0.9366
1053.00,0.9366
1052.00,0.9367
1051.00,0.9368
1050.00,0.9371
1049.00,0.9373
1048.00,0.9375
1047.00,0.9378
1046.00,0.9381
1045.00,0.9384
1044.00,0.9386
1043.00,0.9387
1042.00,0.9389
1041.00,0.9392
1040.00,0.9395
1039.00,0.9399
1038.00,0.9404
1037.00,0.9410
1036.00,0.9417
1035.00,0.9426
1034.00,0.9434
1033.00,0.9441
1032.00,0.9449
1031.00,0.9458
1030.00,0.9465
1029.00,0.9466
1028.00,0.9464
1027.00,0.9460
1026.00,0.9456
1025.00,0.9449
1024.00,0.9439
1023.00,0.9429
1022.00,0.9420
1021.00,0.9412
1020.00,0.9404
1019.00,0.9396
1018.00,0.9392
1017.00,0.9390
1016.00,0.9386
1015.00,0.9379
1014.00,0.9367
1013.00,0.9352
1012.00,0.9336
1011.00,0.9320
1010.00,0.9306
1009.00,0.9290
1008.00,0.9270
1007.00,0.9247
1006.00,0.9227
1005.00,0.9212
1004.00,0.9204
1003.00,0.9199
1002.00,0.9194
1001.00,0.9187
1000.00,0.9179
999.00,0.9173
998.00,0.9173
997.00,0.9179
996.00,0.9187
995.00,0.9194
994.00,0.9199
993.00,0.9201
992.00,0.9202
991.00,0.9202
990.00,0.9204
989.00,0.9208
988.00,0.9219
987.00,0.9234
986.00,0.9251
985.00,0.9266
984.00,0.9280
983.00,0.9294
982.00,0.9307
981.00,0.9319
980.00,0.9328
979.00,0.9335
978.00,0.9344
977.00,0.9353
976.00,0.9362
975.00,0.9370
974.00,0.9377
973.00,0.9384
972.00,0.9389
971.00,0.9392
970.00,0.9394
969.00,0.9396
968.00,0.9398
967.00,0.9400
966.00,0.9397
965.00,0.9388
964.00,0.9375
963.00,0.9362
962.00,0.9348
961.00,0.9333
960.00,0.9318
959.00,0.9303
958.00,0.9290
957.00,0.9278
956.00,0.9267
955.00,0.9258
954.00,0.9249
953.00,0.9238
952.00,0.9224
951.00,0.9211
950.00,0.9202
949.00,0.9199
948.00,0.9200
947.00,0.9200
946.00,0.9196
945.00,0.9187
944.00,0.9179
943.00,0.9175
942.00,0.9177
941.00,0.9181
940.00,0.9184
939.00,0.9188
938.00,0.9192
937.00,0.9196
936.00,0.9200
935.00,0.9206
934.00,0.9215
933.00,0.9225
932.00,0.9236
931.00,0.9248
930.00,0.9259
929.00,0.9269
928.00,0.9273
927.00,0.9275
926.00,0.9277
925.00,0.9283
924.00,0.9291
923.00,0.9303
922.00,0.9314
921.00,0.9322
920.00,0.9326
919.00,0.9326
918.00,0.9324
917.00,0.9320
916.00,0.9316
915.00,0.9309
914.00,0.9299
913.00,0.9287
912.00,0.9272
911.00,0.9259
910.00,0.9247
909.00,0.9234
908.00,0.9218
907.00,0.9201
906.00,0.9185
905.00,0.9169
904.00,0.9152
903.00,0.9136
902.00,0.9121
901.00,0.9107
900.00,0.9089
899.00,0.9067
898.00,0.9045
897.00,0.9027
896.00,0.9014
895.00,0.9005
894.00,0.8995
893.00,0.8981
892.00,0.8964
891.00,0.8951
890.00,0.8945
889.00,0.8945
888.00,0.8952
887.00,0.8972
886.00,0.9011
885.00,0.9074
884.00,0.9159
883.00,0.9260
882.00,0.9366
881.00,0.9461
880.00,0.9529
879.00,0.9561
878.00,0.9561
877.00,0.9534
876.00,0.9489
875.00,0.9435
874.00,0.9379
873.00,0.9331
872.00,0.9293
871.00,0.9265
870.00,0.9244
869.00,0.9226
868.00,0.9212
867.00,0.9202
866.00,0.9193
865.00,0.9185
864.00,0.9175
863.00,0.9165
862.00,0.9154
861.00,0.9139
860.00,0.9119
859.00,0.9097
858.00,0.9074
857.00,0.9050
856.00,0.9023
855.00,0.8996
854.00,0.8972
853.00,0.8951
852.00,0.8933
851.00,0.8916
850.00,0.8898
849.00,0.8875
848.00,0.8850
847.00,0.8825
846.00,0.8804
845.00,0.8785
844.00,0.8766
843.00,0.8749
842.00,0.8734
841.00,0.8722
840.00,0.8711
839.00,0.8698
838.00,0.8685
837.00,0.8674
836.00,0.8666
835.00,0.8662
834.00,0.8660
833.00,0.8661
832.00,0.8663
831.00,0.8668
830.00,0.8674
829.00,0.8677
828.00,0.8677
827.00,0.8674
826.00,0.8670
825.00,0.8667
824.00,0.8669
823.00,0.8679
822.00,0.8694
821.00,0.8711
820.00,0.8724
819.00,0.8731
818.00,0.8734
817.00,0.8734
816.00,0.8735
815.00,0.8736
814.00,0.8739
813.00,0.8742
812.00,0.8743
811.00,0.8742
810.00,0.8738
809.00,0.8731
808.00,0.8722
807.00,0.8713
806.00,0.8704
805.00,0.8696
804.00,0.8689
803.00,0.8679
802.00,0.8666
801.00,0.8647
800.00,0.8626
799.00,0.8605
798.00,0.8585
797.00,0.8566
796.00,0.8548
795.00,0.8531
794.00,0.8515
793.00,0.8499
792.00,0.8482
791.00,0.8466
790.00,0.8450
789.00,0.8432
788.00,0.8415
787.00,0.8402
786.00,0.8396
785.00,0.8393
784.00,0.8387
783.00,0.8377
782.00,0.8366
781.00,0.8356
780.00,0.8351
779.00,0.8353
778.00,0.8358
777.00,0.8364
776.00,0.8372
775.00,0.8383
774.00,0.8397
773.00,0.8413
772.00,0.8426
771.00,0.8437
770.00,0.8445
769.00,0.8455
768.00,0.8467
767.00,0.8485
766.00,0.8506
765.00,0.8525
764.00,0.8539
763.00,0.8551
762.00,0.8565
761.00,0.8582
760.00,0.8599
759.00,0.8612
758.00,0.8622
757.00,0.8630
756.00,0.8637
755.00,0.8642
754.00,0.8644
753.00,0.8641
752.00,0.8634
751.00,0.8622
750.00,0.8611
749.00,0.8603
748.00,0.8598
747.00,0.8592
746.00,0.8580
745.00,0.8563
744.00,0.8542
743.00,0.8522
742.00,0.8506
741.00,0.8492
740.00,0.8478
739.00,0.8463
738.00,0.8451
737.00,0.8443
736.00,0.8439
735.00,0.8439
734.00,0.8439
733.00,0.8440
732.00,0.8439
731.00,0.8439
730.00,0.8443
729.00,0.8456
728.00,0.8476
727.00,0.8500
726.00,0.8523
725.00,0.8547
724.00,0.8574
723.00,0.8603
722.00,0.8636
721.00,0.8666
720.00,0.8690
719.00,0.8703
718.00,0.8707
717.00,0.8711
716.00,0.8721
715.00,0.8737
714.00,0.8754
713.00,0.8763
712.00,0.8762
711.00,0.8751
710.00,0.8737
709.00,0.8723
708.00,0.8707
707.00,0.8688
706.00,0.8669
705.00,0.8656
704.00,0.8653
703.00,0.8656
702.00,0.8660
701.00,0.8661
700.00,0.8656
699.00,0.8646
698.00,0.8628
697.00,0.8605
696.00,0.8581
695.00,0.8561
694.00,0.8546
693.00,0.8532
692.00,0.8514
691.00,0.8493
690.00,0.8467
689.00,0.8437
688.00,0.8406
687.00,0.8381
686.00,0.8362
685.00,0.8345
684.00,0.8326
683.00,0.8305
682.00,0.8286
681.00,0.8271
680.00,0.8260
679.00,0.8251
678.00,0.8245
677.00,0.8243
676.00,0.8244
675.00,0.8248
674.00,0.8256
673.00,0.8262
672.00,0.8264
671.00,0.8268
670.00,0.8282
669.00,0.8314
668.00,0.8373
667.00,0.8428
666.00,0.8437
665.00,0.8425
664.00,0.8424
663.00,0.8441
662.00,0.8465
661.00,0.8489
660.00,0.8512
659.00,0.8535
658.00,0.8557
657.00,0.8577
656.00,0.8597
655.00,0.8616
654.00,0.8632
653.00,0.8644
652.00,0.8656
651.00,0.8670
650.00,0.8686
649.00,0.8700
648.00,0.8707
647.00,0.8710
646.00,0.8715
645.00,0.8725
644.00,0.8739
643.00,0.8746
642.00,0.8741
641.00,0.8726
640.00,0.8713
639.00,0.8712
638.00,0.8719
637.00,0.8726
636.00,0.8727
635.00,0.8721
634.00,0.8713
633.00,0.8704
632.00,0.8699
631.00,0.8701
630.00,0.8710
629.00,0.8720
628.00,0.8728
627.00,0.8733
626.00,0.8737
625.00,0.8750
624.00,0.8776
623.00,0.8814
622.00,0.8849
621.00,0.8871
620.00,0.8878
619.00,0.8880
618.00,0.8886
617.00,0.8896
616.00,0.8905
615.00,0.8912
614.00,0.8920
613.00,0.8933
612.00,0.8951
611.00,0.8966
610.00,0.8972
609.00,0.8968
608.00,0.8962
607.00,0.8961
606.00,0.8966
605.00,0.8974
604.00,0.8983
603.00,0.8998
602.00,0.9017
601.00,0.9034
600.00,0.9046
599.00,0.9052
598.00,0.9054
597.00,0.9056
596.00,0.9059
595.00,0.9070
594.00,0.9084
593.00,0.9094
592.00,0.9093
591.00,0.9083
590.00,0.9075
589.00,0.9075
588.00,0.9082
587.00,0.9086
586.00,0.9080
585.00,0.9070
584.00,0.9068
583.00,0.9077
582.00,0.9087
581.00,0.9086
580.00,0.9072
579.00,0.9057
578.00,0.9044
577.00,0.9031
576.00,0.9013
575.00,0.8997
574.00,0.8994
573.00,0.9005
572.00,0.9025
571.00,0.9044
570.00,0.9047
569.00,0.9027
568.00,0.8990
567.00,0.8957
566.00,0.8943
565.00,0.8949
564.00,0.8958
563.00,0.8955
562.00,0.8942
561.00,0.8924
560.00,0.8907
559.00,0.8893
558.00,0.8883
557.00,0.8880
556.00,0.8886
555.00,0.8899
554.00,0.8912
553.00,0.8923
552.00,0.8935
551.00,0.8949
550.00,0.8962
