Created as New Dataset,
cm-1,A
4000.00,0.4218
3999.00,0.4215
3998.00,0.4212
3997.00,0.4209
3996.00,0.4205
3995.00,0.4201
3994.00,0.4197
3993.00,0.4193
3992.00,0.4189
3991.00,0.4184
3990.00,0.4180
3989.00,0.4175
3988.00,0.4169
3987.00,0.4164
3986.00,0.4157
3985.00,0.4151
3984.00,0.4144
3983.00,0.4139
3982.00,0.4133
3981.00,0.4128
3980.00,0.4122
3979.00,0.4116
3978.00,0.4110
3977.00,0.4105
3976.00,0.4099
3975.00,0.4094
3974.00,0.4089
3973.00,0.4084
3972.00,0.4079
3971.00,0.4074
3970.00,0.4069
3969.00,0.4064
3968.00,0.4060
3967.00,0.4057
3966.00,0.4053
3965.00,0.4048
3964.00,0.4043
3963.00,0.4038
3962.00,0.4033
3961.00,0.4028
3960.00,0.4024
3959.00,0.4020
3958.00,0.4017
3957.00,0.4014
3956.00,0.4010
3955.00,0.4007
3954.00,0.4003
3953.00,0.4001
3952.00,0.3998
3951.00,0.3997
3950.00,0.3995
3949.00,0.3992
3948.00,0.3989
3947.00,0.3986
3946.00,0.3983
3945.00,0.3981
3944.00,0.3979
3943.00,0.3977
3942.00,0.3976
3941.00,0.3975
3940.00,0.3973
3939.00,0.3971
3938.00,0.3969
3937.00,0.3967
3936.00,0.3967
3935.00,0.3966
3934.00,0.3966
3933.00,0.3966
3932.00,0.3966
3931.00,0.3966
3930.00,0.3966
3929.00,0.3966
3928.00,0.3966
3927.00,0.3965
3926.00,0.3965
3925.00,0.3965
3924.00,0.3964
3923.00,0.3963
3922.00,0.3962
3921.00,0.3961
3920.00,0.3960
3919.00,0.3959
3918.00,0.3958
3917.00,0.3956
3916.00,0.3954
3915.00,0.3952
3914.00,0.3950
3913.00,0.3949
3912.00,0.3947
3911.00,0.3945
3910.00,0.3943
3909.00,0.3940
3908.00,0.3938
3907.00,0.3937
3906.00,0.3937
3905.00,0.3936
3904.00,0.3935
3903.00,0.3934
3902.00,0.3935
3901.00,0.3936
3900.00,0.3936
3899.00,0.3935
3898.00,0.3931
3897.00,0.3927
3896.00,0.3923
3895.00,0.3920
3894.00,0.3918
3893.00,0.3916
3892.00,0.3914
3891.00,0.3912
3890.00,0.3909
3889.00,0.3907
3888.00,0.3905
3887.00,0.3904
3886.00,0.3903
3885.00,0.3901
3884.00,0.3899
3883.00,0.3898
3882.00,0.3899
3881.00,0.3899
3880.00,0.3897
3879.00,0.3894
3878.00,0.3891
3877.00,0.3889
3876.00,0.3888
3875.00,0.3887
3874.00,0.3886
3873.00,0.3883
3872.00,0.3882
3871.00,0.3882
3870.00,0.3883
3869.00,0.3883
3868.00,0.3882
3867.00,0.3880
3866.00,0.3879
3865.00,0.3877
3864.00,0.3874
3863.00,0.3870
3862.00,0.3866
3861.00,0.3863
3860.00,0.3861
3859.00,0.3860
3858.00,0.3860
3857.00,0.3860
3856.00,0.3860
3855.00,0.3861
3854.00,0.3864
3853.00,0.3865
3852.00,0.3865
3851.00,0.3865
3850.00,0.3865
3849.00,0.3863
3848.00,0.3861
3847.00,0.3857
3846.00,0.3853
3845.00,0.3850
3844.00,0.3847
3843.00,0.3845
3842.00,0.3844
3841.00,0.3844
3840.00,0.3845
3839.00,0.3847
3838.00,0.3848
3837.00,0.3848
3836.00,0.3847
3835.00,0.3846
3834.00,0.3845
3833.00,0.3843
3832.00,0.3840
3831.00,0.3837
3830.00,0.3833
3829.00,0.3830
3828.00,0.3829
3827.00,0.3827
3826.00,0.3826
3825.00,0.3824
3824.00,0.3823
3823.00,0.3823
3822.00,0.3824
3821.00,0.3823
3820.00,0.3822
3819.00,0.3820
3818.00,0.3820
3817.00,0.3819
3816.00,0.3817
3815.00,0.3813
3814.00,0.3809
3813.00,0.3806
3812.00,0.3803
3811.00,0.3801
3810.00,0.3798
3809.00,0.3795
3808.00,0.3792
3807.00,0.3790
3806.00,0.3788
3805.00,0.3787
3804.00,0.3786
3803.00,0.3786
3802.00,0.3785
3801.00,0.3783
3800.00,0.3780
3799.00,0.3778
3798.00,0.3776
3797.00,0.3775
3796.00,0.3772
3795.00,0.3767
3794.00,0.3763
3793.00,0.3759
3792.00,0.3756
3791.00,0.3753
3790.00,0.3750
3789.00,0.3747
3788.00,0.3745
3787.00,0.3743
3786.00,0.3741
3785.00,0.3740
3784.00,0.3738
3783.00,0.3737
3782.00,0.3737
3781.00,0.3736
3780.00,0.3735
3779.00,0.3734
3778.00,0.3731
3777.00,0.3729
3776.00,0.3728
3775.00,0.3727
3774.00,0.3727
3773.00,0.3727
3772.00,0.3727
3771.00,0.3726
3770.00,0.3725
3769.00,0.3724
3768.00,0.3724
3767.00,0.3723
3766.00,0.3723
3765.00,0.3722
3764.00,0.3721
3763.00,0.3719
3762.00,0.3718
3761.00,0.3717
3760.00,0.3716
3759.00,0.3714
3758.00,0.3713
3757.00,0.3712
3756.00,0.3712
3755.00,0.3712
3754.00,0.3711
3753.00,0.3711
3752.00,0.3712
3751.00,0.3713
3750.00,0.3715
3749.00,0.3717
3748.00,0.3719
3747.00,0.3720
3746.00,0.3721
3745.00,0.3721
3744.00,0.3720
3743.00,0.3716
3742.00,0.3713
3741.00,0.3712
3740.00,0.3711
3739.00,0.3710
3738.00,0.3709
3737.00,0.3708
3736.00,0.3709
3735.00,0.3709
3734.00,0.3709
3733.00,0.3709
3732.00,0.3708
3731.00,0.3706
3730.00,0.3705
3729.00,0.3703
3728.00,0.3702
3727.00,0.3701
3726.00,0.3700
3725.00,0.3698
3724.00,0.3697
3723.00,0.3697
3722.00,0.3696
3721.00,0.3696
3720.00,0.3695
3719.00,0.3695
3718.00,0.3694
3717.00,0.3694
3716.00,0.3694
3715.00,0.3695
3714.00,0.3697
3713.00,0.3700
3712.00,0.3704
3711.00,0.3708
3710.00,0.3712
3709.00,0.3717
3708.00,0.3721
3707.00,0.3725
3706.00,0.3729
3705.00,0.3733
3704.00,0.3737
3703.00,0.3742
3702.00,0.3747
3701.00,0.3751
3700.00,0.3756
3699.00,0.3762
3698.00,0.3768
3697.00,0.3774
3696.00,0.3781
3695.00,0.3788
3694.00,0.3796
3693.00,0.3805
3692.00,0.3815
3691.00,0.3826
3690.00,0.3838
3689.00,0.3851
3688.00,0.3864
3687.00,0.3877
3686.00,0.3889
3685.00,0.3899
3684.00,0.3909
3683.00,0.3917
3682.00,0.3925
3681.00,0.3933
3680.00,0.3942
3679.00,0.3952
3678.00,0.3962
3677.00,0.3973
3676.00,0.3987
3675.00,0.3999
3674.00,0.4009
3673.00,0.4019
3672.00,0.4030
3671.00,0.4042
3670.00,0.4052
3669.00,0.4060
3668.00,0.4067
3667.00,0.4076
3666.00,0.4085
3665.00,0.4094
3664.00,0.4104
3663.00,0.4113
3662.00,0.4123
3661.00,0.4133
3660.00,0.4145
3659.00,0.4157
3658.00,0.4170
3657.00,0.4185
3656.00,0.4200
3655.00,0.4214
3654.00,0.4228
3653.00,0.4242
3652.00,0.4257
3651.00,0.4273
3650.00,0.4289
3649.00,0.4304
3648.00,0.4319
3647.00,0.4334
3646.00,0.4347
3645.00,0.4360
3644.00,0.4372
3643.00,0.4385
3642.00,0.4398
3641.00,0.4412
3640.00,0.4428
3639.00,0.4445
3638.00,0.4464
3637.00,0.4484
3636.00,0.4504
3635.00,0.4526
3634.00,0.4547
3633.00,0.4568
3632.00,0.4590
3631.00,0.4617
3630.00,0.4650
3629.00,0.4688
3628.00,0.4726
3627.00,0.4761
3626.00,0.4795
3625.00,0.4827
3624.00,0.4857
3623.00,0.4884
3622.00,0.4909
3621.00,0.4933
3620.00,0.4957
3619.00,0.4981
3618.00,0.5004
3617.00,0.5029
3616.00,0.5055
3615.00,0.5084
3614.00,0.5113
3613.00,0.5141
3612.00,0.5169
3611.00,0.5196
3610.00,0.5223
3609.00,0.5249
3608.00,0.5273
3607.00,0.5296
3606.00,0.5315
3605.00,0.5332
3604.00,0.5346
3603.00,0.5356
3602.00,0.5362
3601.00,0.5365
3600.00,0.5366
3599.00,0.5365
3598.00,0.5362
3597.00,0.5359
3596.00,0.5355
3595.00,0.5352
3594.00,0.5348
3593.00,0.5346
3592.00,0.5345
3591.00,0.5345
3590.00,0.5346
3589.00,0.5347
3588.00,0.5348
3587.00,0.5349
3586.00,0.5351
3585.00,0.5354
3584.00,0.5357
3583.00,0.5360
3582.00,0.5363
3581.00,0.5366
3580.00,0.5369
3579.00,0.5373
3578.00,0.5378
3577.00,0.5384
3576.00,0.5390
3575.00,0.5397
3574.00,0.5404
3573.00,0.5411
3572.00,0.5419
3571.00,0.5427
3570.00,0.5435
3569.00,0.5443
3568.00,0.5452
3567.00,0.5460
3566.00,0.5468
3565.00,0.5476
3564.00,0.5484
3563.00,0.5491
3562.00,0.5498
3561.00,0.5504
3560.00,0.5511
3559.00,0.5519
3558.00,0.5527
3557.00,0.5535
3556.00,0.5544
3555.00,0.5552
3554.00,0.5561
3553.00,0.5570
3552.00,0.5579
3551.00,0.5588
3550.00,0.5598
3549.00,0.5608
3548.00,0.5618
3547.00,0.5628
3546.00,0.5638
3545.00,0.5648
3544.00,0.5659
3543.00,0.5670
3542.00,0.5681
3541.00,0.5692
3540.00,0.5704
3539.00,0.5716
3538.00,0.5728
3537.00,0.5741
3536.00,0.5753
3535.00,0.5766
3534.00,0.5778
3533.00,0.5791
3532.00,0.5804
3531.00,0.5818
3530.00,0.5832
3529.00,0.5846
3528.00,0.5860
3527.00,0.5874
3526.00,0.5889
3525.00,0.5904
3524.00,0.5919
3523.00,0.5934
3522.00,0.5949
3521.00,0.5964
3520.00,0.5978
3519.00,0.5992
3518.00,0.6007
3517.00,0.6022
3516.00,0.6038
3515.00,0.6054
3514.00,0.6070
3513.00,0.6086
3512.00,0.6102
3511.00,0.6117
3510.00,0.6132
3509.00,0.6148
3508.00,0.6164
3507.00,0.6181
3506.00,0.6197
3505.00,0.6214
3504.00,0.6231
3503.00,0.6246
3502.00,0.6262
3501.00,0.6277
3500.00,0.6292
3499.00,0.6307
3498.00,0.6322
3497.00,0.6337
3496.00,0.6352
3495.00,0.6368
3494.00,0.6385
3493.00,0.6401
3492.00,0.6417
3491.00,0.6431
3490.00,0.6444
3489.00,0.6458
3488.00,0.6473
3487.00,0.6488
3486.00,0.6502
3485.00,0.6516
3484.00,0.6528
3483.00,0.6541
3482.00,0.6554
3481.00,0.6566
3480.00,0.6579
3479.00,0.6591
3478.00,0.6603
3477.00,0.6615
3476.00,0.6628
3475.00,0.6641
3474.00,0.6654
3473.00,0.6667
3472.00,0.6680
3471.00,0.6692
3470.00,0.6705
3469.00,0.6719
3468.00,0.6732
3467.00,0.6746
3466.00,0.6759
3465.00,0.6771
3464.00,0.6784
3463.00,0.6797
3462.00,0.6809
3461.00,0.6821
3460.00,0.6832
3459.00,0.6844
3458.00,0.6858
3457.00,0.6874
3456.00,0.6891
3455.00,0.6907
3454.00,0.6922
3453.00,0.6939
3452.00,0.6956
3451.00,0.6973
3450.00,0.6991
3449.00,0.7010
3448.00,0.7030
3447.00,0.7051
3446.00,0.7074
3445.00,0.7098
3444.00,0.7122
3443.00,0.7146
3442.00,0.7171
3441.00,0.7196
3440.00,0.7223
3439.00,0.7249
3438.00,0.7275
3437.00,0.7298
3436.00,0.7319
3435.00,0.7338
3434.00,0.7356
3433.00,0.7375
3432.00,0.7396
3431.00,0.7417
3430.00,0.7439
3429.00,0.7461
3428.00,0.7482
3427.00,0.7503
3426.00,0.7525
3425.00,0.7548
3424.00,0.7573
3423.00,0.7599
3422.00,0.7624
3421.00,0.7650
3420.00,0.7675
3419.00,0.7702
3418.00,0.7729
3417.00,0.7757
3416.00,0.7784
3415.00,0.7811
3414.00,0.7839
3413.00,0.7868
3412.00,0.7897
3411.00,0.7925
3410.00,0.7952
3409.00,0.7979
3408.00,0.8007
3407.00,0.8034
3406.00,0.8061
3405.00,0.8087
3404.00,0.8113
3403.00,0.8138
3402.00,0.8161
3401.00,0.8184
3400.00,0.8206
3399.00,0.8227
3398.00,0.8249
3397.00,0.8272
3396.00,0.8295
3395.00,0.8319
3394.00,0.8343
3393.00,0.8366
3392.00,0.8389
3391.00,0.8412
3390.00,0.8435
3389.00,0.8460
3388.00,0.8486
3387.00,0.8513
3386.00,0.8543
3385.00,0.8575
3384.00,0.8608
3383.00,0.8642
3382.00,0.8677
3381.00,0.8715
3380.00,0.8755
3379.00,0.8798
3378.00,0.8843
3377.00,0.8890
3376.00,0.8940
3375.00,0.8992
3374.00,0.9047
3373.00,0.9105
3372.00,0.9166
3371.00,0.9231
3370.00,0.9298
3369.00,0.9368
3368.00,0.9440
3367.00,0.9513
3366.00,0.9588
3365.00,0.9664
3364.00,0.9741
3363.00,0.9820
3362.00,0.9898
3361.00,0.9976
3360.00,1.0053
3359.00,1.0126
3358.00,1.0196
3357.00,1.0261
3356.00,1.0319
3355.00,1.0369
3354.00,1.0412
3353.00,1.0449
3352.00,1.0478
3351.00,1.0497
3350.00,1.0506
3349.00,1.0507
3348.00,1.0499
3347.00,1.0485
3346.00,1.0467
3345.00,1.0445
3344.00,1.0419
3343.00,1.0388
3342.00,1.0351
3341.00,1.0312
3340.00,1.0271
3339.00,1.0230
3338.00,1.0188
3337.00,1.0145
3336.00,1.0098
3335.00,1.0050
3334.00,1.0002
3333.00,0.9955
3332.00,0.9910
3331.00,0.9866
3330.00,0.9823
3329.00,0.9780
3328.00,0.9737
3327.00,0.9693
3326.00,0.9650
3325.00,0.9608
3324.00,0.9568
3323.00,0.9530
3322.00,0.9493
3321.00,0.9456
3320.00,0.9419
3319.00,0.9382
3318.00,0.9346
3317.00,0.9312
3316.00,0.9279
3315.00,0.9246
3314.00,0.9214
3313.00,0.9184
3312.00,0.9156
3311.00,0.9130
3310.00,0.9104
3309.00,0.9078
3308.00,0.9050
3307.00,0.9024
3306.00,0.9000
3305.00,0.8977
3304.00,0.8956
3303.00,0.8933
3302.00,0.8911
3301.00,0.8889
3300.00,0.8867
3299.00,0.8848
3298.00,0.8830
3297.00,0.8813
3296.00,0.8796
3295.00,0.8779
3294.00,0.8761
3293.00,0.8744
3292.00,0.8727
3291.00,0.8712
3290.00,0.8697
3289.00,0.8684
3288.00,0.8671
3287.00,0.8658
3286.00,0.8646
3285.00,0.8633
3284.00,0.8622
3283.00,0.8612
3282.00,0.8603
3281.00,0.8594
3280.00,0.8586
3279.00,0.8578
3278.00,0.8570
3277.00,0.8561
3276.00,0.8552
3275.00,0.8543
3274.00,0.8534
3273.00,0.8527
3272.00,0.8521
3271.00,0.8515
3270.00,0.8509
3269.00,0.8501
3268.00,0.8493
3267.00,0.8484
3266.00,0.8477
3265.00,0.8469
3264.00,0.8463
3263.00,0.8456
3262.00,0.8449
3261.00,0.8442
3260.00,0.8434
3259.00,0.8425
3258.00,0.8415
3257.00,0.8405
3256.00,0.8396
3255.00,0.8387
3254.00,0.8378
3253.00,0.8367
3252.00,0.8355
3251.00,0.8343
3250.00,0.8331
3249.00,0.8319
3248.00,0.8307
3247.00,0.8295
3246.00,0.8282
3245.00,0.8268
3244.00,0.8253
3243.00,0.8238
3242.00,0.8224
3241.00,0.8210
3240.00,0.8196
3239.00,0.8181
3238.00,0.8165
3237.00,0.8150
3236.00,0.8133
3235.00,0.8116
3234.00,0.8098
3233.00,0.8081
3232.00,0.8064
3231.00,0.8047
3230.00,0.8029
3229.00,0.8010
3228.00,0.7990
3227.00,0.7971
3226.00,0.7952
3225.00,0.7934
3224.00,0.7916
3223.00,0.7898
3222.00,0.7880
3221.00,0.7863
3220.00,0.7847
3219.00,0.7831
3218.00,0.7814
3217.00,0.7796
3216.00,0.7778
3215.00,0.7760
3214.00,0.7743
3213.00,0.7727
3212.00,0.7711
3211.00,0.7694
3210.00,0.7677
3209.00,0.7661
3208.00,0.7645
3207.00,0.7630
3206.00,0.7614
3205.00,0.7598
3204.00,0.7581
3203.00,0.7565
3202.00,0.7550
3201.00,0.7534
3200.00,0.7519
3199.00,0.7504
3198.00,0.7488
3197.00,0.7472
3196.00,0.7455
3195.00,0.7437
3194.00,0.7420
3193.00,0.7403
3192.00,0.7385
3191.00,0.7367
3190.00,0.7349
3189.00,0.7330
3188.00,0.7310
3187.00,0.7289
3186.00,0.7269
3185.00,0.7249
3184.00,0.7229
3183.00,0.7209
3182.00,0.7189
3181.00,0.7170
3180.00,0.7151
3179.00,0.7131
3178.00,0.7110
3177.00,0.7088
3176.00,0.7066
3175.00,0.7044
3174.00,0.7021
3173.00,0.6999
3172.00,0.6977
3171.00,0.6954
3170.00,0.6932
3169.00,0.6911
3168.00,0.6889
3167.00,0.6868
3166.00,0.6846
3165.00,0.6825
3164.00,0.6805
3163.00,0.6785
3162.00,0.6764
3161.00,0.6743
3160.00,0.6721
3159.00,0.6698
3158.00,0.6676
3157.00,0.6656
3156.00,0.6636
3155.00,0.6617
3154.00,0.6598
3153.00,0.6578
3152.00,0.6559
3151.00,0.6540
3150.00,0.6522
3149.00,0.6504
3148.00,0.6486
3147.00,0.6469
3146.00,0.6452
3145.00,0.6434
3144.00,0.6416
3143.00,0.6398
3142.00,0.6380
3141.00,0.6363
3140.00,0.6346
3139.00,0.6330
3138.00,0.6315
3137.00,0.6301
3136.00,0.6287
3135.00,0.6274
3134.00,0.6261
3133.00,0.6248
3132.00,0.6235
3131.00,0.6220
3130.00,0.6206
3129.00,0.6194
3128.00,0.6183
3127.00,0.6172
3126.00,0.6163
3125.00,0.6153
3124.00,0.6144
3123.00,0.6135
3122.00,0.6127
3121.00,0.6120
3120.00,0.6115
3119.00,0.6110
3118.00,0.6106
3117.00,0.6103
3116.00,0.6100
3115.00,0.6097
3114.00,0.6095
3113.00,0.6096
3112.00,0.6097
3111.00,0.6100
3110.00,0.6104
3109.00,0.6108
3108.00,0.6113
3107.00,0.6118
3106.00,0.6125
3105.00,0.6133
3104.00,0.6142
3103.00,0.6152
3102.00,0.6162
3101.00,0.6171
3100.00,0.6179
3099.00,0.6188
3098.00,0.6196
3097.00,0.6205
3096.00,0.6213
3095.00,0.6222
3094.00,0.6232
3093.00,0.6243
3092.00,0.6256
3091.00,0.6271
3090.00,0.6289
3089.00,0.6309
3088.00,0.6332
3087.00,0.6355
3086.00,0.6381
3085.00,0.6407
3084.00,0.6433
3083.00,0.6460
3082.00,0.6487
3081.00,0.6516
3080.00,0.6546
3079.00,0.6578
3078.00,0.6612
3077.00,0.6650
3076.00,0.6690
3075.00,0.6733
3074.00,0.6777
3073.00,0.6823
3072.00,0.6870
3071.00,0.6919
3070.00,0.6970
3069.00,0.7023
3068.00,0.7078
3067.00,0.7135
3066.00,0.7191
3065.00,0.7246
3064.00,0.7297
3063.00,0.7347
3062.00,0.7395
3061.00,0.7440
3060.00,0.7480
3059.00,0.7516
3058.00,0.7550
3057.00,0.7581
3056.00,0.7611
3055.00,0.7641
3054.00,0.7671
3053.00,0.7704
3052.00,0.7739
3051.00,0.7777
3050.00,0.7817
3049.00,0.7859
3048.00,0.7903
3047.00,0.7949
3046.00,0.7995
3045.00,0.8042
3044.00,0.8090
3043.00,0.8138
3042.00,0.8186
3041.00,0.8236
3040.00,0.8289
3039.00,0.8344
3038.00,0.8404
3037.00,0.8468
3036.00,0.8538
3035.00,0.8615
3034.00,0.8699
3033.00,0.8788
3032.00,0.8883
3031.00,0.8981
3030.00,0.9083
3029.00,0.9186
3028.00,0.9287
3027.00,0.9384
3026.00,0.9476
3025.00,0.9565
3024.00,0.9652
3023.00,0.9738
3022.00,0.9825
3021.00,0.9913
3020.00,1.0005
3019.00,1.0103
3018.00,1.0208
3017.00,1.0319
3016.00,1.0436
3015.00,1.0559
3014.00,1.0690
3013.00,1.0830
3012.00,1.0981
3011.00,1.1143
3010.00,1.1313
3009.00,1.1494
3008.00,1.1686
3007.00,1.1890
3006.00,1.2108
3005.00,1.2341
3004.00,1.2587
3003.00,1.2848
3002.00,1.3123
3001.00,1.3413
3000.00,1.3717
2999.00,1.4038
2998.00,1.4382
2997.00,1.4752
2996.00,1.5148
2995.00,1.5574
2994.00,1.6036
2993.00,1.6535
2992.00,1.7072
2991.00,1.7653
2990.00,1.8284
2989.00,1.8973
2988.00,1.9729
2987.00,2.0568
2986.00,2.1509
2985.00,2.2553
2984.00,2.3689
2983.00,2.4912
2982.00,2.6236
2981.00,2.7673
2980.00,2.9221
2979.00,3.0908
2978.00,3.2780
2977.00,3.4698
2976.00,3.6285
2975.00,3.7558
2974.00,3.8957
2973.00,3.9875
2972.00,3.9734
2971.00,3.9577
2970.00,4.0603
2969.00,4.3217
2968.00,4.4355
2967.00,4.2531
2966.00,4.1306
2965.00,4.1721
2964.00,4.2420
2963.00,4.0702
2962.00,3.9030
2961.00,3.8694
2960.00,3.9745
2959.00,4.1398
2958.00,4.2375
2957.00,4.2206
2956.00,4.1346
2955.00,4.0430
2954.00,4.0082
2953.00,4.0119
2952.00,4.0911
2951.00,4.2461
2950.00,4.0783
2949.00,3.8226
2948.00,3.6675
2947.00,3.6438
2946.00,3.6829
2945.00,3.7491
2944.00,3.9138
2943.00,4.1756
2942.00,4.2793
2941.00,4.1484
2940.00,4.0458
2939.00,4.0924
2938.00,4.2645
2937.00,4.2123
2936.00,3.9742
2935.00,3.7949
2934.00,3.7461
2933.00,3.7944
2932.00,3.9096
2931.00,4.0443
2930.00,4.0733
2929.00,4.0125
2928.00,4.0758
2927.00,4.2566
2926.00,4.0755
2925.00,3.8121
2924.00,3.6782
2923.00,3.7214
2922.00,3.9606
2921.00,4.4213
2920.00,4.6158
2919.00,4.4622
2918.00,4.3147
2917.00,4.2756
2916.00,4.0776
2915.00,3.9299
2914.00,3.8807
2913.00,3.8371
2912.00,3.7997
2911.00,3.7587
2910.00,3.7396
2909.00,3.7676
2908.00,3.8313
2907.00,3.8836
2906.00,3.8442
2905.00,3.7212
2904.00,3.6387
2903.00,3.6644
2902.00,3.8164
2901.00,4.0694
2900.00,4.2464
2899.00,4.1595
2898.00,4.0413
2897.00,4.0419
2896.00,4.1432
2895.00,4.2397
2894.00,4.2569
2893.00,4.2014
2892.00,4.2442
2891.00,4.2872
2890.00,4.0956
2889.00,3.8951
2888.00,3.8013
2887.00,3.8494
2886.00,3.9614
2885.00,4.0283
2884.00,4.0479
2883.00,4.0792
2882.00,4.1442
2881.00,4.1707
2880.00,4.1251
2879.00,4.1172
2878.00,4.1488
2877.00,4.2451
2876.00,4.2770
2875.00,4.1048
2874.00,3.9695
2873.00,4.0451
2872.00,4.4637
2871.00,4.5162
2870.00,4.1599
2869.00,3.9181
2868.00,3.8414
2867.00,3.8260
2866.00,3.8422
2865.00,3.9607
2864.00,4.0944
2863.00,4.0370
2862.00,3.8968
2861.00,3.8252
2860.00,3.8685
2859.00,3.9562
2858.00,3.9669
2857.00,3.9136
2856.00,3.8835
2855.00,4.0121
2854.00,4.2461
2853.00,4.1042
2852.00,3.8529
2851.00,3.7177
2850.00,3.7300
2849.00,3.8493
2848.00,4.0354
2847.00,4.1350
2846.00,4.0300
2845.00,3.9317
2844.00,3.8893
2843.00,3.8589
2842.00,3.8059
2841.00,3.7689
2840.00,3.7966
2839.00,3.8999
2838.00,3.9367
2837.00,3.7436
2836.00,3.4878
2835.00,3.2669
2834.00,3.0725
2833.00,2.8932
2832.00,2.7337
2831.00,2.5942
2830.00,2.4679
2829.00,2.3505
2828.00,2.2431
2827.00,2.1479
2826.00,2.0641
2825.00,1.9884
2824.00,1.9184
2823.00,1.8533
2822.00,1.7927
2821.00,1.7360
2820.00,1.6831
2819.00,1.6340
2818.00,1.5883
2817.00,1.5455
2816.00,1.5051
2815.00,1.4669
2814.00,1.4309
2813.00,1.3967
2812.00,1.3642
2811.00,1.3333
2810.00,1.3038
2809.00,1.2756
2808.00,1.2484
2807.00,1.2225
2806.00,1.1976
2805.00,1.1737
2804.00,1.1506
2803.00,1.1283
2802.00,1.1070
2801.00,1.0866
2800.00,1.0668
2799.00,1.0477
2798.00,1.0292
2797.00,1.0114
2796.00,0.9944
2795.00,0.9781
2794.00,0.9624
2793.00,0.9472
2792.00,0.9326
2791.00,0.9186
2790.00,0.9051
2789.00,0.8921
2788.00,0.8794
2787.00,0.8669
2786.00,0.8546
2785.00,0.8424
2784.00,0.8303
2783.00,0.8184
2782.00,0.8069
2781.00,0.7958
2780.00,0.7851
2779.00,0.7748
2778.00,0.7649
2777.00,0.7554
2776.00,0.7464
2775.00,0.7381
2774.00,0.7304
2773.00,0.7233
2772.00,0.7167
2771.00,0.7107
2770.00,0.7054
2769.00,0.7006
2768.00,0.6963
2767.00,0.6925
2766.00,0.6890
2765.00,0.6859
2764.00,0.6831
2763.00,0.6808
2762.00,0.6788
2761.00,0.6771
2760.00,0.6756
2759.00,0.6742
2758.00,0.6728
2757.00,0.6716
2756.00,0.6705
2755.00,0.6695
2754.00,0.6688
2753.00,0.6682
2752.00,0.6678
2751.00,0.6676
2750.00,0.6677
2749.00,0.6680
2748.00,0.6686
2747.00,0.6694
2746.00,0.6706
2745.00,0.6721
2744.00,0.6740
2743.00,0.6763
2742.00,0.6788
2741.00,0.6818
2740.00,0.6853
2739.00,0.6892
2738.00,0.6936
2737.00,0.6986
2736.00,0.7043
2735.00,0.7103
2734.00,0.7165
2733.00,0.7224
2732.00,0.7273
2731.00,0.7307
2730.00,0.7321
2729.00,0.7314
2728.00,0.7288
2727.00,0.7245
2726.00,0.7192
2725.00,0.7135
2724.00,0.7077
2723.00,0.7022
2722.00,0.6970
2721.00,0.6922
2720.00,0.6877
2719.00,0.6835
2718.00,0.6794
2717.00,0.6754
2716.00,0.6711
2715.00,0.6667
2714.00,0.6621
2713.00,0.6575
2712.00,0.6531
2711.00,0.6489
2710.00,0.6451
2709.00,0.6417
2708.00,0.6388
2707.00,0.6362
2706.00,0.6341
2705.00,0.6325
2704.00,0.6313
2703.00,0.6306
2702.00,0.6303
2701.00,0.6304
2700.00,0.6308
2699.00,0.6317
2698.00,0.6330
2697.00,0.6347
2696.00,0.6367
2695.00,0.6389
2694.00,0.6413
2693.00,0.6440
2692.00,0.6468
2691.00,0.6497
2690.00,0.6525
2689.00,0.6550
2688.00,0.6573
2687.00,0.6594
2686.00,0.6613
2685.00,0.6628
2684.00,0.6640
2683.00,0.6649
2682.00,0.6656
2681.00,0.6660
2680.00,0.6662
2679.00,0.6662
2678.00,0.6662
2677.00,0.6661
2676.00,0.6659
2675.00,0.6656
2674.00,0.6652
2673.00,0.6646
2672.00,0.6637
2671.00,0.6626
2670.00,0.6610
2669.00,0.6590
2668.00,0.6566
2667.00,0.6538
2666.00,0.6507
2665.00,0.6473
2664.00,0.6436
2663.00,0.6399
2662.00,0.6363
2661.00,0.6328
2660.00,0.6294
2659.00,0.6261
2658.00,0.6230
2657.00,0.6202
2656.00,0.6177
2655.00,0.6152
2654.00,0.6129
2653.00,0.6105
2652.00,0.6082
2651.00,0.6060
2650.00,0.6037
2649.00,0.6016
2648.00,0.5995
2647.00,0.5974
2646.00,0.5955
2645.00,0.5936
2644.00,0.5917
2643.00,0.5899
2642.00,0.5881
2641.00,0.5865
2640.00,0.5850
2639.00,0.5836
2638.00,0.5822
2637.00,0.5809
2636.00,0.5796
2635.00,0.5785
2634.00,0.5774
2633.00,0.5764
2632.00,0.5754
2631.00,0.5743
2630.00,0.5732
2629.00,0.5721
2628.00,0.5711
2627.00,0.5702
2626.00,0.5693
2625.00,0.5684
2624.00,0.5676
2623.00,0.5668
2622.00,0.5660
2621.00,0.5652
2620.00,0.5644
2619.00,0.5636
2618.00,0.5628
2617.00,0.5620
2616.00,0.5611
2615.00,0.5602
2614.00,0.5593
2613.00,0.5585
2612.00,0.5578
2611.00,0.5571
2610.00,0.5564
2609.00,0.5556
2608.00,0.5549
2607.00,0.5542
2606.00,0.5534
2605.00,0.5527
2604.00,0.5518
2603.00,0.5509
2602.00,0.5499
2601.00,0.5487
2600.00,0.5475
2599.00,0.5461
2598.00,0.5445
2597.00,0.5429
2596.00,0.5411
2595.00,0.5393
2594.00,0.5374
2593.00,0.5355
2592.00,0.5335
2591.00,0.5315
2590.00,0.5295
2589.00,0.5275
2588.00,0.5255
2587.00,0.5235
2586.00,0.5214
2585.00,0.5193
2584.00,0.5171
2583.00,0.5149
2582.00,0.5127
2581.00,0.5104
2580.00,0.5081
2579.00,0.5059
2578.00,0.5036
2577.00,0.5015
2576.00,0.4994
2575.00,0.4973
2574.00,0.4954
2573.00,0.4935
2572.00,0.4917
2571.00,0.4900
2570.00,0.4885
2569.00,0.4870
2568.00,0.4855
2567.00,0.4839
2566.00,0.4824
2565.00,0.4808
2564.00,0.4793
2563.00,0.4777
2562.00,0.4762
2561.00,0.4747
2560.00,0.4732
2559.00,0.4719
2558.00,0.4706
2557.00,0.4694
2556.00,0.4683
2555.00,0.4672
2554.00,0.4661
2553.00,0.4652
2552.00,0.4643
2551.00,0.4635
2550.00,0.4629
2549.00,0.4625
2548.00,0.4621
2547.00,0.4618
2546.00,0.4615
2545.00,0.4613
2544.00,0.4612
2543.00,0.4612
2542.00,0.4613
2541.00,0.4615
2540.00,0.4619
2539.00,0.4623
2538.00,0.4630
2537.00,0.4638
2536.00,0.4649
2535.00,0.4662
2534.00,0.4677
2533.00,0.4694
2532.00,0.4712
2531.00,0.4730
2530.00,0.4748
2529.00,0.4765
2528.00,0.4781
2527.00,0.4796
2526.00,0.4809
2525.00,0.4820
2524.00,0.4830
2523.00,0.4839
2522.00,0.4846
2521.00,0.4852
2520.00,0.4857
2519.00,0.4860
2518.00,0.4861
2517.00,0.4861
2516.00,0.4859
2515.00,0.4856
2514.00,0.4851
2513.00,0.4845
2512.00,0.4837
2511.00,0.4826
2510.00,0.4812
2509.00,0.4795
2508.00,0.4774
2507.00,0.4749
2506.00,0.4721
2505.00,0.4690
2504.00,0.4656
2503.00,0.4620
2502.00,0.4582
2501.00,0.4543
2500.00,0.4503
2499.00,0.4462
2498.00,0.4421
2497.00,0.4378
2496.00,0.4336
2495.00,0.4293
2494.00,0.4251
2493.00,0.4210
2492.00,0.4169
2491.00,0.4130
2490.00,0.4093
2489.00,0.4057
2488.00,0.4023
2487.00,0.3992
2486.00,0.3963
2485.00,0.3935
2484.00,0.3909
2483.00,0.3884
2482.00,0.3861
2481.00,0.3840
2480.00,0.3820
2479.00,0.3801
2478.00,0.3782
2477.00,0.3765
2476.00,0.3749
2475.00,0.3734
2474.00,0.3720
2473.00,0.3706
2472.00,0.3694
2471.00,0.3682
2470.00,0.3671
2469.00,0.3662
2468.00,0.3653
2467.00,0.3644
2466.00,0.3637
2465.00,0.3630
2464.00,0.3623
2463.00,0.3617
2462.00,0.3611
2461.00,0.3605
2460.00,0.3600
2459.00,0.3596
2458.00,0.3591
2457.00,0.3587
2456.00,0.3584
2455.00,0.3581
2454.00,0.3578
2453.00,0.3575
2452.00,0.3572
2451.00,0.3569
2450.00,0.3567
2449.00,0.3565
2448.00,0.3563
2447.00,0.3561
2446.00,0.3560
2445.00,0.3560
2444.00,0.3560
2443.00,0.3561
2442.00,0.3561
2441.00,0.3561
2440.00,0.3562
2439.00,0.3562
2438.00,0.3562
2437.00,0.3563
2436.00,0.3564
2435.00,0.3564
2434.00,0.3564
2433.00,0.3564
2432.00,0.3565
2431.00,0.3567
2430.00,0.3568
2429.00,0.3569
2428.00,0.3570
2427.00,0.3570
2426.00,0.3571
2425.00,0.3572
2424.00,0.3574
2423.00,0.3575
2422.00,0.3577
2421.00,0.3578
2420.00,0.3580
2419.00,0.3581
2418.00,0.3582
2417.00,0.3583
2416.00,0.3584
2415.00,0.3585
2414.00,0.3586
2413.00,0.3586
2412.00,0.3587
2411.00,0.3588
2410.00,0.3588
2409.00,0.3589
2408.00,0.3589
2407.00,0.3589
2406.00,0.3590
2405.00,0.3591
2404.00,0.3592
2403.00,0.3592
2402.00,0.3592
2401.00,0.3592
2400.00,0.3592
2399.00,0.3592
2398.00,0.3591
2397.00,0.3591
2396.00,0.3590
2395.00,0.3589
2394.00,0.3589
2393.00,0.3589
2392.00,0.3589
2391.00,0.3589
2390.00,0.3590
2389.00,0.3591
2388.00,0.3593
2387.00,0.3594
2386.00,0.3596
2385.00,0.3598
2384.00,0.3601
2383.00,0.3604
2382.00,0.3609
2381.00,0.3614
2380.00,0.3619
2379.00,0.3624
2378.00,0.3629
2377.00,0.3633
2376.00,0.3636
2375.00,0.3638
2374.00,0.3638
2373.00,0.3638
2372.00,0.3637
2371.00,0.3635
2370.00,0.3634
2369.00,0.3633
2368.00,0.3634
2367.00,0.3635
2366.00,0.3637
2365.00,0.3640
2364.00,0.3643
2363.00,0.3646
2362.00,0.3649
2361.00,0.3652
2360.00,0.3654
2359.00,0.3656
2358.00,0.3657
2357.00,0.3659
2356.00,0.3659
2355.00,0.3659
2354.00,0.3659
2353.00,0.3659
2352.00,0.3659
2351.00,0.3660
2350.00,0.3660
2349.00,0.3659
2348.00,0.3657
2347.00,0.3653
2346.00,0.3651
2345.00,0.3651
2344.00,0.3654
2343.00,0.3656
2342.00,0.3656
2341.00,0.3655
2340.00,0.3654
2339.00,0.3654
2338.00,0.3653
2337.00,0.3652
2336.00,0.3650
2335.00,0.3648
2334.00,0.3645
2333.00,0.3643
2332.00,0.3641
2331.00,0.3638
2330.00,0.3636
2329.00,0.3632
2328.00,0.3629
2327.00,0.3625
2326.00,0.3621
2325.00,0.3617
2324.00,0.3614
2323.00,0.3611
2322.00,0.3608
2321.00,0.3606
2320.00,0.3603
2319.00,0.3598
2318.00,0.3592
2317.00,0.3586
2316.00,0.3580
2315.00,0.3575
2314.00,0.3572
2313.00,0.3569
2312.00,0.3565
2311.00,0.3561
2310.00,0.3555
2309.00,0.3548
2308.00,0.3540
2307.00,0.3531
2306.00,0.3522
2305.00,0.3514
2304.00,0.3507
2303.00,0.3499
2302.00,0.3493
2301.00,0.3487
2300.00,0.3481
2299.00,0.3476
2298.00,0.3470
2297.00,0.3465
2296.00,0.3459
2295.00,0.3454
2294.00,0.3448
2293.00,0.3442
2292.00,0.3435
2291.00,0.3429
2290.00,0.3422
2289.00,0.3415
2288.00,0.3409
2287.00,0.3403
2286.00,0.3397
2285.00,0.3391
2284.00,0.3386
2283.00,0.3380
2282.00,0.3374
2281.00,0.3369
2280.00,0.3364
2279.00,0.3359
2278.00,0.3354
2277.00,0.3350
2276.00,0.3347
2275.00,0.3343
2274.00,0.3340
2273.00,0.3337
2272.00,0.3334
2271.00,0.3332
2270.00,0.3329
2269.00,0.3328
2268.00,0.3326
2267.00,0.3325
2266.00,0.3323
2265.00,0.3322
2264.00,0.3321
2263.00,0.3319
2262.00,0.3316
2261.00,0.3313
2260.00,0.3309
2259.00,0.3305
2258.00,0.3301
2257.00,0.3296
2256.00,0.3292
2255.00,0.3287
2254.00,0.3283
2253.00,0.3278
2252.00,0.3274
2251.00,0.3270
2250.00,0.3266
2249.00,0.3262
2248.00,0.3258
2247.00,0.3255
2246.00,0.3252
2245.00,0.3250
2244.00,0.3247
2243.00,0.3244
2242.00,0.3240
2241.00,0.3238
2240.00,0.3235
2239.00,0.3232
2238.00,0.3229
2237.00,0.3226
2236.00,0.3224
2235.00,0.3222
2234.00,0.3219
2233.00,0.3216
2232.00,0.3214
2231.00,0.3211
2230.00,0.3208
2229.00,0.3206
2228.00,0.3204
2227.00,0.3201
2226.00,0.3199
2225.00,0.3197
2224.00,0.3195
2223.00,0.3194
2222.00,0.3192
2221.00,0.3190
2220.00,0.3189
2219.00,0.3188
2218.00,0.3187
2217.00,0.3186
2216.00,0.3185
2215.00,0.3184
2214.00,0.3182
2213.00,0.3181
2212.00,0.3181
2211.00,0.3180
2210.00,0.3179
2209.00,0.3178
2208.00,0.3178
2207.00,0.3178
2206.00,0.3177
2205.00,0.3177
2204.00,0.3177
2203.00,0.3176
2202.00,0.3176
2201.00,0.3177
2200.00,0.3177
2199.00,0.3178
2198.00,0.3178
2197.00,0.3180
2196.00,0.3181
2195.00,0.3182
2194.00,0.3183
2193.00,0.3184
2192.00,0.3184
2191.00,0.3185
2190.00,0.3187
2189.00,0.3188
2188.00,0.3189
2187.00,0.3189
2186.00,0.3189
2185.00,0.3189
2184.00,0.3189
2183.00,0.3189
2182.00,0.3189
2181.00,0.3189
2180.00,0.3188
2179.00,0.3187
2178.00,0.3186
2177.00,0.3186
2176.00,0.3185
2175.00,0.3185
2174.00,0.3185
2173.00,0.3184
2172.00,0.3184
2171.00,0.3184
2170.00,0.3184
2169.00,0.3185
2168.00,0.3186
2167.00,0.3186
2166.00,0.3186
2165.00,0.3186
2164.00,0.3186
2163.00,0.3185
2162.00,0.3185
2161.00,0.3185
2160.00,0.3186
2159.00,0.3186
2158.00,0.3186
2157.00,0.3187
2156.00,0.3187
2155.00,0.3187
2154.00,0.3188
2153.00,0.3188
2152.00,0.3189
2151.00,0.3188
2150.00,0.3187
2149.00,0.3184
2148.00,0.3180
2147.00,0.3175
2146.00,0.3169
2145.00,0.3163
2144.00,0.3155
2143.00,0.3147
2142.00,0.3138
2141.00,0.3130
2140.00,0.3123
2139.00,0.3116
2138.00,0.3110
2137.00,0.3103
2136.00,0.3098
2135.00,0.3092
2134.00,0.3087
2133.00,0.3082
2132.00,0.3078
2131.00,0.3074
2130.00,0.3070
2129.00,0.3066
2128.00,0.3063
2127.00,0.3060
2126.00,0.3056
2125.00,0.3053
2124.00,0.3050
2123.00,0.3048
2122.00,0.3045
2121.00,0.3043
2120.00,0.3041
2119.00,0.3039
2118.00,0.3036
2117.00,0.3034
2116.00,0.3033
2115.00,0.3031
2114.00,0.3030
2113.00,0.3028
2112.00,0.3026
2111.00,0.3024
2110.00,0.3021
2109.00,0.3019
2108.00,0.3017
2107.00,0.3015
2106.00,0.3013
2105.00,0.3012
2104.00,0.3011
2103.00,0.3009
2102.00,0.3007
2101.00,0.3005
2100.00,0.3004
2099.00,0.3002
2098.00,0.3000
2097.00,0.2998
2096.00,0.2996
2095.00,0.2995
2094.00,0.2993
2093.00,0.2991
2092.00,0.2990
2091.00,0.2989
2090.00,0.2988
2089.00,0.2986
2088.00,0.2985
2087.00,0.2984
2086.00,0.2983
2085.00,0.2984
2084.00,0.2984
2083.00,0.2983
2082.00,0.2984
2081.00,0.2984
2080.00,0.2986
2079.00,0.2986
2078.00,0.2987
2077.00,0.2988
2076.00,0.2988
2075.00,0.2989
2074.00,0.2989
2073.00,0.2990
2072.00,0.2991
2071.00,0.2992
2070.00,0.2993
2069.00,0.2994
2068.00,0.2996
2067.00,0.2997
2066.00,0.2999
2065.00,0.3001
2064.00,0.3003
2063.00,0.3004
2062.00,0.3006
2061.00,0.3008
2060.00,0.3010
2059.00,0.3012
2058.00,0.3014
2057.00,0.3016
2056.00,0.3019
2055.00,0.3022
2054.00,0.3025
2053.00,0.3028
2052.00,0.3032
2051.00,0.3035
2050.00,0.3039
2049.00,0.3043
2048.00,0.3048
2047.00,0.3052
2046.00,0.3056
2045.00,0.3060
2044.00,0.3065
2043.00,0.3069
2042.00,0.3072
2041.00,0.3075
2040.00,0.3078
2039.00,0.3080
2038.00,0.3082
2037.00,0.3086
2036.00,0.3089
2035.00,0.3091
2034.00,0.3093
2033.00,0.3095
2032.00,0.3096
2031.00,0.3098
2030.00,0.3099
2029.00,0.3101
2028.00,0.3102
2027.00,0.3103
2026.00,0.3103
2025.00,0.3103
2024.00,0.3101
2023.00,0.3098
2022.00,0.3093
2021.00,0.3086
2020.00,0.3077
2019.00,0.3067
2018.00,0.3055
2017.00,0.3042
2016.00,0.3029
2015.00,0.3014
2014.00,0.3000
2013.00,0.2987
2012.00,0.2975
2011.00,0.2963
2010.00,0.2952
2009.00,0.2942
2008.00,0.2933
2007.00,0.2925
2006.00,0.2917
2005.00,0.2910
2004.00,0.2905
2003.00,0.2900
2002.00,0.2896
2001.00,0.2893
2000.00,0.2890
1999.00,0.2888
1998.00,0.2887
1997.00,0.2885
1996.00,0.2883
1995.00,0.2881
1994.00,0.2878
1993.00,0.2877
1992.00,0.2876
1991.00,0.2875
1990.00,0.2874
1989.00,0.2874
1988.00,0.2874
1987.00,0.2872
1986.00,0.2870
1985.00,0.2868
1984.00,0.2866
1983.00,0.2864
1982.00,0.2862
1981.00,0.2861
1980.00,0.2860
1979.00,0.2859
1978.00,0.2857
1977.00,0.2857
1976.00,0.2856
1975.00,0.2856
1974.00,0.2856
1973.00,0.2857
1972.00,0.2858
1971.00,0.2859
1970.00,0.2860
1969.00,0.2862
1968.00,0.2865
1967.00,0.2867
1966.00,0.2869
1965.00,0.2871
1964.00,0.2873
1963.00,0.2875
1962.00,0.2877
1961.00,0.2879
1960.00,0.2881
1959.00,0.2882
1958.00,0.2884
1957.00,0.2885
1956.00,0.2887
1955.00,0.2888
1954.00,0.2888
1953.00,0.2888
1952.00,0.2888
1951.00,0.2888
1950.00,0.2888
1949.00,0.2888
1948.00,0.2889
1947.00,0.2890
1946.00,0.2891
1945.00,0.2892
1944.00,0.2894
1943.00,0.2898
1942.00,0.2903
1941.00,0.2909
1940.00,0.2916
1939.00,0.2922
1938.00,0.2928
1937.00,0.2934
1936.00,0.2938
1935.00,0.2942
1934.00,0.2946
1933.00,0.2949
1932.00,0.2950
1931.00,0.2951
1930.00,0.2952
1929.00,0.2952
1928.00,0.2952
1927.00,0.2952
1926.00,0.2952
1925.00,0.2953
1924.00,0.2958
1923.00,0.2962
1922.00,0.2965
1921.00,0.2965
1920.00,0.2966
1919.00,0.2967
1918.00,0.2970
1917.00,0.2974
1916.00,0.2979
1915.00,0.2982
1914.00,0.2983
1913.00,0.2983
1912.00,0.2981
1911.00,0.2978
1910.00,0.2976
1909.00,0.2973
1908.00,0.2970
1907.00,0.2966
1906.00,0.2963
1905.00,0.2960
1904.00,0.2957
1903.00,0.2954
1902.00,0.2950
1901.00,0.2948
1900.00,0.2946
1899.00,0.2944
1898.00,0.2942
1897.00,0.2941
1896.00,0.2941
1895.00,0.2940
1894.00,0.2938
1893.00,0.2936
1892.00,0.2934
1891.00,0.2932
1890.00,0.2931
1889.00,0.2932
1888.00,0.2934
1887.00,0.2936
1886.00,0.2939
1885.00,0.2942
1884.00,0.2944
1883.00,0.2944
1882.00,0.2945
1881.00,0.2946
1880.00,0.2947
1879.00,0.2946
1878.00,0.2946
1877.00,0.2945
1876.00,0.2945
1875.00,0.2945
1874.00,0.2944
1873.00,0.2941
1872.00,0.2936
1871.00,0.2929
1870.00,0.2923
1869.00,0.2920
1868.00,0.2922
1867.00,0.2924
1866.00,0.2926
1865.00,0.2928
1864.00,0.2929
1863.00,0.2929
1862.00,0.2927
1861.00,0.2925
1860.00,0.2924
1859.00,0.2922
1858.00,0.2920
1857.00,0.2919
1856.00,0.2918
1855.00,0.2916
1854.00,0.2914
1853.00,0.2912
1852.00,0.2910
1851.00,0.2908
1850.00,0.2905
1849.00,0.2903
1848.00,0.2899
1847.00,0.2891
1846.00,0.2882
1845.00,0.2875
1844.00,0.2875
1843.00,0.2880
1842.00,0.2888
1841.00,0.2896
1840.00,0.2903
1839.00,0.2906
1838.00,0.2907
1837.00,0.2909
1836.00,0.2911
1835.00,0.2913
1834.00,0.2914
1833.00,0.2912
1832.00,0.2908
1831.00,0.2906
1830.00,0.2908
1829.00,0.2913
1828.00,0.2919
1827.00,0.2926
1826.00,0.2934
1825.00,0.2943
1824.00,0.2955
1823.00,0.2967
1822.00,0.2978
1821.00,0.2989
1820.00,0.2999
1819.00,0.3009
1818.00,0.3019
1817.00,0.3032
1816.00,0.3047
1815.00,0.3061
1814.00,0.3076
1813.00,0.3093
1812.00,0.3114
1811.00,0.3138
1810.00,0.3167
1809.00,0.3204
1808.00,0.3248
1807.00,0.3299
1806.00,0.3359
1805.00,0.3430
1804.00,0.3513
1803.00,0.3610
1802.00,0.3722
1801.00,0.3845
1800.00,0.3970
1799.00,0.4085
1798.00,0.4184
1797.00,0.4258
1796.00,0.4307
1795.00,0.4330
1794.00,0.4332
1793.00,0.4312
1792.00,0.4269
1791.00,0.4204
1790.00,0.4122
1789.00,0.4030
1788.00,0.3931
1787.00,0.3831
1786.00,0.3736
1785.00,0.3652
1784.00,0.3580
1783.00,0.3522
1782.00,0.3475
1781.00,0.3437
1780.00,0.3406
1779.00,0.3380
1778.00,0.3359
1777.00,0.3341
1776.00,0.3322
1775.00,0.3303
1774.00,0.3285
1773.00,0.3270
1772.00,0.3259
1771.00,0.3251
1770.00,0.3249
1769.00,0.3253
1768.00,0.3261
1767.00,0.3267
1766.00,0.3270
1765.00,0.3271
1764.00,0.3271
1763.00,0.3269
1762.00,0.3271
1761.00,0.3277
1760.00,0.3286
1759.00,0.3294
1758.00,0.3302
1757.00,0.3311
1756.00,0.3319
1755.00,0.3328
1754.00,0.3338
1753.00,0.3347
1752.00,0.3355
1751.00,0.3363
1750.00,0.3373
1749.00,0.3386
1748.00,0.3403
1747.00,0.3421
1746.00,0.3440
1745.00,0.3459
1744.00,0.3477
1743.00,0.3493
1742.00,0.3505
1741.00,0.3521
1740.00,0.3543
1739.00,0.3570
1738.00,0.3592
1737.00,0.3607
1736.00,0.3618
1735.00,0.3629
1734.00,0.3643
1733.00,0.3660
1732.00,0.3672
1731.00,0.3679
1730.00,0.3685
1729.00,0.3692
1728.00,0.3703
1727.00,0.3716
1726.00,0.3733
1725.00,0.3753
1724.00,0.3777
1723.00,0.3801
1722.00,0.3822
1721.00,0.3838
1720.00,0.3855
1719.00,0.3880
1718.00,0.3919
1717.00,0.3963
1716.00,0.3999
1715.00,0.4029
1714.00,0.4058
1713.00,0.4091
1712.00,0.4124
1711.00,0.4153
1710.00,0.4177
1709.00,0.4196
1708.00,0.4210
1707.00,0.4220
1706.00,0.4231
1705.00,0.4239
1704.00,0.4235
1703.00,0.4216
1702.00,0.4182
1701.00,0.4139
1700.00,0.4107
1699.00,0.4098
1698.00,0.4106
1697.00,0.4115
1696.00,0.4117
1695.00,0.4110
1694.00,0.4104
1693.00,0.4104
1692.00,0.4109
1691.00,0.4117
1690.00,0.4124
1689.00,0.4131
1688.00,0.4137
1687.00,0.4143
1686.00,0.4146
1685.00,0.4151
1684.00,0.4159
1683.00,0.4170
1682.00,0.4191
1681.00,0.4223
1680.00,0.4255
1679.00,0.4276
1678.00,0.4286
1677.00,0.4295
1676.00,0.4310
1675.00,0.4335
1674.00,0.4367
1673.00,0.4399
1672.00,0.4427
1671.00,0.4453
1670.00,0.4481
1669.00,0.4518
1668.00,0.4560
1667.00,0.4601
1666.00,0.4635
1665.00,0.4662
1664.00,0.4688
1663.00,0.4716
1662.00,0.4749
1661.00,0.4786
1660.00,0.4825
1659.00,0.4859
1658.00,0.4884
1657.00,0.4899
1656.00,0.4906
1655.00,0.4913
1654.00,0.4936
1653.00,0.4983
1652.00,0.5041
1651.00,0.5086
1650.00,0.5109
1649.00,0.5127
1648.00,0.5157
1647.00,0.5198
1646.00,0.5244
1645.00,0.5294
1644.00,0.5346
1643.00,0.5392
1642.00,0.5435
1641.00,0.5478
1640.00,0.5518
1639.00,0.5552
1638.00,0.5584
1637.00,0.5630
1636.00,0.5695
1635.00,0.5774
1634.00,0.5860
1633.00,0.5950
1632.00,0.6039
1631.00,0.6122
1630.00,0.6206
1629.00,0.6300
1628.00,0.6405
1627.00,0.6513
1626.00,0.6621
1625.00,0.6739
1624.00,0.6878
1623.00,0.7036
1622.00,0.7204
1621.00,0.7373
1620.00,0.7541
1619.00,0.7717
1618.00,0.7922
1617.00,0.8177
1616.00,0.8465
1615.00,0.8749
1614.00,0.9026
1613.00,0.9328
1612.00,0.9678
1611.00,1.0069
1610.00,1.0488
1609.00,1.0937
1608.00,1.1410
1607.00,1.1885
1606.00,1.2357
1605.00,1.2860
1604.00,1.3420
1603.00,1.4022
1602.00,1.4652
1601.00,1.5337
1600.00,1.6093
1599.00,1.6884
1598.00,1.7700
1597.00,1.8638
1596.00,1.9789
1595.00,2.1099
1594.00,2.2483
1593.00,2.4108
1592.00,2.6281
1591.00,2.8886
1590.00,3.1227
1589.00,3.3729
1588.00,3.8725
1587.00,4.7366
1586.00,4.1690
1585.00,4.2453
1584.00,4.0417
1583.00,3.9200
1582.00,4.1923
1581.00,3.9703
1580.00,4.0237
1579.00,4.0177
1578.00,3.7656
1577.00,3.6573
1576.00,3.8072
1575.00,4.1227
1574.00,3.8560
1573.00,3.6872
1572.00,3.7636
1571.00,3.6659
1570.00,3.4490
1569.00,3.4216
1568.00,3.5787
1567.00,3.7343
1566.00,3.7837
1565.00,3.9995
1564.00,4.0347
1563.00,3.8536
1562.00,4.0626
1561.00,4.0678
1560.00,3.8140
1559.00,3.7803
1558.00,3.5754
1557.00,3.2960
1556.00,3.0686
1555.00,2.7691
1554.00,2.4993
1553.00,2.3114
1552.00,2.1759
1551.00,2.0598
1550.00,1.9560
1549.00,1.8744
1548.00,1.8148
1547.00,1.7674
1546.00,1.7267
1545.00,1.6957
1544.00,1.6755
1543.00,1.6607
1542.00,1.6473
1541.00,1.6363
1540.00,1.6264
1539.00,1.6123
1538.00,1.5960
1537.00,1.5820
1536.00,1.5694
1535.00,1.5559
1534.00,1.5431
1533.00,1.5370
1532.00,1.5396
1531.00,1.5477
1530.00,1.5592
1529.00,1.5757
1528.00,1.5974
1527.00,1.6203
1526.00,1.6416
1525.00,1.6627
1524.00,1.6858
1523.00,1.7109
1522.00,1.7406
1521.00,1.7780
1520.00,1.8195
1519.00,1.8576
1518.00,1.8922
1517.00,1.9284
1516.00,1.9630
1515.00,1.9856
1514.00,1.9951
1513.00,2.0010
1512.00,2.0086
1511.00,2.0149
1510.00,2.0201
1509.00,2.0320
1508.00,2.0570
1507.00,2.0913
1506.00,2.1304
1505.00,2.1788
1504.00,2.2342
1503.00,2.2866
1502.00,2.3371
1501.00,2.3978
1500.00,2.4716
1499.00,2.5390
1498.00,2.5894
1497.00,2.6497
1496.00,2.7389
1495.00,2.8264
1494.00,2.8879
1493.00,2.9610
1492.00,3.0771
1491.00,3.1967
1490.00,3.2761
1489.00,3.3808
1488.00,3.5369
1487.00,3.6292
1486.00,3.6251
1485.00,3.6863
1484.00,3.9178
1483.00,4.1460
1482.00,4.4530
1481.00,4.6396
1480.00,4.0223
1479.00,4.0823
1478.00,4.4683
1477.00,4.0327
1476.00,3.9039
1475.00,3.8649
1474.00,3.6857
1473.00,3.5875
1472.00,3.7297
1471.00,4.0160
1470.00,4.4013
1469.00,4.7842
1468.00,4.1939
1467.00,4.3779
1466.00,4.2483
1465.00,3.9045
1464.00,4.0668
1463.00,4.1628
1462.00,3.9602
1461.00,3.9240
1460.00,4.1631
1459.00,4.4132
1458.00,4.0201
1457.00,3.7694
1456.00,3.7043
1455.00,3.8101
1454.00,3.8635
1453.00,3.8431
1452.00,4.0610
1451.00,4.1749
1450.00,4.1497
1449.00,4.1237
1448.00,3.8805
1447.00,3.9381
1446.00,4.5142
1445.00,4.4532
1444.00,4.0070
1443.00,3.9060
1442.00,4.0131
1441.00,4.0970
1440.00,3.8939
1439.00,3.9578
1438.00,4.3326
1437.00,4.0117
1436.00,3.8839
1435.00,3.9658
1434.00,4.0485
1433.00,4.3321
1432.00,4.4764
1431.00,4.2617
1430.00,4.2455
1429.00,4.4335
1428.00,4.5552
1427.00,4.1700
1426.00,4.3434
1425.00,4.2883
1424.00,4.1986
1423.00,4.5442
1422.00,4.1710
1421.00,3.9260
1420.00,3.9339
1419.00,3.9932
1418.00,3.9451
1417.00,4.1497
1416.00,4.3135
1415.00,3.8267
1414.00,3.7336
1413.00,3.7390
1412.00,3.7196
1411.00,3.8780
1410.00,4.3916
1409.00,4.7095
1408.00,4.7497
1407.00,4.3662
1406.00,4.2302
1405.00,4.2187
1404.00,3.9253
1403.00,3.9028
1402.00,4.0575
1401.00,4.1024
1400.00,4.0167
1399.00,3.7362
1398.00,3.4909
1397.00,3.4043
1396.00,3.4532
1395.00,3.5109
1394.00,3.4890
1393.00,3.4701
1392.00,3.4044
1391.00,3.2317
1390.00,3.0486
1389.00,2.9162
1388.00,2.8334
1387.00,2.7803
1386.00,2.7557
1385.00,2.7729
1384.00,2.8293
1383.00,2.9026
1382.00,2.9873
1381.00,3.1232
1380.00,3.3597
1379.00,3.6432
1378.00,3.6883
1377.00,3.5140
1376.00,3.2841
1375.00,3.0263
1374.00,2.7898
1373.00,2.6088
1372.00,2.4773
1371.00,2.3761
1370.00,2.2950
1369.00,2.2312
1368.00,2.1779
1367.00,2.1248
1366.00,2.0655
1365.00,1.9995
1364.00,1.9265
1363.00,1.8487
1362.00,1.7745
1361.00,1.7123
1360.00,1.6640
1359.00,1.6267
1358.00,1.5975
1357.00,1.5756
1356.00,1.5609
1355.00,1.5522
1354.00,1.5485
1353.00,1.5492
1352.00,1.5529
1351.00,1.5583
1350.00,1.5662
1349.00,1.5796
1348.00,1.6008
1347.00,1.6295
1346.00,1.6624
1345.00,1.6931
1344.00,1.7122
1343.00,1.7117
1342.00,1.6920
1341.00,1.6603
1340.00,1.6238
1339.00,1.5867
1338.00,1.5527
1337.00,1.5246
1336.00,1.5030
1335.00,1.4860
1334.00,1.4717
1333.00,1.4597
1332.00,1.4500
1331.00,1.4424
1330.00,1.4369
1329.00,1.4342
1328.00,1.4348
1327.00,1.4386
1326.00,1.4454
1325.00,1.4548
1324.00,1.4663
1323.00,1.4784
1322.00,1.4899
1321.00,1.5003
1320.00,1.5080
1319.00,1.5115
1318.00,1.5112
1317.00,1.5098
1316.00,1.5095
1315.00,1.5107
1314.00,1.5133
1313.00,1.5174
1312.00,1.5229
1311.00,1.5285
1310.00,1.5339
1309.00,1.5394
1308.00,1.5447
1307.00,1.5478
1306.00,1.5467
1305.00,1.5409
1304.00,1.5310
1303.00,1.5178
1302.00,1.5026
1301.00,1.4871
1300.00,1.4717
1299.00,1.4555
1298.00,1.4380
1297.00,1.4198
1296.00,1.4019
1295.00,1.3849
1294.00,1.3690
1293.00,1.3535
1292.00,1.3371
1291.00,1.3183
1290.00,1.2968
1289.00,1.2741
1288.00,1.2520
1287.00,1.2318
1286.00,1.2142
1285.00,1.1998
1284.00,1.1887
1283.00,1.1808
1282.00,1.1766
1281.00,1.1766
1280.00,1.1799
1279.00,1.1832
1278.00,1.1817
1277.00,1.1718
1276.00,1.1531
1275.00,1.1290
1274.00,1.1044
1273.00,1.0836
1272.00,1.0686
1271.00,1.0594
1270.00,1.0545
1269.00,1.0523
1268.00,1.0511
1267.00,1.0492
1266.00,1.0461
1265.00,1.0422
1264.00,1.0384
1263.00,1.0353
1262.00,1.0329
1261.00,1.0314
1260.00,1.0311
1259.00,1.0319
1258.00,1.0338
1257.00,1.0367
1256.00,1.0412
1255.00,1.0475
1254.00,1.0558
1253.00,1.0654
1252.00,1.0748
1251.00,1.0828
1250.00,1.0891
1249.00,1.0947
1248.00,1.1010
1247.00,1.1083
1246.00,1.1165
1245.00,1.1261
1244.00,1.1378
1243.00,1.1516
1242.00,1.1669
1241.00,1.1828
1240.00,1.1986
1239.00,1.2137
1238.00,1.2287
1237.00,1.2453
1236.00,1.2652
1235.00,1.2889
1234.00,1.3161
1233.00,1.3469
1232.00,1.3804
1231.00,1.4145
1230.00,1.4461
1229.00,1.4730
1228.00,1.4937
1227.00,1.5072
1226.00,1.5145
1225.00,1.5185
1224.00,1.5213
1223.00,1.5236
1222.00,1.5257
1221.00,1.5286
1220.00,1.5327
1219.00,1.5374
1218.00,1.5426
1217.00,1.5495
1216.00,1.5580
1215.00,1.5661
1214.00,1.5727
1213.00,1.5789
1212.00,1.5861
1211.00,1.5938
1210.00,1.6006
1209.00,1.6065
1208.00,1.6128
1207.00,1.6207
1206.00,1.6314
1205.00,1.6461
1204.00,1.6649
1203.00,1.6863
1202.00,1.7102
1201.00,1.7377
1200.00,1.7688
1199.00,1.7999
1198.00,1.8266
1197.00,1.8482
1196.00,1.8665
1195.00,1.8834
1194.00,1.8998
1193.00,1.9163
1192.00,1.9307
1191.00,1.9396
1190.00,1.9414
1189.00,1.9372
1188.00,1.9266
1187.00,1.9075
1186.00,1.8803
1185.00,1.8486
1184.00,1.8150
1183.00,1.7806
1182.00,1.7470
1181.00,1.7159
1180.00,1.6862
1179.00,1.6553
1178.00,1.6235
1177.00,1.5934
1176.00,1.5671
1175.00,1.5438
1174.00,1.5222
1173.00,1.5019
1172.00,1.4828
1171.00,1.4646
1170.00,1.4475
1169.00,1.4323
1168.00,1.4196
1167.00,1.4094
1166.00,1.4021
1165.00,1.3984
1164.00,1.3985
1163.00,1.4021
1162.00,1.4079
1161.00,1.4138
1160.00,1.4167
1159.00,1.4148
1158.00,1.4093
1157.00,1.4033
1156.00,1.3983
1155.00,1.3928
1154.00,1.3849
1153.00,1.3734
1152.00,1.3581
1151.00,1.3395
1150.00,1.3196
1149.00,1.3006
1148.00,1.2840
1147.00,1.2698
1146.00,1.2581
1145.00,1.2495
1144.00,1.2446
1143.00,1.2432
1142.00,1.2444
1141.00,1.2473
1140.00,1.2511
1139.00,1.2547
1138.00,1.2576
1137.00,1.2597
1136.00,1.2611
1135.00,1.2606
1134.00,1.2566
1133.00,1.2469
1132.00,1.2301
1131.00,1.2060
1130.00,1.1769
1129.00,1.1470
1128.00,1.1200
1127.00,1.0973
1126.00,1.0777
1125.00,1.0586
1124.00,1.0376
1123.00,1.0148
1122.00,0.9923
1121.00,0.9732
1120.00,0.9596
1119.00,0.9518
1118.00,0.9493
1117.00,0.9512
1116.00,0.9559
1115.00,0.9607
1114.00,0.9625
1113.00,0.9588
1112.00,0.9491
1111.00,0.9351
1110.00,0.9190
1109.00,0.9033
1108.00,0.8893
1107.00,0.8782
1106.00,0.8709
1105.00,0.8679
1104.00,0.8693
1103.00,0.8746
1102.00,0.8829
1101.00,0.8933
1100.00,0.9036
1099.00,0.9113
1098.00,0.9144
1097.00,0.9134
1096.00,0.9108
1095.00,0.9095
1094.00,0.9114
1093.00,0.9168
1092.00,0.9248
1091.00,0.9345
1090.00,0.9450
1089.00,0.9558
1088.00,0.9664
1087.00,0.9758
1086.00,0.9835
1085.00,0.9892
1084.00,0.9934
1083.00,0.9963
1082.00,0.9981
1081.00,0.9992
1080.00,0.9992
1079.00,0.9974
1078.00,0.9928
1077.00,0.9852
1076.00,0.9750
1075.00,0.9625
1074.00,0.9484
1073.00,0.9338
1072.00,0.9201
1071.00,0.9081
1070.00,0.8986
1069.00,0.8920
1068.00,0.8889
1067.00,0.8896
1066.00,0.8949
1065.00,0.9056
1064.00,0.9230
1063.00,0.9471
1062.00,0.9761
1061.00,1.0058
1060.00,1.0301
1059.00,1.0436
1058.00,1.0446
1057.00,1.0356
1056.00,1.0213
1055.00,1.0054
1054.00,0.9900
1053.00,0.9757
1052.00,0.9620
1051.00,0.9480
1050.00,0.9331
1049.00,0.9177
1048.00,0.9025
1047.00,0.8878
1046.00,0.8734
1045.00,0.8592
1044.00,0.8457
1043.00,0.8332
1042.00,0.8223
1041.00,0.8136
1040.00,0.8075
1039.00,0.8042
1038.00,0.8037
1037.00,0.8058
1036.00,0.8107
1035.00,0.8181
1034.00,0.8279
1033.00,0.8399
1032.00,0.8532
1031.00,0.8672
1030.00,0.8805
1029.00,0.8920
1028.00,0.9004
1027.00,0.9041
1026.00,0.9020
1025.00,0.8933
1024.00,0.8782
1023.00,0.8586
1022.00,0.8376
1021.00,0.8187
1020.00,0.8051
1019.00,0.7986
1018.00,0.7993
1017.00,0.8055
1016.00,0.8137
1015.00,0.8189
1014.00,0.8165
1013.00,0.8047
1012.00,0.7855
1011.00,0.7631
1010.00,0.7414
1009.00,0.7223
1008.00,0.7052
1007.00,0.6894
1006.00,0.6748
1005.00,0.6624
1004.00,0.6528
1003.00,0.6464
1002.00,0.6424
1001.00,0.6400
1000.00,0.6382
999.00,0.6362
998.00,0.6333
997.00,0.6292
996.00,0.6244
995.00,0.6197
994.00,0.6156
993.00,0.6121
992.00,0.6091
991.00,0.6061
990.00,0.6030
989.00,0.5993
988.00,0.5948
987.00,0.5897
986.00,0.5843
985.00,0.5796
984.00,0.5765
983.00,0.5754
982.00,0.5760
981.00,0.5781
980.00,0.5817
979.00,0.5869
978.00,0.5940
977.00,0.6035
976.00,0.6163
975.00,0.6337
974.00,0.6567
973.00,0.6866
972.00,0.7251
971.00,0.7726
970.00,0.8269
969.00,0.8808
968.00,0.9221
967.00,0.9385
966.00,0.9270
965.00,0.8957
964.00,0.8565
963.00,0.8182
962.00,0.7855
961.00,0.7612
960.00,0.7467
959.00,0.7422
958.00,0.7461
957.00,0.7548
956.00,0.7645
955.00,0.7718
954.00,0.7746
953.00,0.7730
952.00,0.7681
951.00,0.7616
950.00,0.7550
949.00,0.7497
948.00,0.7469
947.00,0.7472
946.00,0.7507
945.00,0.7567
944.00,0.7640
943.00,0.7715
942.00,0.7778
941.00,0.7821
940.00,0.7839
939.00,0.7833
938.00,0.7808
937.00,0.7767
936.00,0.7717
935.00,0.7657
934.00,0.7585
933.00,0.7501
932.00,0.7403
931.00,0.7292
930.00,0.7167
929.00,0.7034
928.00,0.6903
927.00,0.6787
926.00,0.6694
925.00,0.6632
924.00,0.6604
923.00,0.6603
922.00,0.6613
921.00,0.6611
920.00,0.6576
919.00,0.6501
918.00,0.6394
917.00,0.6276
916.00,0.6172
915.00,0.6096
914.00,0.6050
913.00,0.6027
912.00,0.6014
911.00,0.6001
910.00,0.5984
909.00,0.5965
908.00,0.5955
907.00,0.5960
906.00,0.5982
905.00,0.6018
904.00,0.6054
903.00,0.6074
902.00,0.6065
901.00,0.6033
900.00,0.5995
899.00,0.5967
898.00,0.5951
897.00,0.5950
896.00,0.5968
895.00,0.6007
894.00,0.6067
893.00,0.6148
892.00,0.6257
891.00,0.6408
890.00,0.6640
889.00,0.7050
888.00,0.7798
887.00,0.9073
886.00,1.1060
885.00,1.3917
884.00,1.7677
883.00,2.1883
882.00,2.5100
881.00,2.6439
880.00,2.5905
879.00,2.3475
878.00,2.0412
877.00,1.7425
876.00,1.4767
875.00,1.2544
874.00,1.0767
873.00,0.9392
872.00,0.8356
871.00,0.7603
870.00,0.7080
869.00,0.6732
868.00,0.6505
867.00,0.6360
866.00,0.6269
865.00,0.6215
864.00,0.6188
863.00,0.6172
862.00,0.6150
861.00,0.6097
860.00,0.6000
859.00,0.5868
858.00,0.5725
857.00,0.5592
856.00,0.5484
855.00,0.5405
854.00,0.5358
853.00,0.5343
852.00,0.5364
851.00,0.5427
850.00,0.5521
849.00,0.5611
848.00,0.5657
847.00,0.5651
846.00,0.5622
845.00,0.5608
844.00,0.5630
843.00,0.5691
842.00,0.5787
841.00,0.5921
840.00,0.6093
839.00,0.6298
838.00,0.6519
837.00,0.6725
836.00,0.6877
835.00,0.6945
834.00,0.6929
833.00,0.6856
832.00,0.6762
831.00,0.6672
830.00,0.6593
829.00,0.6522
828.00,0.6448
827.00,0.6363
826.00,0.6268
825.00,0.6174
824.00,0.6092
823.00,0.6026
822.00,0.5973
821.00,0.5925
820.00,0.5875
819.00,0.5820
818.00,0.5765
817.00,0.5715
816.00,0.5673
815.00,0.5642
814.00,0.5624
813.00,0.5619
812.00,0.5627
811.00,0.5644
810.00,0.5667
809.00,0.5695
808.00,0.5726
807.00,0.5756
806.00,0.5780
805.00,0.5797
804.00,0.5803
803.00,0.5797
802.00,0.5780
801.00,0.5757
800.00,0.5733
799.00,0.5711
798.00,0.5688
797.00,0.5662
796.00,0.5631
795.00,0.5598
794.00,0.5568
793.00,0.5544
792.00,0.5530
791.00,0.5525
790.00,0.5530
789.00,0.5543
788.00,0.5562
787.00,0.5588
786.00,0.5622
785.00,0.5669
784.00,0.5733
783.00,0.5819
782.00,0.5932
781.00,0.6079
780.00,0.6259
779.00,0.6453
778.00,0.6628
777.00,0.6746
776.00,0.6795
775.00,0.6793
774.00,0.6775
773.00,0.6769
772.00,0.6786
771.00,0.6824
770.00,0.6874
769.00,0.6930
768.00,0.6983
767.00,0.7034
766.00,0.7082
765.00,0.7134
764.00,0.7195
763.00,0.7271
762.00,0.7360
761.00,0.7455
760.00,0.7546
759.00,0.7632
758.00,0.7718
757.00,0.7811
756.00,0.7913
755.00,0.8025
754.00,0.8142
753.00,0.8261
752.00,0.8375
751.00,0.8485
750.00,0.8599
749.00,0.8726
748.00,0.8865
747.00,0.9008
746.00,0.9150
745.00,0.9293
744.00,0.9445
743.00,0.9615
742.00,0.9811
741.00,1.0039
740.00,1.0298
739.00,1.0582
738.00,1.0886
737.00,1.1208
736.00,1.1545
735.00,1.1892
734.00,1.2250
733.00,1.2626
732.00,1.3027
731.00,1.3459
730.00,1.3936
729.00,1.4475
728.00,1.5090
727.00,1.5798
726.00,1.6621
725.00,1.7572
724.00,1.8614
723.00,1.9619
722.00,2.0334
721.00,2.0475
720.00,2.0009
719.00,1.9220
718.00,1.8411
717.00,1.7741
716.00,1.7266
715.00,1.6965
714.00,1.6709
713.00,1.6284
712.00,1.5569
711.00,1.4654
710.00,1.3720
709.00,1.2878
708.00,1.2157
707.00,1.1557
706.00,1.1072
705.00,1.0695
704.00,1.0416
703.00,1.0225
702.00,1.0105
701.00,1.0029
700.00,0.9954
699.00,0.9834
698.00,0.9643
697.00,0.9385
696.00,0.9093
695.00,0.8807
694.00,0.8557
693.00,0.8355
692.00,0.8201
691.00,0.8089
690.00,0.8004
689.00,0.7923
688.00,0.7815
687.00,0.7660
686.00,0.7462
685.00,0.7249
684.00,0.7056
683.00,0.6909
682.00,0.6814
681.00,0.6767
680.00,0.6760
679.00,0.6783
678.00,0.6829
677.00,0.6890
676.00,0.6957
675.00,0.7016
674.00,0.7054
673.00,0.7067
672.00,0.7060
671.00,0.7044
670.00,0.7022
669.00,0.6990
668.00,0.6935
667.00,0.6862
666.00,0.6801
665.00,0.6765
664.00,0.6740
663.00,0.6722
662.00,0.6714
661.00,0.6717
660.00,0.6730
659.00,0.6751
658.00,0.6780
657.00,0.6814
656.00,0.6844
655.00,0.6858
654.00,0.6842
653.00,0.6792
652.00,0.6715
651.00,0.6624
650.00,0.6534
649.00,0.6456
648.00,0.6400
647.00,0.6369
646.00,0.6360
645.00,0.6363
644.00,0.6373
643.00,0.6393
642.00,0.6429
641.00,0.6485
640.00,0.6563
639.00,0.6660
638.00,0.6774
637.00,0.6899
636.00,0.7029
635.00,0.7162
634.00,0.7297
633.00,0.7436
632.00,0.7577
631.00,0.7708
630.00,0.7810
629.00,0.7874
628.00,0.7908
627.00,0.7929
626.00,0.7950
625.00,0.7976
624.00,0.8003
623.00,0.8029
622.00,0.8050
621.00,0.8067
620.00,0.8080
619.00,0.8092
618.00,0.8107
617.00,0.8128
616.00,0.8150
615.00,0.8160
614.00,0.8147
613.00,0.8107
612.00,0.8048
611.00,0.7982
610.00,0.7925
609.00,0.7886
608.00,0.7862
607.00,0.7847
606.00,0.7840
605.00,0.7842
604.00,0.7857
603.00,0.7883
602.00,0.7918
601.00,0.7965
600.00,0.8024
599.00,0.8096
598.00,0.8180
597.00,0.8274
596.00,0.8373
595.00,0.8470
594.00,0.8559
593.00,0.8644
592.00,0.8730
591.00,0.8817
590.00,0.8894
589.00,0.8948
588.00,0.8967
587.00,0.8940
586.00,0.8875
585.00,0.8790
584.00,0.8701
583.00,0.8615
582.00,0.8529
581.00,0.8441
580.00,0.8354
579.00,0.8273
578.00,0.8201
577.00,0.8143
576.00,0.8099
575.00,0.8070
574.00,0.8059
573.00,0.8072
572.00,0.8107
571.00,0.8150
570.00,0.8186
569.00,0.8206
568.00,0.8217
567.00,0.8227
566.00,0.8240
565.00,0.8248
564.00,0.8248
563.00,0.8240
562.00,0.8235
561.00,0.8245
560.00,0.8279
559.00,0.8335
558.00,0.8402
557.00,0.8470
556.00,0.8533
555.00,0.8585
554.00,0.8620
553.00,0.8635
552.00,0.8637
551.00,0.8632
550.00,0.8627
