Created as New Dataset,
cm-1,A
4000.00,0.3876
3999.00,0.3872
3998.00,0.3869
3997.00,0.3866
3996.00,0.3863
3995.00,0.3860
3994.00,0.3856
3993.00,0.3853
3992.00,0.3849
3991.00,0.3845
3990.00,0.3842
3989.00,0.3838
3988.00,0.3835
3987.00,0.3832
3986.00,0.3829
3985.00,0.3827
3984.00,0.3824
3983.00,0.3820
3982.00,0.3817
3981.00,0.3813
3980.00,0.3809
3979.00,0.3806
3978.00,0.3804
3977.00,0.3802
3976.00,0.3799
3975.00,0.3797
3974.00,0.3794
3973.00,0.3791
3972.00,0.3788
3971.00,0.3785
3970.00,0.3782
3969.00,0.3779
3968.00,0.3776
3967.00,0.3773
3966.00,0.3771
3965.00,0.3768
3964.00,0.3766
3963.00,0.3764
3962.00,0.3762
3961.00,0.3760
3960.00,0.3758
3959.00,0.3756
3958.00,0.3753
3957.00,0.3751
3956.00,0.3749
3955.00,0.3748
3954.00,0.3747
3953.00,0.3746
3952.00,0.3745
3951.00,0.3744
3950.00,0.3743
3949.00,0.3742
3948.00,0.3741
3947.00,0.3739
3946.00,0.3738
3945.00,0.3736
3944.00,0.3735
3943.00,0.3734
3942.00,0.3734
3941.00,0.3733
3940.00,0.3732
3939.00,0.3731
3938.00,0.3730
3937.00,0.3729
3936.00,0.3728
3935.00,0.3727
3934.00,0.3725
3933.00,0.3724
3932.00,0.3723
3931.00,0.3722
3930.00,0.3721
3929.00,0.3721
3928.00,0.3721
3927.00,0.3721
3926.00,0.3721
3925.00,0.3721
3924.00,0.3721
3923.00,0.3721
3922.00,0.3720
3921.00,0.3720
3920.00,0.3719
3919.00,0.3719
3918.00,0.3719
3917.00,0.3719
3916.00,0.3719
3915.00,0.3719
3914.00,0.3718
3913.00,0.3718
3912.00,0.3717
3911.00,0.3717
3910.00,0.3717
3909.00,0.3717
3908.00,0.3716
3907.00,0.3716
3906.00,0.3715
3905.00,0.3716
3904.00,0.3716
3903.00,0.3716
3902.00,0.3715
3901.00,0.3714
3900.00,0.3713
3899.00,0.3712
3898.00,0.3711
3897.00,0.3710
3896.00,0.3708
3895.00,0.3707
3894.00,0.3706
3893.00,0.3705
3892.00,0.3705
3891.00,0.3704
3890.00,0.3703
3889.00,0.3701
3888.00,0.3698
3887.00,0.3697
3886.00,0.3696
3885.00,0.3696
3884.00,0.3696
3883.00,0.3695
3882.00,0.3695
3881.00,0.3695
3880.00,0.3696
3879.00,0.3696
3878.00,0.3695
3877.00,0.3694
3876.00,0.3693
3875.00,0.3693
3874.00,0.3692
3873.00,0.3691
3872.00,0.3689
3871.00,0.3686
3870.00,0.3685
3869.00,0.3684
3868.00,0.3683
3867.00,0.3681
3866.00,0.3680
3865.00,0.3679
3864.00,0.3678
3863.00,0.3676
3862.00,0.3673
3861.00,0.3671
3860.00,0.3670
3859.00,0.3670
3858.00,0.3670
3857.00,0.3670
3856.00,0.3670
3855.00,0.3669
3854.00,0.3669
3853.00,0.3668
3852.00,0.3668
3851.00,0.3667
3850.00,0.3666
3849.00,0.3665
3848.00,0.3665
3847.00,0.3664
3846.00,0.3664
3845.00,0.3663
3844.00,0.3663
3843.00,0.3663
3842.00,0.3662
3841.00,0.3662
3840.00,0.3661
3839.00,0.3660
3838.00,0.3659
3837.00,0.3659
3836.00,0.3658
3835.00,0.3656
3834.00,0.3655
3833.00,0.3654
3832.00,0.3653
3831.00,0.3652
3830.00,0.3650
3829.00,0.3647
3828.00,0.3645
3827.00,0.3644
3826.00,0.3644
3825.00,0.3644
3824.00,0.3643
3823.00,0.3641
3822.00,0.3640
3821.00,0.3640
3820.00,0.3640
3819.00,0.3639
3818.00,0.3637
3817.00,0.3636
3816.00,0.3635
3815.00,0.3634
3814.00,0.3631
3813.00,0.3628
3812.00,0.3626
3811.00,0.3625
3810.00,0.3623
3809.00,0.3622
3808.00,0.3620
3807.00,0.3618
3806.00,0.3617
3805.00,0.3615
3804.00,0.3612
3803.00,0.3610
3802.00,0.3609
3801.00,0.3609
3800.00,0.3607
3799.00,0.3604
3798.00,0.3601
3797.00,0.3598
3796.00,0.3596
3795.00,0.3594
3794.00,0.3592
3793.00,0.3590
3792.00,0.3588
3791.00,0.3585
3790.00,0.3583
3789.00,0.3581
3788.00,0.3580
3787.00,0.3579
3786.00,0.3578
3785.00,0.3578
3784.00,0.3577
3783.00,0.3576
3782.00,0.3575
3781.00,0.3573
3780.00,0.3571
3779.00,0.3570
3778.00,0.3568
3777.00,0.3567
3776.00,0.3566
3775.00,0.3565
3774.00,0.3563
3773.00,0.3562
3772.00,0.3560
3771.00,0.3558
3770.00,0.3556
3769.00,0.3553
3768.00,0.3551
3767.00,0.3549
3766.00,0.3547
3765.00,0.3546
3764.00,0.3545
3763.00,0.3544
3762.00,0.3542
3761.00,0.3540
3760.00,0.3538
3759.00,0.3536
3758.00,0.3534
3757.00,0.3532
3756.00,0.3530
3755.00,0.3527
3754.00,0.3525
3753.00,0.3524
3752.00,0.3522
3751.00,0.3521
3750.00,0.3521
3749.00,0.3522
3748.00,0.3522
3747.00,0.3521
3746.00,0.3519
3745.00,0.3518
3744.00,0.3518
3743.00,0.3516
3742.00,0.3514
3741.00,0.3512
3740.00,0.3510
3739.00,0.3509
3738.00,0.3508
3737.00,0.3507
3736.00,0.3506
3735.00,0.3506
3734.00,0.3505
3733.00,0.3504
3732.00,0.3502
3731.00,0.3500
3730.00,0.3497
3729.00,0.3494
3728.00,0.3491
3727.00,0.3488
3726.00,0.3486
3725.00,0.3484
3724.00,0.3481
3723.00,0.3479
3722.00,0.3478
3721.00,0.3477
3720.00,0.3475
3719.00,0.3473
3718.00,0.3472
3717.00,0.3470
3716.00,0.3469
3715.00,0.3469
3714.00,0.3469
3713.00,0.3469
3712.00,0.3469
3711.00,0.3469
3710.00,0.3469
3709.00,0.3469
3708.00,0.3470
3707.00,0.3470
3706.00,0.3471
3705.00,0.3470
3704.00,0.3469
3703.00,0.3468
3702.00,0.3467
3701.00,0.3466
3700.00,0.3466
3699.00,0.3465
3698.00,0.3464
3697.00,0.3464
3696.00,0.3463
3695.00,0.3463
3694.00,0.3462
3693.00,0.3462
3692.00,0.3462
3691.00,0.3462
3690.00,0.3462
3689.00,0.3462
3688.00,0.3462
3687.00,0.3461
3686.00,0.3459
3685.00,0.3458
3684.00,0.3458
3683.00,0.3458
3682.00,0.3457
3681.00,0.3456
3680.00,0.3455
3679.00,0.3454
3678.00,0.3454
3677.00,0.3453
3676.00,0.3452
3675.00,0.3453
3674.00,0.3452
3673.00,0.3451
3672.00,0.3450
3671.00,0.3450
3670.00,0.3451
3669.00,0.3451
3668.00,0.3450
3667.00,0.3449
3666.00,0.3449
3665.00,0.3449
3664.00,0.3449
3663.00,0.3450
3662.00,0.3450
3661.00,0.3451
3660.00,0.3451
3659.00,0.3451
3658.00,0.3451
3657.00,0.3451
3656.00,0.3453
3655.00,0.3454
3654.00,0.3455
3653.00,0.3456
3652.00,0.3457
3651.00,0.3457
3650.00,0.3458
3649.00,0.3460
3648.00,0.3462
3647.00,0.3464
3646.00,0.3465
3645.00,0.3465
3644.00,0.3465
3643.00,0.3466
3642.00,0.3468
3641.00,0.3469
3640.00,0.3470
3639.00,0.3472
3638.00,0.3474
3637.00,0.3476
3636.00,0.3478
3635.00,0.3480
3634.00,0.3482
3633.00,0.3483
3632.00,0.3485
3631.00,0.3486
3630.00,0.3487
3629.00,0.3489
3628.00,0.3492
3627.00,0.3495
3626.00,0.3498
3625.00,0.3500
3624.00,0.3502
3623.00,0.3504
3622.00,0.3504
3621.00,0.3503
3620.00,0.3501
3619.00,0.3499
3618.00,0.3497
3617.00,0.3495
3616.00,0.3493
3615.00,0.3492
3614.00,0.3491
3613.00,0.3491
3612.00,0.3491
3611.00,0.3491
3610.00,0.3492
3609.00,0.3494
3608.00,0.3495
3607.00,0.3496
3606.00,0.3497
3605.00,0.3496
3604.00,0.3495
3603.00,0.3493
3602.00,0.3490
3601.00,0.3487
3600.00,0.3482
3599.00,0.3476
3598.00,0.3470
3597.00,0.3463
3596.00,0.3455
3595.00,0.3448
3594.00,0.3441
3593.00,0.3435
3592.00,0.3429
3591.00,0.3424
3590.00,0.3420
3589.00,0.3416
3588.00,0.3413
3587.00,0.3410
3586.00,0.3408
3585.00,0.3405
3584.00,0.3403
3583.00,0.3402
3582.00,0.3401
3581.00,0.3400
3580.00,0.3399
3579.00,0.3399
3578.00,0.3400
3577.00,0.3400
3576.00,0.3401
3575.00,0.3402
3574.00,0.3403
3573.00,0.3403
3572.00,0.3404
3571.00,0.3405
3570.00,0.3405
3569.00,0.3406
3568.00,0.3407
3567.00,0.3409
3566.00,0.3412
3565.00,0.3414
3564.00,0.3415
3563.00,0.3417
3562.00,0.3418
3561.00,0.3420
3560.00,0.3421
3559.00,0.3423
3558.00,0.3426
3557.00,0.3428
3556.00,0.3430
3555.00,0.3432
3554.00,0.3435
3553.00,0.3438
3552.00,0.3442
3551.00,0.3445
3550.00,0.3449
3549.00,0.3452
3548.00,0.3455
3547.00,0.3459
3546.00,0.3462
3545.00,0.3465
3544.00,0.3468
3543.00,0.3471
3542.00,0.3474
3541.00,0.3478
3540.00,0.3481
3539.00,0.3485
3538.00,0.3489
3537.00,0.3493
3536.00,0.3496
3535.00,0.3499
3534.00,0.3502
3533.00,0.3505
3532.00,0.3508
3531.00,0.3511
3530.00,0.3514
3529.00,0.3517
3528.00,0.3520
3527.00,0.3524
3526.00,0.3527
3525.00,0.3530
3524.00,0.3533
3523.00,0.3537
3522.00,0.3541
3521.00,0.3544
3520.00,0.3547
3519.00,0.3550
3518.00,0.3553
3517.00,0.3556
3516.00,0.3561
3515.00,0.3565
3514.00,0.3569
3513.00,0.3573
3512.00,0.3577
3511.00,0.3582
3510.00,0.3587
3509.00,0.3591
3508.00,0.3596
3507.00,0.3601
3506.00,0.3606
3505.00,0.3612
3504.00,0.3618
3503.00,0.3624
3502.00,0.3630
3501.00,0.3636
3500.00,0.3642
3499.00,0.3648
3498.00,0.3653
3497.00,0.3660
3496.00,0.3666
3495.00,0.3673
3494.00,0.3681
3493.00,0.3688
3492.00,0.3695
3491.00,0.3702
3490.00,0.3708
3489.00,0.3715
3488.00,0.3721
3487.00,0.3728
3486.00,0.3734
3485.00,0.3741
3484.00,0.3747
3483.00,0.3753
3482.00,0.3759
3481.00,0.3765
3480.00,0.3771
3479.00,0.3777
3478.00,0.3782
3477.00,0.3787
3476.00,0.3792
3475.00,0.3797
3474.00,0.3803
3473.00,0.3808
3472.00,0.3814
3471.00,0.3820
3470.00,0.3827
3469.00,0.3834
3468.00,0.3841
3467.00,0.3847
3466.00,0.3853
3465.00,0.3859
3464.00,0.3865
3463.00,0.3872
3462.00,0.3879
3461.00,0.3887
3460.00,0.3894
3459.00,0.3902
3458.00,0.3909
3457.00,0.3915
3456.00,0.3922
3455.00,0.3928
3454.00,0.3935
3453.00,0.3942
3452.00,0.3949
3451.00,0.3956
3450.00,0.3964
3449.00,0.3972
3448.00,0.3980
3447.00,0.3988
3446.00,0.3996
3445.00,0.4004
3444.00,0.4012
3443.00,0.4021
3442.00,0.4029
3441.00,0.4038
3440.00,0.4046
3439.00,0.4055
3438.00,0.4063
3437.00,0.4072
3436.00,0.4081
3435.00,0.4090
3434.00,0.4099
3433.00,0.4108
3432.00,0.4117
3431.00,0.4126
3430.00,0.4135
3429.00,0.4145
3428.00,0.4155
3427.00,0.4165
3426.00,0.4175
3425.00,0.4184
3424.00,0.4194
3423.00,0.4204
3422.00,0.4214
3421.00,0.4224
3420.00,0.4235
3419.00,0.4246
3418.00,0.4257
3417.00,0.4268
3416.00,0.4279
3415.00,0.4291
3414.00,0.4303
3413.00,0.4315
3412.00,0.4327
3411.00,0.4339
3410.00,0.4351
3409.00,0.4363
3408.00,0.4375
3407.00,0.4388
3406.00,0.4401
3405.00,0.4414
3404.00,0.4427
3403.00,0.4441
3402.00,0.4455
3401.00,0.4468
3400.00,0.4482
3399.00,0.4495
3398.00,0.4509
3397.00,0.4523
3396.00,0.4537
3395.00,0.4552
3394.00,0.4567
3393.00,0.4582
3392.00,0.4597
3391.00,0.4611
3390.00,0.4626
3389.00,0.4640
3388.00,0.4655
3387.00,0.4670
3386.00,0.4685
3385.00,0.4700
3384.00,0.4715
3383.00,0.4730
3382.00,0.4746
3381.00,0.4762
3380.00,0.4779
3379.00,0.4797
3378.00,0.4815
3377.00,0.4832
3376.00,0.4849
3375.00,0.4866
3374.00,0.4883
3373.00,0.4902
3372.00,0.4922
3371.00,0.4942
3370.00,0.4962
3369.00,0.4982
3368.00,0.5002
3367.00,0.5022
3366.00,0.5042
3365.00,0.5064
3364.00,0.5085
3363.00,0.5107
3362.00,0.5129
3361.00,0.5152
3360.00,0.5174
3359.00,0.5197
3358.00,0.5219
3357.00,0.5242
3356.00,0.5266
3355.00,0.5289
3354.00,0.5313
3353.00,0.5336
3352.00,0.5359
3351.00,0.5382
3350.00,0.5405
3349.00,0.5427
3348.00,0.5450
3347.00,0.5472
3346.00,0.5494
3345.00,0.5517
3344.00,0.5538
3343.00,0.5558
3342.00,0.5578
3341.00,0.5597
3340.00,0.5616
3339.00,0.5634
3338.00,0.5650
3337.00,0.5665
3336.00,0.5679
3335.00,0.5692
3334.00,0.5705
3333.00,0.5716
3332.00,0.5726
3331.00,0.5733
3330.00,0.5740
3329.00,0.5747
3328.00,0.5752
3327.00,0.5756
3326.00,0.5758
3325.00,0.5758
3324.00,0.5758
3323.00,0.5756
3322.00,0.5752
3321.00,0.5749
3320.00,0.5744
3319.00,0.5738
3318.00,0.5731
3317.00,0.5723
3316.00,0.5713
3315.00,0.5703
3314.00,0.5692
3313.00,0.5680
3312.00,0.5669
3311.00,0.5658
3310.00,0.5647
3309.00,0.5635
3308.00,0.5622
3307.00,0.5609
3306.00,0.5596
3305.00,0.5583
3304.00,0.5571
3303.00,0.5559
3302.00,0.5548
3301.00,0.5537
3300.00,0.5525
3299.00,0.5515
3298.00,0.5505
3297.00,0.5496
3296.00,0.5488
3295.00,0.5480
3294.00,0.5471
3293.00,0.5462
3292.00,0.5455
3291.00,0.5448
3290.00,0.5443
3289.00,0.5439
3288.00,0.5434
3287.00,0.5430
3286.00,0.5427
3285.00,0.5424
3284.00,0.5423
3283.00,0.5422
3282.00,0.5422
3281.00,0.5423
3280.00,0.5423
3279.00,0.5424
3278.00,0.5425
3277.00,0.5427
3276.00,0.5429
3275.00,0.5432
3274.00,0.5436
3273.00,0.5440
3272.00,0.5446
3271.00,0.5452
3270.00,0.5458
3269.00,0.5463
3268.00,0.5469
3267.00,0.5473
3266.00,0.5479
3265.00,0.5485
3264.00,0.5493
3263.00,0.5501
3262.00,0.5509
3261.00,0.5517
3260.00,0.5524
3259.00,0.5531
3258.00,0.5537
3257.00,0.5543
3256.00,0.5550
3255.00,0.5557
3254.00,0.5563
3253.00,0.5570
3252.00,0.5576
3251.00,0.5583
3250.00,0.5588
3249.00,0.5594
3248.00,0.5599
3247.00,0.5604
3246.00,0.5608
3245.00,0.5611
3244.00,0.5614
3243.00,0.5617
3242.00,0.5620
3241.00,0.5623
3240.00,0.5626
3239.00,0.5628
3238.00,0.5631
3237.00,0.5634
3236.00,0.5635
3235.00,0.5636
3234.00,0.5635
3233.00,0.5633
3232.00,0.5630
3231.00,0.5628
3230.00,0.5625
3229.00,0.5623
3228.00,0.5620
3227.00,0.5616
3226.00,0.5611
3225.00,0.5607
3224.00,0.5602
3223.00,0.5597
3222.00,0.5592
3221.00,0.5587
3220.00,0.5582
3219.00,0.5575
3218.00,0.5569
3217.00,0.5562
3216.00,0.5555
3215.00,0.5548
3214.00,0.5541
3213.00,0.5533
3212.00,0.5525
3211.00,0.5517
3210.00,0.5509
3209.00,0.5501
3208.00,0.5493
3207.00,0.5486
3206.00,0.5478
3205.00,0.5471
3204.00,0.5463
3203.00,0.5455
3202.00,0.5447
3201.00,0.5438
3200.00,0.5429
3199.00,0.5420
3198.00,0.5411
3197.00,0.5402
3196.00,0.5394
3195.00,0.5385
3194.00,0.5376
3193.00,0.5366
3192.00,0.5356
3191.00,0.5346
3190.00,0.5336
3189.00,0.5326
3188.00,0.5315
3187.00,0.5304
3186.00,0.5294
3185.00,0.5283
3184.00,0.5272
3183.00,0.5262
3182.00,0.5250
3181.00,0.5239
3180.00,0.5228
3179.00,0.5217
3178.00,0.5206
3177.00,0.5195
3176.00,0.5183
3175.00,0.5171
3174.00,0.5160
3173.00,0.5149
3172.00,0.5139
3171.00,0.5128
3170.00,0.5117
3169.00,0.5105
3168.00,0.5094
3167.00,0.5083
3166.00,0.5072
3165.00,0.5060
3164.00,0.5049
3163.00,0.5037
3162.00,0.5024
3161.00,0.5013
3160.00,0.5001
3159.00,0.4990
3158.00,0.4979
3157.00,0.4969
3156.00,0.4958
3155.00,0.4947
3154.00,0.4936
3153.00,0.4925
3152.00,0.4915
3151.00,0.4905
3150.00,0.4895
3149.00,0.4885
3148.00,0.4875
3147.00,0.4865
3146.00,0.4855
3145.00,0.4846
3144.00,0.4837
3143.00,0.4829
3142.00,0.4821
3141.00,0.4813
3140.00,0.4805
3139.00,0.4799
3138.00,0.4793
3137.00,0.4787
3136.00,0.4780
3135.00,0.4774
3134.00,0.4768
3133.00,0.4763
3132.00,0.4758
3131.00,0.4753
3130.00,0.4748
3129.00,0.4744
3128.00,0.4742
3127.00,0.4740
3126.00,0.4738
3125.00,0.4737
3124.00,0.4735
3123.00,0.4734
3122.00,0.4733
3121.00,0.4732
3120.00,0.4731
3119.00,0.4731
3118.00,0.4732
3117.00,0.4733
3116.00,0.4735
3115.00,0.4738
3114.00,0.4741
3113.00,0.4744
3112.00,0.4748
3111.00,0.4752
3110.00,0.4758
3109.00,0.4764
3108.00,0.4772
3107.00,0.4779
3106.00,0.4786
3105.00,0.4792
3104.00,0.4799
3103.00,0.4806
3102.00,0.4813
3101.00,0.4820
3100.00,0.4828
3099.00,0.4837
3098.00,0.4847
3097.00,0.4859
3096.00,0.4871
3095.00,0.4884
3094.00,0.4898
3093.00,0.4914
3092.00,0.4932
3091.00,0.4952
3090.00,0.4973
3089.00,0.4996
3088.00,0.5021
3087.00,0.5047
3086.00,0.5074
3085.00,0.5103
3084.00,0.5132
3083.00,0.5162
3082.00,0.5195
3081.00,0.5229
3080.00,0.5266
3079.00,0.5304
3078.00,0.5345
3077.00,0.5387
3076.00,0.5431
3075.00,0.5475
3074.00,0.5519
3073.00,0.5564
3072.00,0.5608
3071.00,0.5652
3070.00,0.5696
3069.00,0.5741
3068.00,0.5787
3067.00,0.5833
3066.00,0.5877
3065.00,0.5920
3064.00,0.5961
3063.00,0.5998
3062.00,0.6031
3061.00,0.6061
3060.00,0.6088
3059.00,0.6114
3058.00,0.6139
3057.00,0.6166
3056.00,0.6194
3055.00,0.6225
3054.00,0.6258
3053.00,0.6293
3052.00,0.6329
3051.00,0.6367
3050.00,0.6408
3049.00,0.6450
3048.00,0.6494
3047.00,0.6541
3046.00,0.6588
3045.00,0.6636
3044.00,0.6684
3043.00,0.6732
3042.00,0.6779
3041.00,0.6827
3040.00,0.6874
3039.00,0.6922
3038.00,0.6972
3037.00,0.7025
3036.00,0.7081
3035.00,0.7140
3034.00,0.7205
3033.00,0.7274
3032.00,0.7349
3031.00,0.7429
3030.00,0.7513
3029.00,0.7602
3028.00,0.7695
3027.00,0.7792
3026.00,0.7891
3025.00,0.7993
3024.00,0.8098
3023.00,0.8206
3022.00,0.8318
3021.00,0.8433
3020.00,0.8552
3019.00,0.8673
3018.00,0.8798
3017.00,0.8923
3016.00,0.9049
3015.00,0.9174
3014.00,0.9300
3013.00,0.9428
3012.00,0.9558
3011.00,0.9692
3010.00,0.9833
3009.00,0.9981
3008.00,1.0136
3007.00,1.0298
3006.00,1.0465
3005.00,1.0637
3004.00,1.0813
3003.00,1.0993
3002.00,1.1179
3001.00,1.1372
3000.00,1.1573
2999.00,1.1786
2998.00,1.2015
2997.00,1.2267
2996.00,1.2546
2995.00,1.2856
2994.00,1.3201
2993.00,1.3584
2992.00,1.4009
2991.00,1.4484
2990.00,1.5017
2989.00,1.5614
2988.00,1.6282
2987.00,1.7025
2986.00,1.7849
2985.00,1.8760
2984.00,1.9764
2983.00,2.0874
2982.00,2.2093
2981.00,2.3419
2980.00,2.4844
2979.00,2.6391
2978.00,2.8113
2977.00,3.0016
2976.00,3.1972
2975.00,3.3716
2974.00,3.5141
2973.00,3.6478
2972.00,3.8299
2971.00,4.1541
2970.00,4.4600
2969.00,4.3822
2968.00,4.2492
2967.00,4.1787
2966.00,4.0852
2965.00,3.9228
2964.00,3.8431
2963.00,3.8392
2962.00,3.8554
2961.00,3.8734
2960.00,3.8923
2959.00,3.9145
2958.00,3.9245
2957.00,3.9170
2956.00,3.9812
2955.00,4.2019
2954.00,4.2726
2953.00,4.0444
2952.00,3.8595
2951.00,3.8314
2950.00,3.9114
2949.00,4.0270
2948.00,4.1404
2947.00,4.2925
2946.00,4.5801
2945.00,4.5238
2944.00,4.2418
2943.00,4.0243
2942.00,3.9731
2941.00,4.0433
2940.00,4.2216
2939.00,4.2735
2938.00,4.0969
2937.00,3.9478
2936.00,3.9160
2935.00,3.9600
2934.00,4.0431
2933.00,4.2024
2932.00,4.3085
2931.00,4.2224
2930.00,4.0695
2929.00,3.9528
2928.00,3.9279
2927.00,4.0008
2926.00,4.1651
2925.00,4.3763
2924.00,4.6654
2923.00,4.8945
2922.00,4.3531
2921.00,4.0287
2920.00,3.9125
2919.00,4.0442
2918.00,4.4434
2917.00,4.7757
2916.00,4.5015
2915.00,4.3021
2914.00,4.2982
2913.00,4.1655
2912.00,3.9645
2911.00,3.8375
2910.00,3.8355
2909.00,3.9558
2908.00,4.1835
2907.00,4.4817
2906.00,4.5603
2905.00,4.5267
2904.00,4.4842
2903.00,4.2610
2902.00,4.0465
2901.00,3.8973
2900.00,3.8026
2899.00,3.7492
2898.00,3.7563
2897.00,3.8344
2896.00,3.9294
2895.00,3.9821
2894.00,4.0037
2893.00,4.0119
2892.00,4.0048
2891.00,3.9739
2890.00,4.0148
2889.00,4.2551
2888.00,4.4522
2887.00,4.2172
2886.00,4.0185
2885.00,4.0126
2884.00,4.1178
2883.00,4.1920
2882.00,4.1883
2881.00,4.1143
2880.00,4.0712
2879.00,4.0973
2878.00,4.0941
2877.00,4.0675
2876.00,4.1032
2875.00,4.2041
2874.00,4.2769
2873.00,4.1837
2872.00,4.0321
2871.00,3.9431
2870.00,3.9324
2869.00,3.9940
2868.00,4.1213
2867.00,4.3227
2866.00,4.5692
2865.00,4.6009
2864.00,4.2961
2863.00,4.0114
2862.00,3.8831
2861.00,3.9345
2860.00,4.2193
2859.00,4.8069
2858.00,4.5949
2857.00,4.0938
2856.00,3.8897
2855.00,3.9159
2854.00,4.1522
2853.00,4.6440
2852.00,4.8582
2851.00,4.3505
2850.00,4.0686
2849.00,3.9420
2848.00,3.9633
2847.00,4.1101
2846.00,4.2587
2845.00,4.3010
2844.00,4.2612
2843.00,4.2618
2842.00,4.3685
2841.00,4.3350
2840.00,4.0401
2839.00,3.7067
2838.00,3.4325
2837.00,3.2119
2836.00,3.0240
2835.00,2.8541
2834.00,2.6834
2833.00,2.5115
2832.00,2.3503
2831.00,2.2075
2830.00,2.0831
2829.00,1.9734
2828.00,1.8751
2827.00,1.7866
2826.00,1.7068
2825.00,1.6346
2824.00,1.5690
2823.00,1.5090
2822.00,1.4539
2821.00,1.4033
2820.00,1.3566
2819.00,1.3135
2818.00,1.2735
2817.00,1.2361
2816.00,1.2010
2815.00,1.1684
2814.00,1.1383
2813.00,1.1103
2812.00,1.0839
2811.00,1.0589
2810.00,1.0349
2809.00,1.0119
2808.00,0.9901
2807.00,0.9695
2806.00,0.9501
2805.00,0.9317
2804.00,0.9143
2803.00,0.8978
2802.00,0.8821
2801.00,0.8670
2800.00,0.8525
2799.00,0.8385
2798.00,0.8252
2797.00,0.8126
2796.00,0.8004
2795.00,0.7887
2794.00,0.7774
2793.00,0.7664
2792.00,0.7558
2791.00,0.7454
2790.00,0.7352
2789.00,0.7254
2788.00,0.7157
2787.00,0.7063
2786.00,0.6970
2785.00,0.6879
2784.00,0.6791
2783.00,0.6706
2782.00,0.6624
2781.00,0.6546
2780.00,0.6471
2779.00,0.6399
2778.00,0.6330
2777.00,0.6265
2776.00,0.6203
2775.00,0.6145
2774.00,0.6090
2773.00,0.6039
2772.00,0.5992
2771.00,0.5948
2770.00,0.5907
2769.00,0.5870
2768.00,0.5835
2767.00,0.5804
2766.00,0.5776
2765.00,0.5753
2764.00,0.5732
2763.00,0.5713
2762.00,0.5697
2761.00,0.5682
2760.00,0.5668
2759.00,0.5656
2758.00,0.5644
2757.00,0.5633
2756.00,0.5622
2755.00,0.5612
2754.00,0.5603
2753.00,0.5595
2752.00,0.5590
2751.00,0.5586
2750.00,0.5585
2749.00,0.5586
2748.00,0.5588
2747.00,0.5592
2746.00,0.5600
2745.00,0.5610
2744.00,0.5623
2743.00,0.5639
2742.00,0.5659
2741.00,0.5684
2740.00,0.5713
2739.00,0.5747
2738.00,0.5785
2737.00,0.5829
2736.00,0.5877
2735.00,0.5930
2734.00,0.5985
2733.00,0.6039
2732.00,0.6089
2731.00,0.6130
2730.00,0.6159
2729.00,0.6177
2728.00,0.6183
2727.00,0.6179
2726.00,0.6167
2725.00,0.6150
2724.00,0.6128
2723.00,0.6103
2722.00,0.6074
2721.00,0.6042
2720.00,0.6008
2719.00,0.5972
2718.00,0.5932
2717.00,0.5890
2716.00,0.5845
2715.00,0.5798
2714.00,0.5751
2713.00,0.5704
2712.00,0.5661
2711.00,0.5620
2710.00,0.5584
2709.00,0.5553
2708.00,0.5526
2707.00,0.5503
2706.00,0.5484
2705.00,0.5469
2704.00,0.5455
2703.00,0.5445
2702.00,0.5438
2701.00,0.5433
2700.00,0.5431
2699.00,0.5431
2698.00,0.5432
2697.00,0.5436
2696.00,0.5442
2695.00,0.5448
2694.00,0.5456
2693.00,0.5464
2692.00,0.5474
2691.00,0.5483
2690.00,0.5492
2689.00,0.5499
2688.00,0.5506
2687.00,0.5512
2686.00,0.5518
2685.00,0.5523
2684.00,0.5527
2683.00,0.5531
2682.00,0.5533
2681.00,0.5536
2680.00,0.5538
2679.00,0.5539
2678.00,0.5542
2677.00,0.5545
2676.00,0.5550
2675.00,0.5554
2674.00,0.5558
2673.00,0.5561
2672.00,0.5563
2671.00,0.5562
2670.00,0.5558
2669.00,0.5552
2668.00,0.5543
2667.00,0.5532
2666.00,0.5519
2665.00,0.5504
2664.00,0.5486
2663.00,0.5468
2662.00,0.5448
2661.00,0.5428
2660.00,0.5408
2659.00,0.5387
2658.00,0.5366
2657.00,0.5345
2656.00,0.5325
2655.00,0.5305
2654.00,0.5286
2653.00,0.5268
2652.00,0.5250
2651.00,0.5232
2650.00,0.5215
2649.00,0.5199
2648.00,0.5184
2647.00,0.5169
2646.00,0.5156
2645.00,0.5143
2644.00,0.5130
2643.00,0.5118
2642.00,0.5107
2641.00,0.5096
2640.00,0.5085
2639.00,0.5075
2638.00,0.5066
2637.00,0.5058
2636.00,0.5050
2635.00,0.5042
2634.00,0.5033
2633.00,0.5025
2632.00,0.5016
2631.00,0.5007
2630.00,0.4997
2629.00,0.4988
2628.00,0.4979
2627.00,0.4971
2626.00,0.4963
2625.00,0.4953
2624.00,0.4943
2623.00,0.4933
2622.00,0.4924
2621.00,0.4914
2620.00,0.4905
2619.00,0.4895
2618.00,0.4886
2617.00,0.4877
2616.00,0.4867
2615.00,0.4858
2614.00,0.4848
2613.00,0.4837
2612.00,0.4827
2611.00,0.4816
2610.00,0.4807
2609.00,0.4797
2608.00,0.4788
2607.00,0.4780
2606.00,0.4771
2605.00,0.4762
2604.00,0.4752
2603.00,0.4742
2602.00,0.4730
2601.00,0.4719
2600.00,0.4707
2599.00,0.4694
2598.00,0.4681
2597.00,0.4667
2596.00,0.4652
2595.00,0.4636
2594.00,0.4620
2593.00,0.4605
2592.00,0.4589
2591.00,0.4572
2590.00,0.4556
2589.00,0.4540
2588.00,0.4523
2587.00,0.4507
2586.00,0.4490
2585.00,0.4472
2584.00,0.4455
2583.00,0.4437
2582.00,0.4419
2581.00,0.4401
2580.00,0.4383
2579.00,0.4364
2578.00,0.4346
2577.00,0.4329
2576.00,0.4311
2575.00,0.4295
2574.00,0.4278
2573.00,0.4262
2572.00,0.4247
2571.00,0.4231
2570.00,0.4216
2569.00,0.4201
2568.00,0.4186
2567.00,0.4172
2566.00,0.4158
2565.00,0.4145
2564.00,0.4131
2563.00,0.4117
2562.00,0.4103
2561.00,0.4089
2560.00,0.4076
2559.00,0.4063
2558.00,0.4051
2557.00,0.4039
2556.00,0.4028
2555.00,0.4017
2554.00,0.4006
2553.00,0.3995
2552.00,0.3983
2551.00,0.3972
2550.00,0.3960
2549.00,0.3950
2548.00,0.3940
2547.00,0.3930
2546.00,0.3921
2545.00,0.3912
2544.00,0.3903
2543.00,0.3894
2542.00,0.3886
2541.00,0.3877
2540.00,0.3869
2539.00,0.3862
2538.00,0.3855
2537.00,0.3849
2536.00,0.3843
2535.00,0.3837
2534.00,0.3831
2533.00,0.3825
2532.00,0.3818
2531.00,0.3811
2530.00,0.3803
2529.00,0.3794
2528.00,0.3785
2527.00,0.3776
2526.00,0.3767
2525.00,0.3757
2524.00,0.3747
2523.00,0.3737
2522.00,0.3727
2521.00,0.3717
2520.00,0.3708
2519.00,0.3699
2518.00,0.3690
2517.00,0.3682
2516.00,0.3675
2515.00,0.3667
2514.00,0.3658
2513.00,0.3650
2512.00,0.3641
2511.00,0.3633
2510.00,0.3626
2509.00,0.3620
2508.00,0.3614
2507.00,0.3608
2506.00,0.3603
2505.00,0.3598
2504.00,0.3592
2503.00,0.3587
2502.00,0.3582
2501.00,0.3577
2500.00,0.3573
2499.00,0.3570
2498.00,0.3566
2497.00,0.3562
2496.00,0.3558
2495.00,0.3555
2494.00,0.3552
2493.00,0.3548
2492.00,0.3545
2491.00,0.3541
2490.00,0.3537
2489.00,0.3533
2488.00,0.3529
2487.00,0.3525
2486.00,0.3521
2485.00,0.3517
2484.00,0.3513
2483.00,0.3509
2482.00,0.3504
2481.00,0.3500
2480.00,0.3496
2479.00,0.3492
2478.00,0.3489
2477.00,0.3485
2476.00,0.3482
2475.00,0.3479
2474.00,0.3475
2473.00,0.3473
2472.00,0.3470
2471.00,0.3466
2470.00,0.3463
2469.00,0.3460
2468.00,0.3457
2467.00,0.3454
2466.00,0.3452
2465.00,0.3449
2464.00,0.3447
2463.00,0.3444
2462.00,0.3441
2461.00,0.3439
2460.00,0.3437
2459.00,0.3435
2458.00,0.3433
2457.00,0.3431
2456.00,0.3429
2455.00,0.3428
2454.00,0.3426
2453.00,0.3425
2452.00,0.3424
2451.00,0.3423
2450.00,0.3422
2449.00,0.3421
2448.00,0.3421
2447.00,0.3420
2446.00,0.3419
2445.00,0.3418
2444.00,0.3418
2443.00,0.3418
2442.00,0.3418
2441.00,0.3418
2440.00,0.3418
2439.00,0.3418
2438.00,0.3418
2437.00,0.3419
2436.00,0.3419
2435.00,0.3420
2434.00,0.3420
2433.00,0.3421
2432.00,0.3422
2431.00,0.3424
2430.00,0.3425
2429.00,0.3425
2428.00,0.3426
2427.00,0.3427
2426.00,0.3428
2425.00,0.3429
2424.00,0.3430
2423.00,0.3431
2422.00,0.3432
2421.00,0.3434
2420.00,0.3434
2419.00,0.3435
2418.00,0.3435
2417.00,0.3435
2416.00,0.3435
2415.00,0.3435
2414.00,0.3435
2413.00,0.3436
2412.00,0.3436
2411.00,0.3437
2410.00,0.3437
2409.00,0.3436
2408.00,0.3436
2407.00,0.3435
2406.00,0.3434
2405.00,0.3433
2404.00,0.3432
2403.00,0.3432
2402.00,0.3431
2401.00,0.3430
2400.00,0.3429
2399.00,0.3427
2398.00,0.3426
2397.00,0.3424
2396.00,0.3423
2395.00,0.3422
2394.00,0.3421
2393.00,0.3420
2392.00,0.3419
2391.00,0.3418
2390.00,0.3417
2389.00,0.3417
2388.00,0.3417
2387.00,0.3417
2386.00,0.3416
2385.00,0.3417
2384.00,0.3418
2383.00,0.3418
2382.00,0.3418
2381.00,0.3418
2380.00,0.3418
2379.00,0.3418
2378.00,0.3418
2377.00,0.3418
2376.00,0.3418
2375.00,0.3417
2374.00,0.3416
2373.00,0.3415
2372.00,0.3414
2371.00,0.3413
2370.00,0.3412
2369.00,0.3411
2368.00,0.3410
2367.00,0.3410
2366.00,0.3410
2365.00,0.3411
2364.00,0.3411
2363.00,0.3411
2362.00,0.3411
2361.00,0.3410
2360.00,0.3410
2359.00,0.3409
2358.00,0.3408
2357.00,0.3407
2356.00,0.3406
2355.00,0.3406
2354.00,0.3405
2353.00,0.3404
2352.00,0.3403
2351.00,0.3402
2350.00,0.3401
2349.00,0.3400
2348.00,0.3399
2347.00,0.3398
2346.00,0.3398
2345.00,0.3398
2344.00,0.3396
2343.00,0.3394
2342.00,0.3392
2341.00,0.3390
2340.00,0.3389
2339.00,0.3387
2338.00,0.3385
2337.00,0.3385
2336.00,0.3384
2335.00,0.3383
2334.00,0.3381
2333.00,0.3380
2332.00,0.3377
2331.00,0.3375
2330.00,0.3372
2329.00,0.3369
2328.00,0.3368
2327.00,0.3365
2326.00,0.3363
2325.00,0.3360
2324.00,0.3358
2323.00,0.3357
2322.00,0.3355
2321.00,0.3353
2320.00,0.3351
2319.00,0.3348
2318.00,0.3344
2317.00,0.3341
2316.00,0.3338
2315.00,0.3336
2314.00,0.3333
2313.00,0.3330
2312.00,0.3327
2311.00,0.3323
2310.00,0.3320
2309.00,0.3316
2308.00,0.3312
2307.00,0.3308
2306.00,0.3304
2305.00,0.3301
2304.00,0.3298
2303.00,0.3294
2302.00,0.3291
2301.00,0.3288
2300.00,0.3285
2299.00,0.3282
2298.00,0.3279
2297.00,0.3276
2296.00,0.3273
2295.00,0.3270
2294.00,0.3267
2293.00,0.3265
2292.00,0.3262
2291.00,0.3259
2290.00,0.3256
2289.00,0.3253
2288.00,0.3251
2287.00,0.3249
2286.00,0.3247
2285.00,0.3244
2284.00,0.3241
2283.00,0.3237
2282.00,0.3234
2281.00,0.3230
2280.00,0.3227
2279.00,0.3224
2278.00,0.3221
2277.00,0.3217
2276.00,0.3214
2275.00,0.3211
2274.00,0.3207
2273.00,0.3204
2272.00,0.3201
2271.00,0.3199
2270.00,0.3197
2269.00,0.3196
2268.00,0.3194
2267.00,0.3192
2266.00,0.3190
2265.00,0.3187
2264.00,0.3185
2263.00,0.3183
2262.00,0.3181
2261.00,0.3180
2260.00,0.3178
2259.00,0.3176
2258.00,0.3173
2257.00,0.3170
2256.00,0.3167
2255.00,0.3164
2254.00,0.3161
2253.00,0.3158
2252.00,0.3156
2251.00,0.3153
2250.00,0.3150
2249.00,0.3148
2248.00,0.3146
2247.00,0.3144
2246.00,0.3142
2245.00,0.3140
2244.00,0.3137
2243.00,0.3135
2242.00,0.3132
2241.00,0.3130
2240.00,0.3128
2239.00,0.3126
2238.00,0.3124
2237.00,0.3123
2236.00,0.3121
2235.00,0.3119
2234.00,0.3118
2233.00,0.3116
2232.00,0.3115
2231.00,0.3114
2230.00,0.3113
2229.00,0.3112
2228.00,0.3111
2227.00,0.3110
2226.00,0.3109
2225.00,0.3108
2224.00,0.3107
2223.00,0.3106
2222.00,0.3105
2221.00,0.3104
2220.00,0.3103
2219.00,0.3102
2218.00,0.3100
2217.00,0.3100
2216.00,0.3100
2215.00,0.3099
2214.00,0.3098
2213.00,0.3098
2212.00,0.3097
2211.00,0.3096
2210.00,0.3096
2209.00,0.3095
2208.00,0.3094
2207.00,0.3093
2206.00,0.3092
2205.00,0.3092
2204.00,0.3091
2203.00,0.3091
2202.00,0.3090
2201.00,0.3089
2200.00,0.3089
2199.00,0.3089
2198.00,0.3090
2197.00,0.3090
2196.00,0.3090
2195.00,0.3090
2194.00,0.3090
2193.00,0.3091
2192.00,0.3091
2191.00,0.3092
2190.00,0.3092
2189.00,0.3093
2188.00,0.3093
2187.00,0.3093
2186.00,0.3093
2185.00,0.3092
2184.00,0.3091
2183.00,0.3090
2182.00,0.3089
2181.00,0.3087
2180.00,0.3087
2179.00,0.3086
2178.00,0.3084
2177.00,0.3083
2176.00,0.3082
2175.00,0.3080
2174.00,0.3078
2173.00,0.3076
2172.00,0.3074
2171.00,0.3073
2170.00,0.3071
2169.00,0.3070
2168.00,0.3069
2167.00,0.3068
2166.00,0.3067
2165.00,0.3066
2164.00,0.3065
2163.00,0.3063
2162.00,0.3062
2161.00,0.3060
2160.00,0.3058
2159.00,0.3057
2158.00,0.3056
2157.00,0.3055
2156.00,0.3054
2155.00,0.3053
2154.00,0.3052
2153.00,0.3051
2152.00,0.3049
2151.00,0.3048
2150.00,0.3045
2149.00,0.3042
2148.00,0.3038
2147.00,0.3034
2146.00,0.3030
2145.00,0.3026
2144.00,0.3022
2143.00,0.3016
2142.00,0.3011
2141.00,0.3006
2140.00,0.3001
2139.00,0.2997
2138.00,0.2993
2137.00,0.2989
2136.00,0.2986
2135.00,0.2983
2134.00,0.2980
2133.00,0.2977
2132.00,0.2975
2131.00,0.2973
2130.00,0.2972
2129.00,0.2971
2128.00,0.2970
2127.00,0.2969
2126.00,0.2968
2125.00,0.2967
2124.00,0.2966
2123.00,0.2965
2122.00,0.2965
2121.00,0.2964
2120.00,0.2963
2119.00,0.2962
2118.00,0.2961
2117.00,0.2960
2116.00,0.2959
2115.00,0.2957
2114.00,0.2955
2113.00,0.2954
2112.00,0.2953
2111.00,0.2952
2110.00,0.2951
2109.00,0.2949
2108.00,0.2948
2107.00,0.2947
2106.00,0.2945
2105.00,0.2944
2104.00,0.2942
2103.00,0.2941
2102.00,0.2940
2101.00,0.2939
2100.00,0.2939
2099.00,0.2938
2098.00,0.2937
2097.00,0.2936
2096.00,0.2935
2095.00,0.2935
2094.00,0.2935
2093.00,0.2936
2092.00,0.2936
2091.00,0.2937
2090.00,0.2937
2089.00,0.2937
2088.00,0.2937
2087.00,0.2937
2086.00,0.2937
2085.00,0.2937
2084.00,0.2938
2083.00,0.2938
2082.00,0.2938
2081.00,0.2938
2080.00,0.2938
2079.00,0.2938
2078.00,0.2937
2077.00,0.2937
2076.00,0.2937
2075.00,0.2937
2074.00,0.2937
2073.00,0.2937
2072.00,0.2937
2071.00,0.2936
2070.00,0.2936
2069.00,0.2936
2068.00,0.2937
2067.00,0.2939
2066.00,0.2939
2065.00,0.2940
2064.00,0.2940
2063.00,0.2940
2062.00,0.2941
2061.00,0.2942
2060.00,0.2944
2059.00,0.2945
2058.00,0.2946
2057.00,0.2947
2056.00,0.2950
2055.00,0.2952
2054.00,0.2954
2053.00,0.2956
2052.00,0.2958
2051.00,0.2959
2050.00,0.2961
2049.00,0.2964
2048.00,0.2966
2047.00,0.2968
2046.00,0.2970
2045.00,0.2971
2044.00,0.2972
2043.00,0.2974
2042.00,0.2975
2041.00,0.2976
2040.00,0.2977
2039.00,0.2977
2038.00,0.2977
2037.00,0.2977
2036.00,0.2977
2035.00,0.2977
2034.00,0.2978
2033.00,0.2978
2032.00,0.2978
2031.00,0.2978
2030.00,0.2977
2029.00,0.2976
2028.00,0.2975
2027.00,0.2974
2026.00,0.2973
2025.00,0.2972
2024.00,0.2971
2023.00,0.2970
2022.00,0.2968
2021.00,0.2965
2020.00,0.2962
2019.00,0.2958
2018.00,0.2953
2017.00,0.2947
2016.00,0.2941
2015.00,0.2935
2014.00,0.2929
2013.00,0.2923
2012.00,0.2918
2011.00,0.2913
2010.00,0.2909
2009.00,0.2905
2008.00,0.2901
2007.00,0.2897
2006.00,0.2894
2005.00,0.2891
2004.00,0.2887
2003.00,0.2884
2002.00,0.2882
2001.00,0.2879
2000.00,0.2878
1999.00,0.2876
1998.00,0.2874
1997.00,0.2871
1996.00,0.2869
1995.00,0.2868
1994.00,0.2867
1993.00,0.2867
1992.00,0.2866
1991.00,0.2864
1990.00,0.2862
1989.00,0.2861
1988.00,0.2860
1987.00,0.2859
1986.00,0.2858
1985.00,0.2859
1984.00,0.2859
1983.00,0.2859
1982.00,0.2858
1981.00,0.2858
1980.00,0.2858
1979.00,0.2858
1978.00,0.2858
1977.00,0.2858
1976.00,0.2858
1975.00,0.2858
1974.00,0.2857
1973.00,0.2858
1972.00,0.2858
1971.00,0.2858
1970.00,0.2858
1969.00,0.2859
1968.00,0.2860
1967.00,0.2860
1966.00,0.2859
1965.00,0.2859
1964.00,0.2858
1963.00,0.2858
1962.00,0.2859
1961.00,0.2859
1960.00,0.2859
1959.00,0.2859
1958.00,0.2860
1957.00,0.2861
1956.00,0.2863
1955.00,0.2864
1954.00,0.2865
1953.00,0.2866
1952.00,0.2866
1951.00,0.2866
1950.00,0.2867
1949.00,0.2867
1948.00,0.2869
1947.00,0.2871
1946.00,0.2873
1945.00,0.2876
1944.00,0.2881
1943.00,0.2887
1942.00,0.2892
1941.00,0.2897
1940.00,0.2902
1939.00,0.2907
1938.00,0.2910
1937.00,0.2911
1936.00,0.2911
1935.00,0.2910
1934.00,0.2908
1933.00,0.2907
1932.00,0.2906
1931.00,0.2905
1930.00,0.2905
1929.00,0.2906
1928.00,0.2906
1927.00,0.2906
1926.00,0.2906
1925.00,0.2908
1924.00,0.2911
1923.00,0.2913
1922.00,0.2915
1921.00,0.2917
1920.00,0.2920
1919.00,0.2925
1918.00,0.2929
1917.00,0.2932
1916.00,0.2934
1915.00,0.2936
1914.00,0.2938
1913.00,0.2939
1912.00,0.2940
1911.00,0.2941
1910.00,0.2942
1909.00,0.2943
1908.00,0.2944
1907.00,0.2945
1906.00,0.2945
1905.00,0.2945
1904.00,0.2946
1903.00,0.2946
1902.00,0.2947
1901.00,0.2948
1900.00,0.2949
1899.00,0.2950
1898.00,0.2951
1897.00,0.2953
1896.00,0.2955
1895.00,0.2956
1894.00,0.2956
1893.00,0.2956
1892.00,0.2957
1891.00,0.2959
1890.00,0.2960
1889.00,0.2960
1888.00,0.2960
1887.00,0.2960
1886.00,0.2961
1885.00,0.2961
1884.00,0.2961
1883.00,0.2961
1882.00,0.2960
1881.00,0.2959
1880.00,0.2959
1879.00,0.2958
1878.00,0.2956
1877.00,0.2955
1876.00,0.2953
1875.00,0.2951
1874.00,0.2948
1873.00,0.2946
1872.00,0.2944
1871.00,0.2943
1870.00,0.2942
1869.00,0.2941
1868.00,0.2939
1867.00,0.2937
1866.00,0.2936
1865.00,0.2936
1864.00,0.2936
1863.00,0.2934
1862.00,0.2932
1861.00,0.2929
1860.00,0.2927
1859.00,0.2924
1858.00,0.2920
1857.00,0.2917
1856.00,0.2914
1855.00,0.2911
1854.00,0.2908
1853.00,0.2906
1852.00,0.2903
1851.00,0.2901
1850.00,0.2900
1849.00,0.2898
1848.00,0.2895
1847.00,0.2891
1846.00,0.2889
1845.00,0.2888
1844.00,0.2886
1843.00,0.2884
1842.00,0.2882
1841.00,0.2883
1840.00,0.2884
1839.00,0.2884
1838.00,0.2883
1837.00,0.2883
1836.00,0.2882
1835.00,0.2881
1834.00,0.2879
1833.00,0.2876
1832.00,0.2875
1831.00,0.2875
1830.00,0.2874
1829.00,0.2872
1828.00,0.2871
1827.00,0.2872
1826.00,0.2874
1825.00,0.2875
1824.00,0.2876
1823.00,0.2875
1822.00,0.2874
1821.00,0.2875
1820.00,0.2875
1819.00,0.2876
1818.00,0.2876
1817.00,0.2876
1816.00,0.2876
1815.00,0.2876
1814.00,0.2876
1813.00,0.2878
1812.00,0.2880
1811.00,0.2881
1810.00,0.2881
1809.00,0.2883
1808.00,0.2885
1807.00,0.2888
1806.00,0.2891
1805.00,0.2895
1804.00,0.2901
1803.00,0.2906
1802.00,0.2911
1801.00,0.2916
1800.00,0.2922
1799.00,0.2929
1798.00,0.2936
1797.00,0.2942
1796.00,0.2945
1795.00,0.2947
1794.00,0.2949
1793.00,0.2953
1792.00,0.2958
1791.00,0.2963
1790.00,0.2967
1789.00,0.2972
1788.00,0.2977
1787.00,0.2982
1786.00,0.2985
1785.00,0.2988
1784.00,0.2990
1783.00,0.2992
1782.00,0.2996
1781.00,0.3000
1780.00,0.3005
1779.00,0.3008
1778.00,0.3012
1777.00,0.3015
1776.00,0.3018
1775.00,0.3020
1774.00,0.3024
1773.00,0.3029
1772.00,0.3034
1771.00,0.3038
1770.00,0.3045
1769.00,0.3056
1768.00,0.3067
1767.00,0.3074
1766.00,0.3079
1765.00,0.3085
1764.00,0.3094
1763.00,0.3104
1762.00,0.3114
1761.00,0.3124
1760.00,0.3136
1759.00,0.3149
1758.00,0.3164
1757.00,0.3181
1756.00,0.3197
1755.00,0.3213
1754.00,0.3232
1753.00,0.3256
1752.00,0.3282
1751.00,0.3309
1750.00,0.3336
1749.00,0.3365
1748.00,0.3395
1747.00,0.3425
1746.00,0.3454
1745.00,0.3482
1744.00,0.3508
1743.00,0.3528
1742.00,0.3543
1741.00,0.3558
1740.00,0.3570
1739.00,0.3576
1738.00,0.3577
1737.00,0.3578
1736.00,0.3581
1735.00,0.3583
1734.00,0.3581
1733.00,0.3575
1732.00,0.3570
1731.00,0.3566
1730.00,0.3560
1729.00,0.3554
1728.00,0.3547
1727.00,0.3540
1726.00,0.3536
1725.00,0.3536
1724.00,0.3538
1723.00,0.3541
1722.00,0.3544
1721.00,0.3550
1720.00,0.3561
1719.00,0.3580
1718.00,0.3603
1717.00,0.3630
1716.00,0.3659
1715.00,0.3690
1714.00,0.3726
1713.00,0.3765
1712.00,0.3805
1711.00,0.3843
1710.00,0.3877
1709.00,0.3905
1708.00,0.3923
1707.00,0.3931
1706.00,0.3930
1705.00,0.3915
1704.00,0.3890
1703.00,0.3859
1702.00,0.3823
1701.00,0.3777
1700.00,0.3726
1699.00,0.3684
1698.00,0.3659
1697.00,0.3642
1696.00,0.3620
1695.00,0.3591
1694.00,0.3566
1693.00,0.3549
1692.00,0.3539
1691.00,0.3529
1690.00,0.3519
1689.00,0.3508
1688.00,0.3498
1687.00,0.3491
1686.00,0.3485
1685.00,0.3479
1684.00,0.3469
1683.00,0.3458
1682.00,0.3456
1681.00,0.3459
1680.00,0.3461
1679.00,0.3457
1678.00,0.3451
1677.00,0.3447
1676.00,0.3446
1675.00,0.3446
1674.00,0.3446
1673.00,0.3449
1672.00,0.3453
1671.00,0.3457
1670.00,0.3463
1669.00,0.3470
1668.00,0.3478
1667.00,0.3486
1666.00,0.3492
1665.00,0.3499
1664.00,0.3506
1663.00,0.3513
1662.00,0.3521
1661.00,0.3531
1660.00,0.3543
1659.00,0.3553
1658.00,0.3560
1657.00,0.3564
1656.00,0.3570
1655.00,0.3581
1654.00,0.3599
1653.00,0.3621
1652.00,0.3640
1651.00,0.3652
1650.00,0.3662
1649.00,0.3678
1648.00,0.3702
1647.00,0.3728
1646.00,0.3754
1645.00,0.3782
1644.00,0.3810
1643.00,0.3836
1642.00,0.3862
1641.00,0.3888
1640.00,0.3912
1639.00,0.3933
1638.00,0.3955
1637.00,0.3983
1636.00,0.4015
1635.00,0.4046
1634.00,0.4076
1633.00,0.4107
1632.00,0.4137
1631.00,0.4165
1630.00,0.4190
1629.00,0.4218
1628.00,0.4248
1627.00,0.4276
1626.00,0.4304
1625.00,0.4339
1624.00,0.4383
1623.00,0.4432
1622.00,0.4485
1621.00,0.4543
1620.00,0.4607
1619.00,0.4680
1618.00,0.4771
1617.00,0.4884
1616.00,0.5007
1615.00,0.5124
1614.00,0.5235
1613.00,0.5348
1612.00,0.5467
1611.00,0.5587
1610.00,0.5706
1609.00,0.5825
1608.00,0.5944
1607.00,0.6053
1606.00,0.6151
1605.00,0.6246
1604.00,0.6341
1603.00,0.6434
1602.00,0.6527
1601.00,0.6629
1600.00,0.6745
1599.00,0.6874
1598.00,0.7021
1597.00,0.7201
1596.00,0.7428
1595.00,0.7707
1594.00,0.8046
1593.00,0.8471
1592.00,0.9006
1591.00,0.9671
1590.00,1.0492
1589.00,1.1526
1588.00,1.2839
1587.00,1.4469
1586.00,1.6442
1585.00,1.8847
1584.00,2.1874
1583.00,2.5468
1582.00,2.8408
1581.00,2.9194
1580.00,2.8105
1579.00,2.5330
1578.00,2.2054
1577.00,1.9222
1576.00,1.6974
1575.00,1.5269
1574.00,1.4032
1573.00,1.3144
1572.00,1.2483
1571.00,1.1971
1570.00,1.1612
1569.00,1.1454
1568.00,1.1516
1567.00,1.1778
1566.00,1.2249
1565.00,1.2974
1564.00,1.3944
1563.00,1.5026
1562.00,1.6014
1561.00,1.6691
1560.00,1.6591
1559.00,1.5348
1558.00,1.3726
1557.00,1.2397
1556.00,1.1316
1555.00,1.0330
1554.00,0.9449
1553.00,0.8739
1552.00,0.8199
1551.00,0.7766
1550.00,0.7396
1549.00,0.7090
1548.00,0.6851
1547.00,0.6659
1546.00,0.6493
1545.00,0.6347
1544.00,0.6220
1543.00,0.6110
1542.00,0.6011
1541.00,0.5922
1540.00,0.5839
1539.00,0.5761
1538.00,0.5694
1537.00,0.5644
1536.00,0.5603
1535.00,0.5566
1534.00,0.5529
1533.00,0.5501
1532.00,0.5487
1531.00,0.5485
1530.00,0.5489
1529.00,0.5496
1528.00,0.5504
1527.00,0.5502
1526.00,0.5485
1525.00,0.5460
1524.00,0.5437
1523.00,0.5421
1522.00,0.5412
1521.00,0.5415
1520.00,0.5428
1519.00,0.5450
1518.00,0.5481
1517.00,0.5520
1516.00,0.5557
1515.00,0.5582
1514.00,0.5597
1513.00,0.5608
1512.00,0.5621
1511.00,0.5634
1510.00,0.5655
1509.00,0.5694
1508.00,0.5760
1507.00,0.5850
1506.00,0.5959
1505.00,0.6076
1504.00,0.6184
1503.00,0.6278
1502.00,0.6364
1501.00,0.6446
1500.00,0.6523
1499.00,0.6596
1498.00,0.6677
1497.00,0.6778
1496.00,0.6896
1495.00,0.7015
1494.00,0.7133
1493.00,0.7264
1492.00,0.7416
1491.00,0.7586
1490.00,0.7771
1489.00,0.7969
1488.00,0.8175
1487.00,0.8391
1486.00,0.8633
1485.00,0.8916
1484.00,0.9246
1483.00,0.9629
1482.00,1.0083
1481.00,1.0623
1480.00,1.1236
1479.00,1.1914
1478.00,1.2684
1477.00,1.3593
1476.00,1.4654
1475.00,1.5871
1474.00,1.7338
1473.00,1.9249
1472.00,2.1728
1471.00,2.4667
1470.00,2.7917
1469.00,3.1724
1468.00,3.6563
1467.00,4.1196
1466.00,4.3773
1465.00,4.5802
1464.00,4.4867
1463.00,4.0270
1462.00,3.8060
1461.00,3.8197
1460.00,3.8816
1459.00,3.7593
1458.00,3.7800
1457.00,4.2017
1456.00,4.2202
1455.00,4.2794
1454.00,4.1008
1453.00,3.9390
1452.00,3.9355
1451.00,3.8675
1450.00,3.8052
1449.00,3.8003
1448.00,3.6632
1447.00,3.4063
1446.00,3.2469
1445.00,3.1483
1444.00,3.0052
1443.00,2.8193
1442.00,2.6555
1441.00,2.5224
1440.00,2.3970
1439.00,2.2679
1438.00,2.1366
1437.00,2.0037
1436.00,1.8739
1435.00,1.7568
1434.00,1.6536
1433.00,1.5577
1432.00,1.4646
1431.00,1.3763
1430.00,1.2972
1429.00,1.2297
1428.00,1.1739
1427.00,1.1288
1426.00,1.0921
1425.00,1.0612
1424.00,1.0354
1423.00,1.0150
1422.00,0.9993
1421.00,0.9863
1420.00,0.9743
1419.00,0.9627
1418.00,0.9521
1417.00,0.9427
1416.00,0.9348
1415.00,0.9285
1414.00,0.9239
1413.00,0.9211
1412.00,0.9199
1411.00,0.9196
1410.00,0.9188
1409.00,0.9159
1408.00,0.9097
1407.00,0.8996
1406.00,0.8853
1405.00,0.8676
1404.00,0.8482
1403.00,0.8296
1402.00,0.8125
1401.00,0.7971
1400.00,0.7834
1399.00,0.7721
1398.00,0.7637
1397.00,0.7583
1396.00,0.7561
1395.00,0.7577
1394.00,0.7636
1393.00,0.7745
1392.00,0.7919
1391.00,0.8179
1390.00,0.8550
1389.00,0.9062
1388.00,0.9753
1387.00,1.0629
1386.00,1.1638
1385.00,1.2714
1384.00,1.3834
1383.00,1.5026
1382.00,1.6334
1381.00,1.7810
1380.00,1.9486
1379.00,2.1238
1378.00,2.2615
1377.00,2.3049
1376.00,2.2413
1375.00,2.1025
1374.00,1.9341
1373.00,1.7748
1372.00,1.6419
1371.00,1.5377
1370.00,1.4608
1369.00,1.4096
1368.00,1.3786
1367.00,1.3556
1366.00,1.3249
1365.00,1.2761
1364.00,1.2105
1363.00,1.1386
1362.00,1.0722
1361.00,1.0181
1360.00,0.9769
1359.00,0.9465
1358.00,0.9244
1357.00,0.9090
1356.00,0.8988
1355.00,0.8928
1354.00,0.8898
1353.00,0.8887
1352.00,0.8884
1351.00,0.8878
1350.00,0.8863
1349.00,0.8841
1348.00,0.8817
1347.00,0.8794
1346.00,0.8774
1345.00,0.8757
1344.00,0.8741
1343.00,0.8721
1342.00,0.8690
1341.00,0.8639
1340.00,0.8564
1339.00,0.8462
1338.00,0.8333
1337.00,0.8181
1336.00,0.8014
1335.00,0.7839
1334.00,0.7668
1333.00,0.7510
1332.00,0.7371
1331.00,0.7256
1330.00,0.7164
1329.00,0.7094
1328.00,0.7044
1327.00,0.7011
1326.00,0.6994
1325.00,0.6989
1324.00,0.6992
1323.00,0.6999
1322.00,0.7006
1321.00,0.7010
1320.00,0.7010
1319.00,0.7009
1318.00,0.7012
1317.00,0.7023
1316.00,0.7043
1315.00,0.7071
1314.00,0.7107
1313.00,0.7148
1312.00,0.7191
1311.00,0.7235
1310.00,0.7277
1309.00,0.7314
1308.00,0.7344
1307.00,0.7367
1306.00,0.7378
1305.00,0.7374
1304.00,0.7353
1303.00,0.7314
1302.00,0.7262
1301.00,0.7201
1300.00,0.7138
1299.00,0.7073
1298.00,0.7009
1297.00,0.6945
1296.00,0.6885
1295.00,0.6831
1294.00,0.6784
1293.00,0.6743
1292.00,0.6708
1291.00,0.6676
1290.00,0.6645
1289.00,0.6614
1288.00,0.6582
1287.00,0.6547
1286.00,0.6507
1285.00,0.6462
1284.00,0.6412
1283.00,0.6364
1282.00,0.6321
1281.00,0.6286
1280.00,0.6257
1279.00,0.6232
1278.00,0.6208
1277.00,0.6181
1276.00,0.6153
1275.00,0.6125
1274.00,0.6100
1273.00,0.6081
1272.00,0.6070
1271.00,0.6067
1270.00,0.6069
1269.00,0.6069
1268.00,0.6059
1267.00,0.6033
1266.00,0.5990
1265.00,0.5938
1264.00,0.5886
1263.00,0.5843
1262.00,0.5811
1261.00,0.5787
1260.00,0.5769
1259.00,0.5753
1258.00,0.5736
1257.00,0.5715
1256.00,0.5690
1255.00,0.5663
1254.00,0.5640
1253.00,0.5620
1252.00,0.5603
1251.00,0.5589
1250.00,0.5573
1249.00,0.5554
1248.00,0.5532
1247.00,0.5507
1246.00,0.5480
1245.00,0.5449
1244.00,0.5415
1243.00,0.5379
1242.00,0.5341
1241.00,0.5302
1240.00,0.5265
1239.00,0.5233
1238.00,0.5208
1237.00,0.5188
1236.00,0.5174
1235.00,0.5167
1234.00,0.5167
1233.00,0.5174
1232.00,0.5186
1231.00,0.5203
1230.00,0.5218
1229.00,0.5225
1228.00,0.5218
1227.00,0.5196
1226.00,0.5162
1225.00,0.5121
1224.00,0.5078
1223.00,0.5040
1222.00,0.5010
1221.00,0.4987
1220.00,0.4971
1219.00,0.4963
1218.00,0.4963
1217.00,0.4968
1216.00,0.4980
1215.00,0.4996
1214.00,0.5012
1213.00,0.5022
1212.00,0.5022
1211.00,0.5011
1210.00,0.4994
1209.00,0.4975
1208.00,0.4957
1207.00,0.4941
1206.00,0.4926
1205.00,0.4913
1204.00,0.4901
1203.00,0.4892
1202.00,0.4887
1201.00,0.4886
1200.00,0.4890
1199.00,0.4897
1198.00,0.4905
1197.00,0.4908
1196.00,0.4905
1195.00,0.4898
1194.00,0.4887
1193.00,0.4875
1192.00,0.4864
1191.00,0.4853
1190.00,0.4844
1189.00,0.4836
1188.00,0.4828
1187.00,0.4821
1186.00,0.4814
1185.00,0.4806
1184.00,0.4799
1183.00,0.4794
1182.00,0.4791
1181.00,0.4790
1180.00,0.4792
1179.00,0.4799
1178.00,0.4809
1177.00,0.4824
1176.00,0.4845
1175.00,0.4875
1174.00,0.4915
1173.00,0.4964
1172.00,0.5017
1171.00,0.5064
1170.00,0.5098
1169.00,0.5113
1168.00,0.5110
1167.00,0.5096
1166.00,0.5076
1165.00,0.5058
1164.00,0.5046
1163.00,0.5044
1162.00,0.5050
1161.00,0.5062
1160.00,0.5078
1159.00,0.5098
1158.00,0.5119
1157.00,0.5137
1156.00,0.5149
1155.00,0.5156
1154.00,0.5157
1153.00,0.5153
1152.00,0.5147
1151.00,0.5140
1150.00,0.5132
1149.00,0.5124
1148.00,0.5114
1147.00,0.5103
1146.00,0.5092
1145.00,0.5083
1144.00,0.5080
1143.00,0.5087
1142.00,0.5107
1141.00,0.5140
1140.00,0.5191
1139.00,0.5260
1138.00,0.5348
1137.00,0.5453
1136.00,0.5572
1135.00,0.5696
1134.00,0.5806
1133.00,0.5875
1132.00,0.5883
1131.00,0.5826
1130.00,0.5726
1129.00,0.5610
1128.00,0.5506
1127.00,0.5426
1126.00,0.5373
1125.00,0.5339
1124.00,0.5315
1123.00,0.5293
1122.00,0.5271
1121.00,0.5249
1120.00,0.5233
1119.00,0.5229
1118.00,0.5241
1117.00,0.5273
1116.00,0.5318
1115.00,0.5364
1114.00,0.5388
1113.00,0.5370
1112.00,0.5309
1111.00,0.5219
1110.00,0.5122
1109.00,0.5036
1108.00,0.4969
1107.00,0.4924
1106.00,0.4897
1105.00,0.4882
1104.00,0.4874
1103.00,0.4870
1102.00,0.4866
1101.00,0.4858
1100.00,0.4846
1099.00,0.4832
1098.00,0.4817
1097.00,0.4801
1096.00,0.4788
1095.00,0.4780
1094.00,0.4778
1093.00,0.4783
1092.00,0.4791
1091.00,0.4803
1090.00,0.4820
1089.00,0.4844
1088.00,0.4875
1087.00,0.4916
1086.00,0.4968
1085.00,0.5029
1084.00,0.5101
1083.00,0.5186
1082.00,0.5284
1081.00,0.5391
1080.00,0.5500
1079.00,0.5600
1078.00,0.5677
1077.00,0.5719
1076.00,0.5719
1075.00,0.5680
1074.00,0.5611
1073.00,0.5525
1072.00,0.5439
1071.00,0.5364
1070.00,0.5304
1069.00,0.5257
1068.00,0.5221
1067.00,0.5191
1066.00,0.5167
1065.00,0.5149
1064.00,0.5137
1063.00,0.5131
1062.00,0.5131
1061.00,0.5135
1060.00,0.5140
1059.00,0.5143
1058.00,0.5140
1057.00,0.5130
1056.00,0.5114
1055.00,0.5096
1054.00,0.5078
1053.00,0.5064
1052.00,0.5056
1051.00,0.5059
1050.00,0.5073
1049.00,0.5093
1048.00,0.5118
1047.00,0.5142
1046.00,0.5162
1045.00,0.5173
1044.00,0.5177
1043.00,0.5176
1042.00,0.5173
1041.00,0.5169
1040.00,0.5163
1039.00,0.5156
1038.00,0.5147
1037.00,0.5137
1036.00,0.5130
1035.00,0.5128
1034.00,0.5135
1033.00,0.5151
1032.00,0.5175
1031.00,0.5203
1030.00,0.5231
1029.00,0.5253
1028.00,0.5261
1027.00,0.5249
1026.00,0.5214
1025.00,0.5155
1024.00,0.5080
1023.00,0.5001
1022.00,0.4926
1021.00,0.4860
1020.00,0.4802
1019.00,0.4753
1018.00,0.4712
1017.00,0.4677
1016.00,0.4645
1015.00,0.4616
1014.00,0.4590
1013.00,0.4568
1012.00,0.4552
1011.00,0.4543
1010.00,0.4539
1009.00,0.4540
1008.00,0.4546
1007.00,0.4558
1006.00,0.4577
1005.00,0.4601
1004.00,0.4629
1003.00,0.4659
1002.00,0.4688
1001.00,0.4713
1000.00,0.4734
999.00,0.4750
998.00,0.4758
997.00,0.4756
996.00,0.4742
995.00,0.4717
994.00,0.4685
993.00,0.4648
992.00,0.4608
991.00,0.4567
990.00,0.4526
989.00,0.4488
988.00,0.4456
987.00,0.4434
986.00,0.4424
985.00,0.4424
984.00,0.4433
983.00,0.4449
982.00,0.4469
981.00,0.4491
980.00,0.4514
979.00,0.4535
978.00,0.4554
977.00,0.4568
976.00,0.4578
975.00,0.4585
974.00,0.4589
973.00,0.4589
972.00,0.4586
971.00,0.4583
970.00,0.4581
969.00,0.4578
968.00,0.4576
967.00,0.4574
966.00,0.4570
965.00,0.4561
964.00,0.4548
963.00,0.4533
962.00,0.4518
961.00,0.4502
960.00,0.4487
959.00,0.4475
958.00,0.4467
957.00,0.4462
956.00,0.4456
955.00,0.4448
954.00,0.4435
953.00,0.4419
952.00,0.4402
951.00,0.4387
950.00,0.4375
949.00,0.4369
948.00,0.4368
947.00,0.4374
946.00,0.4387
945.00,0.4403
944.00,0.4422
943.00,0.4442
942.00,0.4462
941.00,0.4481
940.00,0.4497
939.00,0.4510
938.00,0.4514
937.00,0.4511
936.00,0.4499
935.00,0.4482
934.00,0.4461
933.00,0.4437
932.00,0.4411
931.00,0.4388
930.00,0.4371
929.00,0.4359
928.00,0.4357
927.00,0.4368
926.00,0.4397
925.00,0.4446
924.00,0.4515
923.00,0.4595
922.00,0.4667
921.00,0.4710
920.00,0.4706
919.00,0.4653
918.00,0.4562
917.00,0.4453
916.00,0.4344
915.00,0.4250
914.00,0.4173
913.00,0.4114
912.00,0.4069
911.00,0.4036
910.00,0.4011
909.00,0.3993
908.00,0.3979
907.00,0.3969
906.00,0.3962
905.00,0.3957
904.00,0.3955
903.00,0.3960
902.00,0.3972
901.00,0.3989
900.00,0.4012
899.00,0.4041
898.00,0.4074
897.00,0.4111
896.00,0.4150
895.00,0.4193
894.00,0.4240
893.00,0.4289
892.00,0.4338
891.00,0.4384
890.00,0.4423
889.00,0.4447
888.00,0.4454
887.00,0.4444
886.00,0.4424
885.00,0.4401
884.00,0.4382
883.00,0.4375
882.00,0.4384
881.00,0.4407
880.00,0.4437
879.00,0.4465
878.00,0.4483
877.00,0.4487
876.00,0.4481
875.00,0.4474
874.00,0.4471
873.00,0.4473
872.00,0.4478
871.00,0.4488
870.00,0.4502
869.00,0.4523
868.00,0.4555
867.00,0.4601
866.00,0.4659
865.00,0.4726
864.00,0.4792
863.00,0.4845
862.00,0.4868
861.00,0.4849
860.00,0.4787
859.00,0.4696
858.00,0.4598
857.00,0.4510
856.00,0.4439
855.00,0.4386
854.00,0.4348
853.00,0.4320
852.00,0.4295
851.00,0.4272
850.00,0.4247
849.00,0.4217
848.00,0.4184
847.00,0.4151
846.00,0.4120
845.00,0.4091
844.00,0.4068
843.00,0.4054
842.00,0.4055
841.00,0.4077
840.00,0.4126
839.00,0.4202
838.00,0.4298
837.00,0.4392
836.00,0.4456
835.00,0.4471
834.00,0.4433
833.00,0.4361
832.00,0.4285
831.00,0.4227
830.00,0.4198
829.00,0.4198
828.00,0.4220
827.00,0.4260
826.00,0.4310
825.00,0.4366
824.00,0.4425
823.00,0.4488
822.00,0.4556
821.00,0.4628
820.00,0.4699
819.00,0.4766
818.00,0.4823
817.00,0.4867
816.00,0.4894
815.00,0.4901
814.00,0.4886
813.00,0.4849
812.00,0.4795
811.00,0.4731
810.00,0.4666
809.00,0.4605
808.00,0.4549
807.00,0.4499
806.00,0.4454
805.00,0.4408
804.00,0.4359
803.00,0.4306
802.00,0.4249
801.00,0.4192
800.00,0.4142
799.00,0.4102
798.00,0.4075
797.00,0.4058
796.00,0.4047
795.00,0.4041
794.00,0.4041
793.00,0.4047
792.00,0.4060
791.00,0.4081
790.00,0.4109
789.00,0.4140
788.00,0.4172
787.00,0.4205
786.00,0.4242
785.00,0.4284
784.00,0.4330
783.00,0.4374
782.00,0.4413
781.00,0.4444
780.00,0.4467
779.00,0.4486
778.00,0.4504
777.00,0.4524
776.00,0.4545
775.00,0.4567
774.00,0.4592
773.00,0.4619
772.00,0.4647
771.00,0.4677
770.00,0.4708
769.00,0.4741
768.00,0.4776
767.00,0.4810
766.00,0.4840
765.00,0.4863
764.00,0.4881
763.00,0.4901
762.00,0.4932
761.00,0.4976
760.00,0.5028
759.00,0.5080
758.00,0.5122
757.00,0.5151
756.00,0.5169
755.00,0.5186
754.00,0.5208
753.00,0.5241
752.00,0.5285
751.00,0.5337
750.00,0.5393
749.00,0.5446
748.00,0.5495
747.00,0.5540
746.00,0.5585
745.00,0.5634
744.00,0.5689
743.00,0.5750
742.00,0.5815
741.00,0.5878
740.00,0.5933
739.00,0.5981
738.00,0.6024
737.00,0.6065
736.00,0.6109
735.00,0.6161
734.00,0.6223
733.00,0.6296
732.00,0.6381
731.00,0.6486
730.00,0.6620
729.00,0.6790
728.00,0.6999
727.00,0.7255
726.00,0.7560
725.00,0.7910
724.00,0.8275
723.00,0.8595
722.00,0.8770
721.00,0.8697
720.00,0.8360
719.00,0.7857
718.00,0.7319
717.00,0.6828
716.00,0.6420
715.00,0.6095
714.00,0.5843
713.00,0.5645
712.00,0.5484
711.00,0.5352
710.00,0.5245
709.00,0.5157
708.00,0.5084
707.00,0.5024
706.00,0.4974
705.00,0.4929
704.00,0.4886
703.00,0.4852
702.00,0.4831
701.00,0.4820
700.00,0.4800
699.00,0.4744
698.00,0.4635
697.00,0.4479
696.00,0.4306
695.00,0.4148
694.00,0.4022
693.00,0.3929
692.00,0.3862
691.00,0.3813
690.00,0.3776
689.00,0.3746
688.00,0.3720
687.00,0.3697
686.00,0.3677
685.00,0.3658
684.00,0.3644
683.00,0.3633
682.00,0.3626
681.00,0.3620
680.00,0.3614
679.00,0.3609
678.00,0.3608
677.00,0.3609
676.00,0.3611
675.00,0.3613
674.00,0.3614
673.00,0.3616
672.00,0.3619
671.00,0.3622
670.00,0.3624
669.00,0.3627
668.00,0.3629
667.00,0.3630
666.00,0.3632
665.00,0.3637
664.00,0.3642
663.00,0.3647
662.00,0.3653
661.00,0.3660
660.00,0.3666
659.00,0.3672
658.00,0.3681
657.00,0.3690
656.00,0.3700
655.00,0.3711
654.00,0.3720
653.00,0.3725
652.00,0.3730
651.00,0.3737
650.00,0.3747
649.00,0.3756
648.00,0.3767
647.00,0.3779
646.00,0.3792
645.00,0.3804
644.00,0.3818
643.00,0.3833
642.00,0.3848
641.00,0.3862
640.00,0.3874
639.00,0.3885
638.00,0.3894
637.00,0.3901
636.00,0.3904
635.00,0.3907
634.00,0.3911
633.00,0.3915
632.00,0.3921
631.00,0.3931
630.00,0.3944
629.00,0.3958
628.00,0.3973
627.00,0.3990
626.00,0.4011
625.00,0.4035
624.00,0.4059
623.00,0.4081
622.00,0.4101
621.00,0.4118
620.00,0.4133
619.00,0.4145
618.00,0.4154
617.00,0.4157
616.00,0.4155
615.00,0.4149
614.00,0.4141
613.00,0.4132
612.00,0.4120
611.00,0.4106
610.00,0.4093
609.00,0.4080
608.00,0.4067
607.00,0.4054
606.00,0.4045
605.00,0.4039
604.00,0.4038
603.00,0.4039
602.00,0.4041
601.00,0.4043
600.00,0.4046
599.00,0.4053
598.00,0.4066
597.00,0.4083
596.00,0.4103
595.00,0.4123
594.00,0.4146
593.00,0.4170
592.00,0.4194
591.00,0.4218
590.00,0.4241
589.00,0.4264
588.00,0.4289
587.00,0.4315
586.00,0.4340
585.00,0.4364
584.00,0.4386
583.00,0.4410
582.00,0.4436
581.00,0.4462
580.00,0.4488
579.00,0.4513
578.00,0.4537
577.00,0.4559
576.00,0.4580
575.00,0.4603
574.00,0.4627
573.00,0.4651
572.00,0.4674
571.00,0.4698
570.00,0.4726
569.00,0.4756
568.00,0.4784
567.00,0.4809
566.00,0.4829
565.00,0.4847
564.00,0.4865
563.00,0.4884
562.00,0.4903
561.00,0.4920
560.00,0.4936
559.00,0.4950
558.00,0.4965
557.00,0.4981
556.00,0.4999
555.00,0.5019
554.00,0.5040
553.00,0.5061
552.00,0.5082
551.00,0.5101
550.00,0.5118
