Created as New Dataset,
cm-1,A
4000.00,0.3525
3999.00,0.3521
3998.00,0.3517
3997.00,0.3513
3996.00,0.3509
3995.00,0.3506
3994.00,0.3502
3993.00,0.3497
3992.00,0.3493
3991.00,0.3489
3990.00,0.3485
3989.00,0.3480
3988.00,0.3476
3987.00,0.3471
3986.00,0.3466
3985.00,0.3462
3984.00,0.3458
3983.00,0.3454
3982.00,0.3450
3981.00,0.3445
3980.00,0.3440
3979.00,0.3435
3978.00,0.3430
3977.00,0.3426
3976.00,0.3422
3975.00,0.3419
3974.00,0.3416
3973.00,0.3413
3972.00,0.3411
3971.00,0.3408
3970.00,0.3405
3969.00,0.3401
3968.00,0.3398
3967.00,0.3395
3966.00,0.3391
3965.00,0.3388
3964.00,0.3384
3963.00,0.3381
3962.00,0.3377
3961.00,0.3374
3960.00,0.3371
3959.00,0.3368
3958.00,0.3366
3957.00,0.3363
3956.00,0.3361
3955.00,0.3359
3954.00,0.3356
3953.00,0.3353
3952.00,0.3351
3951.00,0.3349
3950.00,0.3347
3949.00,0.3346
3948.00,0.3344
3947.00,0.3342
3946.00,0.3339
3945.00,0.3337
3944.00,0.3334
3943.00,0.3333
3942.00,0.3331
3941.00,0.3329
3940.00,0.3327
3939.00,0.3326
3938.00,0.3325
3937.00,0.3324
3936.00,0.3323
3935.00,0.3322
3934.00,0.3321
3933.00,0.3320
3932.00,0.3320
3931.00,0.3320
3930.00,0.3320
3929.00,0.3319
3928.00,0.3319
3927.00,0.3320
3926.00,0.3320
3925.00,0.3321
3924.00,0.3321
3923.00,0.3320
3922.00,0.3319
3921.00,0.3318
3920.00,0.3317
3919.00,0.3316
3918.00,0.3316
3917.00,0.3316
3916.00,0.3317
3915.00,0.3317
3914.00,0.3316
3913.00,0.3315
3912.00,0.3315
3911.00,0.3314
3910.00,0.3313
3909.00,0.3310
3908.00,0.3307
3907.00,0.3304
3906.00,0.3300
3905.00,0.3298
3904.00,0.3296
3903.00,0.3293
3902.00,0.3292
3901.00,0.3292
3900.00,0.3294
3899.00,0.3297
3898.00,0.3299
3897.00,0.3300
3896.00,0.3299
3895.00,0.3298
3894.00,0.3296
3893.00,0.3294
3892.00,0.3292
3891.00,0.3292
3890.00,0.3289
3889.00,0.3286
3888.00,0.3284
3887.00,0.3284
3886.00,0.3286
3885.00,0.3286
3884.00,0.3283
3883.00,0.3279
3882.00,0.3278
3881.00,0.3279
3880.00,0.3281
3879.00,0.3280
3878.00,0.3278
3877.00,0.3276
3876.00,0.3275
3875.00,0.3275
3874.00,0.3274
3873.00,0.3270
3872.00,0.3266
3871.00,0.3264
3870.00,0.3265
3869.00,0.3264
3868.00,0.3261
3867.00,0.3257
3866.00,0.3256
3865.00,0.3257
3864.00,0.3258
3863.00,0.3256
3862.00,0.3254
3861.00,0.3253
3860.00,0.3252
3859.00,0.3250
3858.00,0.3246
3857.00,0.3241
3856.00,0.3235
3855.00,0.3232
3854.00,0.3233
3853.00,0.3236
3852.00,0.3236
3851.00,0.3235
3850.00,0.3236
3849.00,0.3240
3848.00,0.3243
3847.00,0.3244
3846.00,0.3243
3845.00,0.3240
3844.00,0.3237
3843.00,0.3233
3842.00,0.3230
3841.00,0.3227
3840.00,0.3225
3839.00,0.3225
3838.00,0.3225
3837.00,0.3225
3836.00,0.3225
3835.00,0.3224
3834.00,0.3224
3833.00,0.3225
3832.00,0.3227
3831.00,0.3228
3830.00,0.3227
3829.00,0.3225
3828.00,0.3224
3827.00,0.3224
3826.00,0.3222
3825.00,0.3218
3824.00,0.3213
3823.00,0.3210
3822.00,0.3209
3821.00,0.3209
3820.00,0.3206
3819.00,0.3201
3818.00,0.3198
3817.00,0.3200
3816.00,0.3204
3815.00,0.3205
3814.00,0.3202
3813.00,0.3199
3812.00,0.3199
3811.00,0.3198
3810.00,0.3195
3809.00,0.3191
3808.00,0.3188
3807.00,0.3186
3806.00,0.3182
3805.00,0.3177
3804.00,0.3173
3803.00,0.3172
3802.00,0.3174
3801.00,0.3176
3800.00,0.3173
3799.00,0.3169
3798.00,0.3167
3797.00,0.3167
3796.00,0.3168
3795.00,0.3168
3794.00,0.3166
3793.00,0.3164
3792.00,0.3163
3791.00,0.3162
3790.00,0.3159
3789.00,0.3156
3788.00,0.3153
3787.00,0.3151
3786.00,0.3149
3785.00,0.3147
3784.00,0.3145
3783.00,0.3142
3782.00,0.3139
3781.00,0.3137
3780.00,0.3136
3779.00,0.3136
3778.00,0.3134
3777.00,0.3133
3776.00,0.3132
3775.00,0.3131
3774.00,0.3129
3773.00,0.3126
3772.00,0.3123
3771.00,0.3120
3770.00,0.3119
3769.00,0.3117
3768.00,0.3114
3767.00,0.3112
3766.00,0.3111
3765.00,0.3111
3764.00,0.3109
3763.00,0.3106
3762.00,0.3104
3761.00,0.3102
3760.00,0.3101
3759.00,0.3099
3758.00,0.3097
3757.00,0.3093
3756.00,0.3089
3755.00,0.3084
3754.00,0.3079
3753.00,0.3075
3752.00,0.3072
3751.00,0.3070
3750.00,0.3068
3749.00,0.3066
3748.00,0.3062
3747.00,0.3058
3746.00,0.3058
3745.00,0.3062
3744.00,0.3066
3743.00,0.3066
3742.00,0.3063
3741.00,0.3062
3740.00,0.3062
3739.00,0.3061
3738.00,0.3059
3737.00,0.3056
3736.00,0.3053
3735.00,0.3052
3734.00,0.3051
3733.00,0.3051
3732.00,0.3052
3731.00,0.3052
3730.00,0.3051
3729.00,0.3050
3728.00,0.3048
3727.00,0.3047
3726.00,0.3046
3725.00,0.3043
3724.00,0.3040
3723.00,0.3038
3722.00,0.3038
3721.00,0.3037
3720.00,0.3037
3719.00,0.3036
3718.00,0.3035
3717.00,0.3033
3716.00,0.3031
3715.00,0.3027
3714.00,0.3024
3713.00,0.3023
3712.00,0.3023
3711.00,0.3024
3710.00,0.3026
3709.00,0.3027
3708.00,0.3030
3707.00,0.3032
3706.00,0.3034
3705.00,0.3034
3704.00,0.3034
3703.00,0.3034
3702.00,0.3034
3701.00,0.3033
3700.00,0.3033
3699.00,0.3033
3698.00,0.3034
3697.00,0.3036
3696.00,0.3036
3695.00,0.3036
3694.00,0.3033
3693.00,0.3030
3692.00,0.3027
3691.00,0.3024
3690.00,0.3024
3689.00,0.3026
3688.00,0.3029
3687.00,0.3032
3686.00,0.3033
3685.00,0.3036
3684.00,0.3038
3683.00,0.3038
3682.00,0.3036
3681.00,0.3033
3680.00,0.3030
3679.00,0.3025
3678.00,0.3021
3677.00,0.3018
3676.00,0.3019
3675.00,0.3020
3674.00,0.3020
3673.00,0.3018
3672.00,0.3019
3671.00,0.3024
3670.00,0.3031
3669.00,0.3035
3668.00,0.3039
3667.00,0.3044
3666.00,0.3052
3665.00,0.3061
3664.00,0.3069
3663.00,0.3078
3662.00,0.3087
3661.00,0.3098
3660.00,0.3111
3659.00,0.3127
3658.00,0.3149
3657.00,0.3178
3656.00,0.3212
3655.00,0.3245
3654.00,0.3274
3653.00,0.3301
3652.00,0.3326
3651.00,0.3347
3650.00,0.3361
3649.00,0.3365
3648.00,0.3360
3647.00,0.3348
3646.00,0.3331
3645.00,0.3312
3644.00,0.3292
3643.00,0.3272
3642.00,0.3251
3641.00,0.3230
3640.00,0.3211
3639.00,0.3194
3638.00,0.3180
3637.00,0.3168
3636.00,0.3158
3635.00,0.3150
3634.00,0.3142
3633.00,0.3134
3632.00,0.3126
3631.00,0.3119
3630.00,0.3116
3629.00,0.3116
3628.00,0.3118
3627.00,0.3118
3626.00,0.3120
3625.00,0.3123
3624.00,0.3125
3623.00,0.3124
3622.00,0.3119
3621.00,0.3113
3620.00,0.3107
3619.00,0.3101
3618.00,0.3094
3617.00,0.3089
3616.00,0.3084
3615.00,0.3081
3614.00,0.3080
3613.00,0.3078
3612.00,0.3076
3611.00,0.3074
3610.00,0.3074
3609.00,0.3075
3608.00,0.3076
3607.00,0.3076
3606.00,0.3075
3605.00,0.3072
3604.00,0.3069
3603.00,0.3065
3602.00,0.3059
3601.00,0.3050
3600.00,0.3041
3599.00,0.3030
3598.00,0.3020
3597.00,0.3009
3596.00,0.2998
3595.00,0.2988
3594.00,0.2978
3593.00,0.2969
3592.00,0.2960
3591.00,0.2952
3590.00,0.2945
3589.00,0.2939
3588.00,0.2936
3587.00,0.2933
3586.00,0.2930
3585.00,0.2927
3584.00,0.2925
3583.00,0.2924
3582.00,0.2923
3581.00,0.2921
3580.00,0.2920
3579.00,0.2918
3578.00,0.2915
3577.00,0.2914
3576.00,0.2912
3575.00,0.2912
3574.00,0.2911
3573.00,0.2911
3572.00,0.2909
3571.00,0.2907
3570.00,0.2905
3569.00,0.2903
3568.00,0.2902
3567.00,0.2903
3566.00,0.2903
3565.00,0.2904
3564.00,0.2906
3563.00,0.2908
3562.00,0.2910
3561.00,0.2912
3560.00,0.2913
3559.00,0.2915
3558.00,0.2916
3557.00,0.2917
3556.00,0.2918
3555.00,0.2919
3554.00,0.2920
3553.00,0.2923
3552.00,0.2925
3551.00,0.2927
3550.00,0.2928
3549.00,0.2929
3548.00,0.2931
3547.00,0.2934
3546.00,0.2936
3545.00,0.2939
3544.00,0.2943
3543.00,0.2947
3542.00,0.2951
3541.00,0.2955
3540.00,0.2958
3539.00,0.2961
3538.00,0.2964
3537.00,0.2967
3536.00,0.2970
3535.00,0.2974
3534.00,0.2976
3533.00,0.2979
3532.00,0.2981
3531.00,0.2983
3530.00,0.2986
3529.00,0.2988
3528.00,0.2991
3527.00,0.2993
3526.00,0.2996
3525.00,0.3000
3524.00,0.3005
3523.00,0.3009
3522.00,0.3013
3521.00,0.3017
3520.00,0.3021
3519.00,0.3026
3518.00,0.3030
3517.00,0.3035
3516.00,0.3040
3515.00,0.3045
3514.00,0.3050
3513.00,0.3054
3512.00,0.3059
3511.00,0.3063
3510.00,0.3067
3509.00,0.3071
3508.00,0.3076
3507.00,0.3081
3506.00,0.3085
3505.00,0.3091
3504.00,0.3096
3503.00,0.3102
3502.00,0.3108
3501.00,0.3114
3500.00,0.3120
3499.00,0.3126
3498.00,0.3132
3497.00,0.3138
3496.00,0.3145
3495.00,0.3153
3494.00,0.3160
3493.00,0.3167
3492.00,0.3175
3491.00,0.3183
3490.00,0.3191
3489.00,0.3199
3488.00,0.3207
3487.00,0.3214
3486.00,0.3221
3485.00,0.3229
3484.00,0.3237
3483.00,0.3245
3482.00,0.3252
3481.00,0.3258
3480.00,0.3263
3479.00,0.3269
3478.00,0.3275
3477.00,0.3281
3476.00,0.3287
3475.00,0.3293
3474.00,0.3299
3473.00,0.3306
3472.00,0.3312
3471.00,0.3319
3470.00,0.3326
3469.00,0.3333
3468.00,0.3339
3467.00,0.3347
3466.00,0.3354
3465.00,0.3362
3464.00,0.3370
3463.00,0.3378
3462.00,0.3386
3461.00,0.3395
3460.00,0.3404
3459.00,0.3413
3458.00,0.3423
3457.00,0.3432
3456.00,0.3442
3455.00,0.3452
3454.00,0.3461
3453.00,0.3472
3452.00,0.3483
3451.00,0.3494
3450.00,0.3506
3449.00,0.3519
3448.00,0.3532
3447.00,0.3545
3446.00,0.3560
3445.00,0.3576
3444.00,0.3593
3443.00,0.3611
3442.00,0.3628
3441.00,0.3646
3440.00,0.3662
3439.00,0.3677
3438.00,0.3691
3437.00,0.3704
3436.00,0.3716
3435.00,0.3727
3434.00,0.3737
3433.00,0.3746
3432.00,0.3755
3431.00,0.3764
3430.00,0.3773
3429.00,0.3783
3428.00,0.3792
3427.00,0.3801
3426.00,0.3809
3425.00,0.3818
3424.00,0.3827
3423.00,0.3835
3422.00,0.3845
3421.00,0.3854
3420.00,0.3865
3419.00,0.3876
3418.00,0.3887
3417.00,0.3899
3416.00,0.3912
3415.00,0.3924
3414.00,0.3936
3413.00,0.3949
3412.00,0.3962
3411.00,0.3975
3410.00,0.3989
3409.00,0.4003
3408.00,0.4017
3407.00,0.4032
3406.00,0.4047
3405.00,0.4063
3404.00,0.4079
3403.00,0.4095
3402.00,0.4110
3401.00,0.4126
3400.00,0.4142
3399.00,0.4158
3398.00,0.4174
3397.00,0.4190
3396.00,0.4206
3395.00,0.4222
3394.00,0.4238
3393.00,0.4254
3392.00,0.4270
3391.00,0.4285
3390.00,0.4301
3389.00,0.4317
3388.00,0.4334
3387.00,0.4351
3386.00,0.4367
3385.00,0.4384
3384.00,0.4400
3383.00,0.4418
3382.00,0.4435
3381.00,0.4453
3380.00,0.4472
3379.00,0.4491
3378.00,0.4509
3377.00,0.4529
3376.00,0.4548
3375.00,0.4568
3374.00,0.4588
3373.00,0.4609
3372.00,0.4631
3371.00,0.4654
3370.00,0.4677
3369.00,0.4699
3368.00,0.4721
3367.00,0.4743
3366.00,0.4766
3365.00,0.4790
3364.00,0.4814
3363.00,0.4839
3362.00,0.4864
3361.00,0.4888
3360.00,0.4913
3359.00,0.4938
3358.00,0.4963
3357.00,0.4988
3356.00,0.5012
3355.00,0.5036
3354.00,0.5060
3353.00,0.5084
3352.00,0.5108
3351.00,0.5132
3350.00,0.5155
3349.00,0.5177
3348.00,0.5199
3347.00,0.5220
3346.00,0.5241
3345.00,0.5262
3344.00,0.5282
3343.00,0.5301
3342.00,0.5318
3341.00,0.5334
3340.00,0.5349
3339.00,0.5363
3338.00,0.5376
3337.00,0.5389
3336.00,0.5400
3335.00,0.5410
3334.00,0.5419
3333.00,0.5426
3332.00,0.5431
3331.00,0.5435
3330.00,0.5438
3329.00,0.5440
3328.00,0.5441
3327.00,0.5440
3326.00,0.5438
3325.00,0.5434
3324.00,0.5429
3323.00,0.5424
3322.00,0.5418
3321.00,0.5411
3320.00,0.5404
3319.00,0.5395
3318.00,0.5385
3317.00,0.5375
3316.00,0.5365
3315.00,0.5355
3314.00,0.5344
3313.00,0.5333
3312.00,0.5321
3311.00,0.5309
3310.00,0.5297
3309.00,0.5284
3308.00,0.5271
3307.00,0.5258
3306.00,0.5246
3305.00,0.5236
3304.00,0.5225
3303.00,0.5214
3302.00,0.5202
3301.00,0.5191
3300.00,0.5180
3299.00,0.5170
3298.00,0.5161
3297.00,0.5152
3296.00,0.5143
3295.00,0.5136
3294.00,0.5129
3293.00,0.5123
3292.00,0.5117
3291.00,0.5111
3290.00,0.5107
3289.00,0.5103
3288.00,0.5100
3287.00,0.5097
3286.00,0.5095
3285.00,0.5094
3284.00,0.5093
3283.00,0.5093
3282.00,0.5094
3281.00,0.5095
3280.00,0.5096
3279.00,0.5098
3278.00,0.5100
3277.00,0.5102
3276.00,0.5105
3275.00,0.5107
3274.00,0.5111
3273.00,0.5115
3272.00,0.5121
3271.00,0.5126
3270.00,0.5132
3269.00,0.5137
3268.00,0.5142
3267.00,0.5146
3266.00,0.5151
3265.00,0.5157
3264.00,0.5163
3263.00,0.5170
3262.00,0.5176
3261.00,0.5182
3260.00,0.5188
3259.00,0.5194
3258.00,0.5200
3257.00,0.5206
3256.00,0.5212
3255.00,0.5217
3254.00,0.5221
3253.00,0.5224
3252.00,0.5227
3251.00,0.5230
3250.00,0.5234
3249.00,0.5237
3248.00,0.5240
3247.00,0.5242
3246.00,0.5244
3245.00,0.5245
3244.00,0.5246
3243.00,0.5248
3242.00,0.5249
3241.00,0.5249
3240.00,0.5248
3239.00,0.5246
3238.00,0.5244
3237.00,0.5241
3236.00,0.5239
3235.00,0.5236
3234.00,0.5234
3233.00,0.5231
3232.00,0.5227
3231.00,0.5224
3230.00,0.5220
3229.00,0.5215
3228.00,0.5210
3227.00,0.5204
3226.00,0.5198
3225.00,0.5193
3224.00,0.5188
3223.00,0.5182
3222.00,0.5176
3221.00,0.5169
3220.00,0.5162
3219.00,0.5155
3218.00,0.5148
3217.00,0.5140
3216.00,0.5133
3215.00,0.5126
3214.00,0.5118
3213.00,0.5110
3212.00,0.5103
3211.00,0.5096
3210.00,0.5089
3209.00,0.5083
3208.00,0.5076
3207.00,0.5069
3206.00,0.5062
3205.00,0.5055
3204.00,0.5048
3203.00,0.5041
3202.00,0.5034
3201.00,0.5027
3200.00,0.5020
3199.00,0.5012
3198.00,0.5005
3197.00,0.4998
3196.00,0.4991
3195.00,0.4983
3194.00,0.4974
3193.00,0.4965
3192.00,0.4957
3191.00,0.4948
3190.00,0.4940
3189.00,0.4930
3188.00,0.4920
3187.00,0.4910
3186.00,0.4901
3185.00,0.4892
3184.00,0.4883
3183.00,0.4873
3182.00,0.4862
3181.00,0.4851
3180.00,0.4840
3179.00,0.4829
3178.00,0.4819
3177.00,0.4808
3176.00,0.4798
3175.00,0.4787
3174.00,0.4777
3173.00,0.4767
3172.00,0.4757
3171.00,0.4745
3170.00,0.4734
3169.00,0.4722
3168.00,0.4711
3167.00,0.4700
3166.00,0.4690
3165.00,0.4679
3164.00,0.4669
3163.00,0.4658
3162.00,0.4647
3161.00,0.4636
3160.00,0.4625
3159.00,0.4614
3158.00,0.4604
3157.00,0.4594
3156.00,0.4583
3155.00,0.4573
3154.00,0.4563
3153.00,0.4554
3152.00,0.4544
3151.00,0.4535
3150.00,0.4527
3149.00,0.4519
3148.00,0.4511
3147.00,0.4503
3146.00,0.4495
3145.00,0.4487
3144.00,0.4480
3143.00,0.4474
3142.00,0.4467
3141.00,0.4461
3140.00,0.4455
3139.00,0.4449
3138.00,0.4443
3137.00,0.4438
3136.00,0.4433
3135.00,0.4428
3134.00,0.4424
3133.00,0.4420
3132.00,0.4416
3131.00,0.4412
3130.00,0.4409
3129.00,0.4406
3128.00,0.4403
3127.00,0.4401
3126.00,0.4400
3125.00,0.4399
3124.00,0.4398
3123.00,0.4397
3122.00,0.4398
3121.00,0.4399
3120.00,0.4400
3119.00,0.4402
3118.00,0.4405
3117.00,0.4407
3116.00,0.4410
3115.00,0.4413
3114.00,0.4416
3113.00,0.4421
3112.00,0.4427
3111.00,0.4434
3110.00,0.4442
3109.00,0.4451
3108.00,0.4461
3107.00,0.4472
3106.00,0.4482
3105.00,0.4493
3104.00,0.4505
3103.00,0.4517
3102.00,0.4528
3101.00,0.4540
3100.00,0.4552
3099.00,0.4564
3098.00,0.4577
3097.00,0.4590
3096.00,0.4604
3095.00,0.4619
3094.00,0.4634
3093.00,0.4651
3092.00,0.4668
3091.00,0.4686
3090.00,0.4706
3089.00,0.4728
3088.00,0.4752
3087.00,0.4777
3086.00,0.4804
3085.00,0.4831
3084.00,0.4860
3083.00,0.4890
3082.00,0.4921
3081.00,0.4955
3080.00,0.4990
3079.00,0.5028
3078.00,0.5068
3077.00,0.5111
3076.00,0.5154
3075.00,0.5199
3074.00,0.5244
3073.00,0.5290
3072.00,0.5336
3071.00,0.5383
3070.00,0.5430
3069.00,0.5477
3068.00,0.5525
3067.00,0.5572
3066.00,0.5618
3065.00,0.5664
3064.00,0.5708
3063.00,0.5751
3062.00,0.5792
3061.00,0.5832
3060.00,0.5870
3059.00,0.5908
3058.00,0.5945
3057.00,0.5983
3056.00,0.6022
3055.00,0.6061
3054.00,0.6100
3053.00,0.6140
3052.00,0.6180
3051.00,0.6222
3050.00,0.6266
3049.00,0.6311
3048.00,0.6357
3047.00,0.6406
3046.00,0.6457
3045.00,0.6508
3044.00,0.6560
3043.00,0.6612
3042.00,0.6664
3041.00,0.6717
3040.00,0.6771
3039.00,0.6828
3038.00,0.6889
3037.00,0.6953
3036.00,0.7020
3035.00,0.7091
3034.00,0.7165
3033.00,0.7242
3032.00,0.7323
3031.00,0.7408
3030.00,0.7497
3029.00,0.7590
3028.00,0.7684
3027.00,0.7781
3026.00,0.7881
3025.00,0.7985
3024.00,0.8093
3023.00,0.8204
3022.00,0.8318
3021.00,0.8435
3020.00,0.8553
3019.00,0.8674
3018.00,0.8797
3017.00,0.8925
3016.00,0.9056
3015.00,0.9192
3014.00,0.9333
3013.00,0.9482
3012.00,0.9638
3011.00,0.9801
3010.00,0.9974
3009.00,1.0157
3008.00,1.0350
3007.00,1.0553
3006.00,1.0764
3005.00,1.0982
3004.00,1.1207
3003.00,1.1437
3002.00,1.1676
3001.00,1.1925
3000.00,1.2186
2999.00,1.2464
2998.00,1.2762
2997.00,1.3083
2996.00,1.3430
2995.00,1.3807
2994.00,1.4220
2993.00,1.4673
2992.00,1.5170
2991.00,1.5718
2990.00,1.6322
2989.00,1.6988
2988.00,1.7725
2987.00,1.8543
2986.00,1.9453
2985.00,2.0456
2984.00,2.1555
2983.00,2.2772
2982.00,2.4138
2981.00,2.5675
2980.00,2.7359
2979.00,2.9144
2978.00,3.1026
2977.00,3.3111
2976.00,3.5596
2975.00,3.8489
2974.00,4.0856
2973.00,4.2285
2972.00,4.1944
2971.00,4.0976
2970.00,4.0496
2969.00,4.0575
2968.00,4.0623
2967.00,3.9822
2966.00,3.9026
2965.00,3.8761
2964.00,3.9180
2963.00,4.1109
2962.00,4.5901
2961.00,5.0068
2960.00,4.6565
2959.00,4.3254
2958.00,4.2005
2957.00,4.1528
2956.00,4.1775
2955.00,4.1442
2954.00,4.0546
2953.00,3.9855
2952.00,4.0625
2951.00,4.4020
2950.00,4.2521
2949.00,4.0741
2948.00,3.9860
2947.00,4.1649
2946.00,4.1851
2945.00,4.1196
2944.00,4.1033
2943.00,4.1327
2942.00,4.2521
2941.00,4.4318
2940.00,4.2251
2939.00,4.0251
2938.00,3.9816
2937.00,4.3146
2936.00,4.5941
2935.00,4.3298
2934.00,4.1686
2933.00,4.1267
2932.00,4.1446
2931.00,3.9910
2930.00,3.8718
2929.00,3.9014
2928.00,4.1697
2927.00,4.4294
2926.00,4.0953
2925.00,3.8194
2924.00,3.6961
2923.00,3.6928
2922.00,3.7390
2921.00,3.8668
2920.00,4.0296
2919.00,4.1719
2918.00,4.3489
2917.00,4.5365
2916.00,4.5817
2915.00,4.4567
2914.00,4.2681
2913.00,4.0196
2912.00,3.8410
2911.00,3.7588
2910.00,3.7469
2909.00,3.7575
2908.00,3.8077
2907.00,3.9635
2906.00,4.2386
2905.00,4.4171
2904.00,4.4167
2903.00,4.3959
2902.00,4.5020
2901.00,4.6119
2900.00,4.5167
2899.00,4.2296
2898.00,4.0263
2897.00,3.9550
2896.00,3.9277
2895.00,3.8440
2894.00,3.7756
2893.00,3.8105
2892.00,4.0028
2891.00,4.3859
2890.00,4.3464
2889.00,4.0419
2888.00,3.8386
2887.00,3.8003
2886.00,3.8376
2885.00,3.9372
2884.00,4.0978
2883.00,4.2177
2882.00,4.1868
2881.00,4.0884
2880.00,4.0688
2879.00,4.1813
2878.00,4.3818
2877.00,4.6217
2876.00,4.7495
2875.00,4.4346
2874.00,4.1989
2873.00,4.0577
2872.00,4.1005
2871.00,4.2117
2870.00,4.1288
2869.00,3.9834
2868.00,3.9240
2867.00,4.0925
2866.00,4.5578
2865.00,4.2231
2864.00,4.0489
2863.00,4.1739
2862.00,4.2283
2861.00,3.8937
2860.00,3.6289
2859.00,3.6055
2858.00,3.6926
2857.00,3.9132
2856.00,4.3490
2855.00,4.1066
2854.00,3.9746
2853.00,4.0760
2852.00,4.3315
2851.00,4.1265
2850.00,3.9677
2849.00,3.9988
2848.00,4.1616
2847.00,4.4700
2846.00,4.4272
2845.00,4.2720
2844.00,4.1136
2843.00,4.0841
2842.00,3.9499
2841.00,3.8350
2840.00,3.7803
2839.00,3.7580
2838.00,3.7344
2837.00,3.6515
2836.00,3.5033
2835.00,3.3204
2834.00,3.1203
2833.00,2.9145
2832.00,2.7189
2831.00,2.5437
2830.00,2.3903
2829.00,2.2567
2828.00,2.1404
2827.00,2.0383
2826.00,1.9470
2825.00,1.8645
2824.00,1.7898
2823.00,1.7220
2822.00,1.6597
2821.00,1.6013
2820.00,1.5467
2819.00,1.4962
2818.00,1.4499
2817.00,1.4071
2816.00,1.3673
2815.00,1.3299
2814.00,1.2948
2813.00,1.2618
2812.00,1.2305
2811.00,1.2010
2810.00,1.1728
2809.00,1.1459
2808.00,1.1203
2807.00,1.0958
2806.00,1.0724
2805.00,1.0499
2804.00,1.0282
2803.00,1.0076
2802.00,0.9879
2801.00,0.9691
2800.00,0.9511
2799.00,0.9339
2798.00,0.9174
2797.00,0.9015
2796.00,0.8861
2795.00,0.8713
2794.00,0.8570
2793.00,0.8432
2792.00,0.8298
2791.00,0.8168
2790.00,0.8041
2789.00,0.7917
2788.00,0.7795
2787.00,0.7677
2786.00,0.7561
2785.00,0.7448
2784.00,0.7337
2783.00,0.7229
2782.00,0.7124
2781.00,0.7022
2780.00,0.6924
2779.00,0.6830
2778.00,0.6741
2777.00,0.6657
2776.00,0.6577
2775.00,0.6502
2774.00,0.6432
2773.00,0.6366
2772.00,0.6305
2771.00,0.6248
2770.00,0.6197
2769.00,0.6150
2768.00,0.6109
2767.00,0.6072
2766.00,0.6040
2765.00,0.6012
2764.00,0.5988
2763.00,0.5967
2762.00,0.5948
2761.00,0.5931
2760.00,0.5915
2759.00,0.5899
2758.00,0.5885
2757.00,0.5871
2756.00,0.5860
2755.00,0.5849
2754.00,0.5840
2753.00,0.5833
2752.00,0.5827
2751.00,0.5824
2750.00,0.5825
2749.00,0.5828
2748.00,0.5834
2747.00,0.5842
2746.00,0.5852
2745.00,0.5865
2744.00,0.5881
2743.00,0.5900
2742.00,0.5922
2741.00,0.5950
2740.00,0.5982
2739.00,0.6020
2738.00,0.6063
2737.00,0.6111
2736.00,0.6163
2735.00,0.6219
2734.00,0.6277
2733.00,0.6334
2732.00,0.6386
2731.00,0.6428
2730.00,0.6456
2729.00,0.6470
2728.00,0.6469
2727.00,0.6457
2726.00,0.6437
2725.00,0.6412
2724.00,0.6383
2723.00,0.6352
2722.00,0.6320
2721.00,0.6284
2720.00,0.6247
2719.00,0.6206
2718.00,0.6163
2717.00,0.6117
2716.00,0.6069
2715.00,0.6020
2714.00,0.5971
2713.00,0.5924
2712.00,0.5878
2711.00,0.5836
2710.00,0.5797
2709.00,0.5763
2708.00,0.5734
2707.00,0.5710
2706.00,0.5690
2705.00,0.5672
2704.00,0.5658
2703.00,0.5646
2702.00,0.5637
2701.00,0.5632
2700.00,0.5631
2699.00,0.5633
2698.00,0.5638
2697.00,0.5645
2696.00,0.5654
2695.00,0.5665
2694.00,0.5678
2693.00,0.5693
2692.00,0.5709
2691.00,0.5724
2690.00,0.5738
2689.00,0.5751
2688.00,0.5764
2687.00,0.5777
2686.00,0.5788
2685.00,0.5798
2684.00,0.5805
2683.00,0.5811
2682.00,0.5816
2681.00,0.5821
2680.00,0.5824
2679.00,0.5827
2678.00,0.5830
2677.00,0.5833
2676.00,0.5835
2675.00,0.5838
2674.00,0.5841
2673.00,0.5842
2672.00,0.5841
2671.00,0.5838
2670.00,0.5831
2669.00,0.5820
2668.00,0.5805
2667.00,0.5785
2666.00,0.5761
2665.00,0.5735
2664.00,0.5707
2663.00,0.5679
2662.00,0.5651
2661.00,0.5622
2660.00,0.5593
2659.00,0.5564
2658.00,0.5535
2657.00,0.5507
2656.00,0.5480
2655.00,0.5454
2654.00,0.5430
2653.00,0.5407
2652.00,0.5385
2651.00,0.5364
2650.00,0.5344
2649.00,0.5324
2648.00,0.5304
2647.00,0.5286
2646.00,0.5268
2645.00,0.5251
2644.00,0.5234
2643.00,0.5218
2642.00,0.5202
2641.00,0.5186
2640.00,0.5172
2639.00,0.5159
2638.00,0.5146
2637.00,0.5134
2636.00,0.5122
2635.00,0.5110
2634.00,0.5098
2633.00,0.5086
2632.00,0.5073
2631.00,0.5061
2630.00,0.5049
2629.00,0.5036
2628.00,0.5024
2627.00,0.5012
2626.00,0.5001
2625.00,0.4989
2624.00,0.4977
2623.00,0.4965
2622.00,0.4952
2621.00,0.4940
2620.00,0.4927
2619.00,0.4915
2618.00,0.4903
2617.00,0.4890
2616.00,0.4878
2615.00,0.4865
2614.00,0.4853
2613.00,0.4840
2612.00,0.4828
2611.00,0.4815
2610.00,0.4803
2609.00,0.4791
2608.00,0.4779
2607.00,0.4767
2606.00,0.4756
2605.00,0.4744
2604.00,0.4732
2603.00,0.4719
2602.00,0.4706
2601.00,0.4691
2600.00,0.4676
2599.00,0.4660
2598.00,0.4643
2597.00,0.4625
2596.00,0.4606
2595.00,0.4587
2594.00,0.4567
2593.00,0.4548
2592.00,0.4528
2591.00,0.4509
2590.00,0.4489
2589.00,0.4469
2588.00,0.4449
2587.00,0.4430
2586.00,0.4410
2585.00,0.4391
2584.00,0.4371
2583.00,0.4350
2582.00,0.4328
2581.00,0.4307
2580.00,0.4285
2579.00,0.4264
2578.00,0.4244
2577.00,0.4224
2576.00,0.4205
2575.00,0.4187
2574.00,0.4169
2573.00,0.4151
2572.00,0.4134
2571.00,0.4117
2570.00,0.4100
2569.00,0.4084
2568.00,0.4068
2567.00,0.4052
2566.00,0.4036
2565.00,0.4021
2564.00,0.4005
2563.00,0.3989
2562.00,0.3972
2561.00,0.3956
2560.00,0.3940
2559.00,0.3924
2558.00,0.3909
2557.00,0.3894
2556.00,0.3880
2555.00,0.3866
2554.00,0.3852
2553.00,0.3838
2552.00,0.3826
2551.00,0.3813
2550.00,0.3801
2549.00,0.3789
2548.00,0.3777
2547.00,0.3767
2546.00,0.3757
2545.00,0.3747
2544.00,0.3736
2543.00,0.3726
2542.00,0.3716
2541.00,0.3707
2540.00,0.3699
2539.00,0.3691
2538.00,0.3683
2537.00,0.3676
2536.00,0.3668
2535.00,0.3661
2534.00,0.3654
2533.00,0.3645
2532.00,0.3636
2531.00,0.3627
2530.00,0.3616
2529.00,0.3605
2528.00,0.3593
2527.00,0.3581
2526.00,0.3568
2525.00,0.3554
2524.00,0.3540
2523.00,0.3526
2522.00,0.3513
2521.00,0.3500
2520.00,0.3488
2519.00,0.3476
2518.00,0.3464
2517.00,0.3452
2516.00,0.3441
2515.00,0.3431
2514.00,0.3422
2513.00,0.3412
2512.00,0.3402
2511.00,0.3392
2510.00,0.3384
2509.00,0.3376
2508.00,0.3369
2507.00,0.3363
2506.00,0.3357
2505.00,0.3352
2504.00,0.3347
2503.00,0.3343
2502.00,0.3340
2501.00,0.3336
2500.00,0.3333
2499.00,0.3330
2498.00,0.3326
2497.00,0.3322
2496.00,0.3319
2495.00,0.3315
2494.00,0.3312
2493.00,0.3308
2492.00,0.3303
2491.00,0.3297
2490.00,0.3291
2489.00,0.3284
2488.00,0.3277
2487.00,0.3270
2486.00,0.3264
2485.00,0.3257
2484.00,0.3251
2483.00,0.3245
2482.00,0.3239
2481.00,0.3232
2480.00,0.3226
2479.00,0.3220
2478.00,0.3214
2477.00,0.3208
2476.00,0.3202
2475.00,0.3196
2474.00,0.3191
2473.00,0.3187
2472.00,0.3183
2471.00,0.3179
2470.00,0.3176
2469.00,0.3172
2468.00,0.3168
2467.00,0.3164
2466.00,0.3160
2465.00,0.3157
2464.00,0.3153
2463.00,0.3150
2462.00,0.3147
2461.00,0.3144
2460.00,0.3141
2459.00,0.3138
2458.00,0.3136
2457.00,0.3135
2456.00,0.3134
2455.00,0.3132
2454.00,0.3130
2453.00,0.3129
2452.00,0.3127
2451.00,0.3126
2450.00,0.3125
2449.00,0.3125
2448.00,0.3124
2447.00,0.3124
2446.00,0.3123
2445.00,0.3123
2444.00,0.3123
2443.00,0.3123
2442.00,0.3123
2441.00,0.3124
2440.00,0.3125
2439.00,0.3126
2438.00,0.3127
2437.00,0.3127
2436.00,0.3128
2435.00,0.3128
2434.00,0.3128
2433.00,0.3129
2432.00,0.3130
2431.00,0.3131
2430.00,0.3132
2429.00,0.3134
2428.00,0.3135
2427.00,0.3137
2426.00,0.3139
2425.00,0.3141
2424.00,0.3143
2423.00,0.3145
2422.00,0.3146
2421.00,0.3147
2420.00,0.3149
2419.00,0.3150
2418.00,0.3151
2417.00,0.3153
2416.00,0.3154
2415.00,0.3154
2414.00,0.3155
2413.00,0.3157
2412.00,0.3158
2411.00,0.3159
2410.00,0.3159
2409.00,0.3159
2408.00,0.3158
2407.00,0.3158
2406.00,0.3157
2405.00,0.3157
2404.00,0.3157
2403.00,0.3158
2402.00,0.3158
2401.00,0.3158
2400.00,0.3158
2399.00,0.3159
2398.00,0.3159
2397.00,0.3159
2396.00,0.3159
2395.00,0.3159
2394.00,0.3159
2393.00,0.3159
2392.00,0.3160
2391.00,0.3160
2390.00,0.3160
2389.00,0.3161
2388.00,0.3162
2387.00,0.3164
2386.00,0.3165
2385.00,0.3166
2384.00,0.3168
2383.00,0.3170
2382.00,0.3172
2381.00,0.3175
2380.00,0.3177
2379.00,0.3179
2378.00,0.3180
2377.00,0.3181
2376.00,0.3181
2375.00,0.3180
2374.00,0.3179
2373.00,0.3177
2372.00,0.3176
2371.00,0.3175
2370.00,0.3173
2369.00,0.3172
2368.00,0.3171
2367.00,0.3171
2366.00,0.3172
2365.00,0.3173
2364.00,0.3172
2363.00,0.3171
2362.00,0.3170
2361.00,0.3170
2360.00,0.3170
2359.00,0.3170
2358.00,0.3169
2357.00,0.3168
2356.00,0.3166
2355.00,0.3164
2354.00,0.3164
2353.00,0.3165
2352.00,0.3165
2351.00,0.3165
2350.00,0.3162
2349.00,0.3158
2348.00,0.3153
2347.00,0.3150
2346.00,0.3149
2345.00,0.3151
2344.00,0.3151
2343.00,0.3149
2342.00,0.3146
2341.00,0.3144
2340.00,0.3142
2339.00,0.3141
2338.00,0.3141
2337.00,0.3141
2336.00,0.3139
2335.00,0.3136
2334.00,0.3133
2333.00,0.3130
2332.00,0.3127
2331.00,0.3124
2330.00,0.3121
2329.00,0.3117
2328.00,0.3113
2327.00,0.3109
2326.00,0.3104
2325.00,0.3100
2324.00,0.3098
2323.00,0.3096
2322.00,0.3094
2321.00,0.3091
2320.00,0.3087
2319.00,0.3082
2318.00,0.3077
2317.00,0.3073
2316.00,0.3069
2315.00,0.3066
2314.00,0.3063
2313.00,0.3060
2312.00,0.3057
2311.00,0.3053
2310.00,0.3049
2309.00,0.3044
2308.00,0.3040
2307.00,0.3035
2306.00,0.3031
2305.00,0.3027
2304.00,0.3023
2303.00,0.3020
2302.00,0.3017
2301.00,0.3014
2300.00,0.3011
2299.00,0.3009
2298.00,0.3005
2297.00,0.3002
2296.00,0.2999
2295.00,0.2995
2294.00,0.2992
2293.00,0.2988
2292.00,0.2984
2291.00,0.2979
2290.00,0.2974
2289.00,0.2969
2288.00,0.2964
2287.00,0.2960
2286.00,0.2955
2285.00,0.2950
2284.00,0.2946
2283.00,0.2942
2282.00,0.2937
2281.00,0.2933
2280.00,0.2929
2279.00,0.2925
2278.00,0.2921
2277.00,0.2917
2276.00,0.2913
2275.00,0.2910
2274.00,0.2907
2273.00,0.2904
2272.00,0.2902
2271.00,0.2900
2270.00,0.2897
2269.00,0.2896
2268.00,0.2894
2267.00,0.2893
2266.00,0.2892
2265.00,0.2890
2264.00,0.2888
2263.00,0.2886
2262.00,0.2884
2261.00,0.2881
2260.00,0.2878
2259.00,0.2874
2258.00,0.2870
2257.00,0.2867
2256.00,0.2862
2255.00,0.2858
2254.00,0.2854
2253.00,0.2851
2252.00,0.2848
2251.00,0.2844
2250.00,0.2841
2249.00,0.2838
2248.00,0.2835
2247.00,0.2833
2246.00,0.2830
2245.00,0.2828
2244.00,0.2825
2243.00,0.2823
2242.00,0.2821
2241.00,0.2819
2240.00,0.2816
2239.00,0.2814
2238.00,0.2811
2237.00,0.2810
2236.00,0.2808
2235.00,0.2807
2234.00,0.2805
2233.00,0.2804
2232.00,0.2803
2231.00,0.2801
2230.00,0.2799
2229.00,0.2797
2228.00,0.2796
2227.00,0.2794
2226.00,0.2791
2225.00,0.2789
2224.00,0.2787
2223.00,0.2785
2222.00,0.2784
2221.00,0.2783
2220.00,0.2783
2219.00,0.2781
2218.00,0.2780
2217.00,0.2779
2216.00,0.2778
2215.00,0.2778
2214.00,0.2777
2213.00,0.2777
2212.00,0.2777
2211.00,0.2777
2210.00,0.2777
2209.00,0.2776
2208.00,0.2776
2207.00,0.2776
2206.00,0.2777
2205.00,0.2777
2204.00,0.2778
2203.00,0.2778
2202.00,0.2778
2201.00,0.2778
2200.00,0.2779
2199.00,0.2780
2198.00,0.2781
2197.00,0.2782
2196.00,0.2782
2195.00,0.2782
2194.00,0.2783
2193.00,0.2784
2192.00,0.2785
2191.00,0.2786
2190.00,0.2787
2189.00,0.2788
2188.00,0.2789
2187.00,0.2790
2186.00,0.2791
2185.00,0.2791
2184.00,0.2792
2183.00,0.2791
2182.00,0.2791
2181.00,0.2790
2180.00,0.2790
2179.00,0.2789
2178.00,0.2788
2177.00,0.2787
2176.00,0.2786
2175.00,0.2785
2174.00,0.2784
2173.00,0.2783
2172.00,0.2782
2171.00,0.2781
2170.00,0.2780
2169.00,0.2780
2168.00,0.2779
2167.00,0.2777
2166.00,0.2777
2165.00,0.2776
2164.00,0.2775
2163.00,0.2775
2162.00,0.2774
2161.00,0.2773
2160.00,0.2772
2159.00,0.2770
2158.00,0.2769
2157.00,0.2768
2156.00,0.2766
2155.00,0.2765
2154.00,0.2763
2153.00,0.2762
2152.00,0.2761
2151.00,0.2759
2150.00,0.2756
2149.00,0.2753
2148.00,0.2749
2147.00,0.2744
2146.00,0.2739
2145.00,0.2733
2144.00,0.2727
2143.00,0.2719
2142.00,0.2712
2141.00,0.2704
2140.00,0.2697
2139.00,0.2691
2138.00,0.2686
2137.00,0.2682
2136.00,0.2677
2135.00,0.2673
2134.00,0.2670
2133.00,0.2666
2132.00,0.2664
2131.00,0.2661
2130.00,0.2658
2129.00,0.2656
2128.00,0.2654
2127.00,0.2653
2126.00,0.2651
2125.00,0.2650
2124.00,0.2649
2123.00,0.2648
2122.00,0.2647
2121.00,0.2646
2120.00,0.2646
2119.00,0.2645
2118.00,0.2644
2117.00,0.2644
2116.00,0.2643
2115.00,0.2642
2114.00,0.2641
2113.00,0.2640
2112.00,0.2639
2111.00,0.2637
2110.00,0.2635
2109.00,0.2632
2108.00,0.2630
2107.00,0.2628
2106.00,0.2626
2105.00,0.2626
2104.00,0.2625
2103.00,0.2624
2102.00,0.2623
2101.00,0.2622
2100.00,0.2621
2099.00,0.2620
2098.00,0.2618
2097.00,0.2618
2096.00,0.2618
2095.00,0.2617
2094.00,0.2617
2093.00,0.2617
2092.00,0.2617
2091.00,0.2617
2090.00,0.2616
2089.00,0.2616
2088.00,0.2617
2087.00,0.2617
2086.00,0.2617
2085.00,0.2617
2084.00,0.2617
2083.00,0.2617
2082.00,0.2617
2081.00,0.2617
2080.00,0.2617
2079.00,0.2617
2078.00,0.2617
2077.00,0.2617
2076.00,0.2618
2075.00,0.2618
2074.00,0.2618
2073.00,0.2619
2072.00,0.2619
2071.00,0.2620
2070.00,0.2620
2069.00,0.2622
2068.00,0.2624
2067.00,0.2626
2066.00,0.2628
2065.00,0.2631
2064.00,0.2634
2063.00,0.2636
2062.00,0.2638
2061.00,0.2640
2060.00,0.2641
2059.00,0.2642
2058.00,0.2644
2057.00,0.2646
2056.00,0.2648
2055.00,0.2650
2054.00,0.2652
2053.00,0.2653
2052.00,0.2655
2051.00,0.2658
2050.00,0.2660
2049.00,0.2663
2048.00,0.2666
2047.00,0.2669
2046.00,0.2673
2045.00,0.2676
2044.00,0.2679
2043.00,0.2682
2042.00,0.2685
2041.00,0.2689
2040.00,0.2692
2039.00,0.2695
2038.00,0.2697
2037.00,0.2698
2036.00,0.2699
2035.00,0.2700
2034.00,0.2701
2033.00,0.2702
2032.00,0.2703
2031.00,0.2704
2030.00,0.2704
2029.00,0.2703
2028.00,0.2704
2027.00,0.2704
2026.00,0.2704
2025.00,0.2703
2024.00,0.2701
2023.00,0.2699
2022.00,0.2695
2021.00,0.2690
2020.00,0.2684
2019.00,0.2677
2018.00,0.2669
2017.00,0.2662
2016.00,0.2654
2015.00,0.2645
2014.00,0.2635
2013.00,0.2626
2012.00,0.2616
2011.00,0.2607
2010.00,0.2599
2009.00,0.2592
2008.00,0.2587
2007.00,0.2582
2006.00,0.2577
2005.00,0.2573
2004.00,0.2570
2003.00,0.2567
2002.00,0.2564
2001.00,0.2562
2000.00,0.2561
1999.00,0.2559
1998.00,0.2558
1997.00,0.2556
1996.00,0.2554
1995.00,0.2551
1994.00,0.2549
1993.00,0.2548
1992.00,0.2549
1991.00,0.2549
1990.00,0.2549
1989.00,0.2548
1988.00,0.2547
1987.00,0.2544
1986.00,0.2542
1985.00,0.2540
1984.00,0.2539
1983.00,0.2538
1982.00,0.2537
1981.00,0.2537
1980.00,0.2538
1979.00,0.2538
1978.00,0.2539
1977.00,0.2539
1976.00,0.2539
1975.00,0.2538
1974.00,0.2538
1973.00,0.2538
1972.00,0.2538
1971.00,0.2538
1970.00,0.2538
1969.00,0.2538
1968.00,0.2539
1967.00,0.2542
1966.00,0.2544
1965.00,0.2546
1964.00,0.2546
1963.00,0.2545
1962.00,0.2543
1961.00,0.2543
1960.00,0.2544
1959.00,0.2545
1958.00,0.2546
1957.00,0.2548
1956.00,0.2549
1955.00,0.2552
1954.00,0.2554
1953.00,0.2557
1952.00,0.2560
1951.00,0.2561
1950.00,0.2562
1949.00,0.2563
1948.00,0.2565
1947.00,0.2568
1946.00,0.2570
1945.00,0.2574
1944.00,0.2579
1943.00,0.2585
1942.00,0.2592
1941.00,0.2599
1940.00,0.2604
1939.00,0.2606
1938.00,0.2607
1937.00,0.2606
1936.00,0.2606
1935.00,0.2606
1934.00,0.2605
1933.00,0.2605
1932.00,0.2605
1931.00,0.2605
1930.00,0.2605
1929.00,0.2605
1928.00,0.2605
1927.00,0.2605
1926.00,0.2605
1925.00,0.2605
1924.00,0.2608
1923.00,0.2613
1922.00,0.2619
1921.00,0.2625
1920.00,0.2629
1919.00,0.2631
1918.00,0.2632
1917.00,0.2634
1916.00,0.2638
1915.00,0.2641
1914.00,0.2643
1913.00,0.2642
1912.00,0.2641
1911.00,0.2641
1910.00,0.2642
1909.00,0.2645
1908.00,0.2648
1907.00,0.2650
1906.00,0.2649
1905.00,0.2647
1904.00,0.2645
1903.00,0.2644
1902.00,0.2643
1901.00,0.2642
1900.00,0.2642
1899.00,0.2642
1898.00,0.2642
1897.00,0.2643
1896.00,0.2645
1895.00,0.2647
1894.00,0.2650
1893.00,0.2652
1892.00,0.2653
1891.00,0.2655
1890.00,0.2656
1889.00,0.2659
1888.00,0.2663
1887.00,0.2667
1886.00,0.2669
1885.00,0.2670
1884.00,0.2669
1883.00,0.2668
1882.00,0.2667
1881.00,0.2667
1880.00,0.2665
1879.00,0.2664
1878.00,0.2662
1877.00,0.2661
1876.00,0.2659
1875.00,0.2656
1874.00,0.2652
1873.00,0.2649
1872.00,0.2646
1871.00,0.2644
1870.00,0.2641
1869.00,0.2639
1868.00,0.2639
1867.00,0.2640
1866.00,0.2640
1865.00,0.2637
1864.00,0.2632
1863.00,0.2626
1862.00,0.2621
1861.00,0.2617
1860.00,0.2615
1859.00,0.2612
1858.00,0.2609
1857.00,0.2607
1856.00,0.2604
1855.00,0.2600
1854.00,0.2597
1853.00,0.2594
1852.00,0.2591
1851.00,0.2589
1850.00,0.2587
1849.00,0.2585
1848.00,0.2585
1847.00,0.2585
1846.00,0.2585
1845.00,0.2584
1844.00,0.2583
1843.00,0.2583
1842.00,0.2585
1841.00,0.2587
1840.00,0.2585
1839.00,0.2580
1838.00,0.2574
1837.00,0.2572
1836.00,0.2573
1835.00,0.2574
1834.00,0.2574
1833.00,0.2574
1832.00,0.2573
1831.00,0.2572
1830.00,0.2569
1829.00,0.2569
1828.00,0.2572
1827.00,0.2576
1826.00,0.2579
1825.00,0.2580
1824.00,0.2580
1823.00,0.2582
1822.00,0.2583
1821.00,0.2583
1820.00,0.2581
1819.00,0.2579
1818.00,0.2579
1817.00,0.2580
1816.00,0.2583
1815.00,0.2584
1814.00,0.2585
1813.00,0.2587
1812.00,0.2591
1811.00,0.2595
1810.00,0.2599
1809.00,0.2604
1808.00,0.2611
1807.00,0.2618
1806.00,0.2626
1805.00,0.2635
1804.00,0.2644
1803.00,0.2654
1802.00,0.2666
1801.00,0.2679
1800.00,0.2689
1799.00,0.2695
1798.00,0.2699
1797.00,0.2705
1796.00,0.2712
1795.00,0.2719
1794.00,0.2723
1793.00,0.2727
1792.00,0.2731
1791.00,0.2739
1790.00,0.2749
1789.00,0.2756
1788.00,0.2759
1787.00,0.2758
1786.00,0.2758
1785.00,0.2761
1784.00,0.2766
1783.00,0.2772
1782.00,0.2777
1781.00,0.2781
1780.00,0.2786
1779.00,0.2791
1778.00,0.2797
1777.00,0.2802
1776.00,0.2806
1775.00,0.2808
1774.00,0.2813
1773.00,0.2820
1772.00,0.2829
1771.00,0.2837
1770.00,0.2845
1769.00,0.2855
1768.00,0.2864
1767.00,0.2873
1766.00,0.2880
1765.00,0.2885
1764.00,0.2889
1763.00,0.2892
1762.00,0.2898
1761.00,0.2908
1760.00,0.2922
1759.00,0.2937
1758.00,0.2950
1757.00,0.2963
1756.00,0.2978
1755.00,0.2995
1754.00,0.3016
1753.00,0.3043
1752.00,0.3080
1751.00,0.3129
1750.00,0.3189
1749.00,0.3258
1748.00,0.3333
1747.00,0.3411
1746.00,0.3494
1745.00,0.3582
1744.00,0.3669
1743.00,0.3745
1742.00,0.3801
1741.00,0.3832
1740.00,0.3835
1739.00,0.3813
1738.00,0.3775
1737.00,0.3731
1736.00,0.3676
1735.00,0.3607
1734.00,0.3531
1733.00,0.3472
1732.00,0.3436
1731.00,0.3404
1730.00,0.3363
1729.00,0.3322
1728.00,0.3292
1727.00,0.3274
1726.00,0.3266
1725.00,0.3264
1724.00,0.3268
1723.00,0.3274
1722.00,0.3283
1721.00,0.3291
1720.00,0.3298
1719.00,0.3306
1718.00,0.3324
1717.00,0.3355
1716.00,0.3393
1715.00,0.3422
1714.00,0.3436
1713.00,0.3443
1712.00,0.3452
1711.00,0.3465
1710.00,0.3482
1709.00,0.3498
1708.00,0.3513
1707.00,0.3523
1706.00,0.3527
1705.00,0.3527
1704.00,0.3523
1703.00,0.3515
1702.00,0.3498
1701.00,0.3468
1700.00,0.3429
1699.00,0.3399
1698.00,0.3396
1697.00,0.3404
1696.00,0.3402
1695.00,0.3392
1694.00,0.3380
1693.00,0.3367
1692.00,0.3351
1691.00,0.3333
1690.00,0.3322
1689.00,0.3322
1688.00,0.3325
1687.00,0.3328
1686.00,0.3333
1685.00,0.3339
1684.00,0.3344
1683.00,0.3347
1682.00,0.3348
1681.00,0.3347
1680.00,0.3343
1679.00,0.3338
1678.00,0.3336
1677.00,0.3337
1676.00,0.3339
1675.00,0.3343
1674.00,0.3352
1673.00,0.3369
1672.00,0.3387
1671.00,0.3398
1670.00,0.3407
1669.00,0.3422
1668.00,0.3444
1667.00,0.3468
1666.00,0.3491
1665.00,0.3510
1664.00,0.3528
1663.00,0.3548
1662.00,0.3574
1661.00,0.3608
1660.00,0.3646
1659.00,0.3683
1658.00,0.3716
1657.00,0.3748
1656.00,0.3779
1655.00,0.3816
1654.00,0.3870
1653.00,0.3942
1652.00,0.4016
1651.00,0.4078
1650.00,0.4119
1649.00,0.4134
1648.00,0.4148
1647.00,0.4183
1646.00,0.4240
1645.00,0.4306
1644.00,0.4367
1643.00,0.4418
1642.00,0.4460
1641.00,0.4501
1640.00,0.4546
1639.00,0.4589
1638.00,0.4631
1637.00,0.4681
1636.00,0.4741
1635.00,0.4802
1634.00,0.4860
1633.00,0.4915
1632.00,0.4968
1631.00,0.5015
1630.00,0.5063
1629.00,0.5119
1628.00,0.5182
1627.00,0.5248
1626.00,0.5317
1625.00,0.5392
1624.00,0.5476
1623.00,0.5569
1622.00,0.5672
1621.00,0.5782
1620.00,0.5898
1619.00,0.6021
1618.00,0.6169
1617.00,0.6360
1616.00,0.6583
1615.00,0.6808
1614.00,0.7025
1613.00,0.7256
1612.00,0.7519
1611.00,0.7811
1610.00,0.8117
1609.00,0.8423
1608.00,0.8714
1607.00,0.8967
1606.00,0.9183
1605.00,0.9392
1604.00,0.9621
1603.00,0.9881
1602.00,1.0187
1601.00,1.0566
1600.00,1.1033
1599.00,1.1581
1598.00,1.2221
1597.00,1.3000
1596.00,1.3972
1595.00,1.5146
1594.00,1.6533
1593.00,1.8224
1592.00,2.0353
1591.00,2.2910
1590.00,2.5664
1589.00,2.8782
1588.00,3.3666
1587.00,4.1780
1586.00,4.1196
1585.00,4.1264
1584.00,4.0264
1583.00,3.9101
1582.00,3.8684
1581.00,3.5866
1580.00,3.8479
1579.00,3.8689
1578.00,3.2815
1577.00,2.9026
1576.00,2.6150
1575.00,2.3596
1574.00,2.1601
1573.00,2.0229
1572.00,1.9303
1571.00,1.8686
1570.00,1.8426
1569.00,1.8668
1568.00,1.9450
1567.00,2.0659
1566.00,2.2227
1565.00,2.4359
1564.00,2.7455
1563.00,3.1380
1562.00,3.3720
1561.00,3.3819
1560.00,3.2141
1559.00,2.7340
1558.00,2.3311
1557.00,2.0627
1556.00,1.8499
1555.00,1.6566
1554.00,1.4914
1553.00,1.3662
1552.00,1.2758
1551.00,1.2081
1550.00,1.1570
1549.00,1.1233
1548.00,1.1062
1547.00,1.1016
1546.00,1.1066
1545.00,1.1204
1544.00,1.1415
1543.00,1.1647
1542.00,1.1839
1541.00,1.1940
1540.00,1.1900
1539.00,1.1697
1538.00,1.1399
1537.00,1.1077
1536.00,1.0731
1535.00,1.0329
1534.00,0.9889
1533.00,0.9480
1532.00,0.9155
1531.00,0.8905
1530.00,0.8704
1529.00,0.8540
1528.00,0.8404
1527.00,0.8284
1526.00,0.8177
1525.00,0.8095
1524.00,0.8042
1523.00,0.8022
1522.00,0.8050
1521.00,0.8138
1520.00,0.8264
1519.00,0.8388
1518.00,0.8496
1517.00,0.8584
1516.00,0.8628
1515.00,0.8586
1514.00,0.8446
1513.00,0.8227
1512.00,0.7965
1511.00,0.7703
1510.00,0.7473
1509.00,0.7290
1508.00,0.7155
1507.00,0.7067
1506.00,0.7027
1505.00,0.7025
1504.00,0.7049
1503.00,0.7088
1502.00,0.7130
1501.00,0.7186
1500.00,0.7262
1499.00,0.7351
1498.00,0.7459
1497.00,0.7600
1496.00,0.7770
1495.00,0.7946
1494.00,0.8110
1493.00,0.8276
1492.00,0.8457
1491.00,0.8655
1490.00,0.8864
1489.00,0.9078
1488.00,0.9293
1487.00,0.9510
1486.00,0.9753
1485.00,1.0045
1484.00,1.0392
1483.00,1.0794
1482.00,1.1266
1481.00,1.1825
1480.00,1.2471
1479.00,1.3198
1478.00,1.4040
1477.00,1.5058
1476.00,1.6287
1475.00,1.7726
1474.00,1.9436
1473.00,2.1599
1472.00,2.4370
1471.00,2.7651
1470.00,3.1301
1469.00,3.6316
1468.00,4.4025
1467.00,4.1867
1466.00,4.7030
1465.00,5.0556
1464.00,4.3687
1463.00,4.3260
1462.00,4.5873
1461.00,4.1741
1460.00,3.9102
1459.00,4.0212
1458.00,4.6206
1457.00,4.4170
1456.00,4.1645
1455.00,3.8964
1454.00,3.8137
1453.00,3.9510
1452.00,4.0566
1451.00,4.1141
1450.00,4.2054
1449.00,4.4519
1448.00,4.4371
1447.00,4.0675
1446.00,3.8218
1445.00,3.8621
1444.00,4.0830
1443.00,4.1510
1442.00,3.9405
1441.00,3.8253
1440.00,3.6585
1439.00,3.3559
1438.00,3.0975
1437.00,2.9077
1436.00,2.7287
1435.00,2.5443
1434.00,2.3711
1433.00,2.2084
1432.00,2.0491
1431.00,1.8977
1430.00,1.7641
1429.00,1.6524
1428.00,1.5611
1427.00,1.4870
1426.00,1.4268
1425.00,1.3779
1424.00,1.3392
1423.00,1.3100
1422.00,1.2888
1421.00,1.2737
1420.00,1.2643
1419.00,1.2614
1418.00,1.2664
1417.00,1.2790
1416.00,1.2983
1415.00,1.3229
1414.00,1.3510
1413.00,1.3802
1412.00,1.4059
1411.00,1.4222
1410.00,1.4252
1409.00,1.4143
1408.00,1.3909
1407.00,1.3558
1406.00,1.3107
1405.00,1.2590
1404.00,1.2053
1403.00,1.1539
1402.00,1.1071
1401.00,1.0650
1400.00,1.0277
1399.00,0.9965
1398.00,0.9725
1397.00,0.9550
1396.00,0.9423
1395.00,0.9326
1394.00,0.9259
1393.00,0.9231
1392.00,0.9264
1391.00,0.9381
1390.00,0.9608
1389.00,0.9984
1388.00,1.0553
1387.00,1.1332
1386.00,1.2283
1385.00,1.3349
1384.00,1.4516
1383.00,1.5819
1382.00,1.7305
1381.00,1.9026
1380.00,2.1025
1379.00,2.3174
1378.00,2.4903
1377.00,2.5405
1376.00,2.4554
1375.00,2.2910
1374.00,2.1085
1373.00,1.9470
1372.00,1.8181
1371.00,1.7189
1370.00,1.6462
1369.00,1.5989
1368.00,1.5723
1367.00,1.5540
1366.00,1.5265
1365.00,1.4769
1364.00,1.4054
1363.00,1.3239
1362.00,1.2471
1361.00,1.1834
1360.00,1.1338
1359.00,1.0959
1358.00,1.0677
1357.00,1.0483
1356.00,1.0370
1355.00,1.0326
1354.00,1.0334
1353.00,1.0375
1352.00,1.0436
1351.00,1.0515
1350.00,1.0623
1349.00,1.0780
1348.00,1.1008
1347.00,1.1304
1346.00,1.1626
1345.00,1.1881
1344.00,1.1957
1343.00,1.1800
1342.00,1.1454
1341.00,1.1018
1340.00,1.0572
1339.00,1.0155
1338.00,0.9775
1337.00,0.9428
1336.00,0.9113
1335.00,0.8832
1334.00,0.8589
1333.00,0.8387
1332.00,0.8229
1331.00,0.8112
1330.00,0.8036
1329.00,0.7997
1328.00,0.7989
1327.00,0.8006
1326.00,0.8036
1325.00,0.8070
1324.00,0.8104
1323.00,0.8137
1322.00,0.8172
1321.00,0.8212
1320.00,0.8261
1319.00,0.8317
1318.00,0.8379
1317.00,0.8444
1316.00,0.8513
1315.00,0.8587
1314.00,0.8669
1313.00,0.8761
1312.00,0.8863
1311.00,0.8967
1310.00,0.9067
1309.00,0.9158
1308.00,0.9231
1307.00,0.9277
1306.00,0.9287
1305.00,0.9264
1304.00,0.9216
1303.00,0.9161
1302.00,0.9112
1301.00,0.9077
1300.00,0.9054
1299.00,0.9030
1298.00,0.8992
1297.00,0.8933
1296.00,0.8857
1295.00,0.8773
1294.00,0.8685
1293.00,0.8591
1292.00,0.8486
1291.00,0.8362
1290.00,0.8220
1289.00,0.8071
1288.00,0.7928
1287.00,0.7801
1286.00,0.7695
1285.00,0.7610
1284.00,0.7552
1283.00,0.7530
1282.00,0.7553
1281.00,0.7624
1280.00,0.7729
1279.00,0.7830
1278.00,0.7877
1277.00,0.7831
1276.00,0.7699
1275.00,0.7517
1274.00,0.7333
1273.00,0.7176
1272.00,0.7054
1271.00,0.6966
1270.00,0.6906
1269.00,0.6861
1268.00,0.6821
1267.00,0.6774
1266.00,0.6721
1265.00,0.6665
1264.00,0.6614
1263.00,0.6572
1262.00,0.6539
1261.00,0.6517
1260.00,0.6508
1259.00,0.6514
1258.00,0.6532
1257.00,0.6557
1256.00,0.6588
1255.00,0.6625
1254.00,0.6666
1253.00,0.6704
1252.00,0.6732
1251.00,0.6743
1250.00,0.6734
1249.00,0.6709
1248.00,0.6674
1247.00,0.6632
1246.00,0.6587
1245.00,0.6541
1244.00,0.6497
1243.00,0.6461
1242.00,0.6429
1241.00,0.6395
1240.00,0.6358
1239.00,0.6324
1238.00,0.6305
1237.00,0.6313
1236.00,0.6353
1235.00,0.6424
1234.00,0.6517
1233.00,0.6620
1232.00,0.6715
1231.00,0.6786
1230.00,0.6814
1229.00,0.6785
1228.00,0.6699
1227.00,0.6567
1226.00,0.6408
1225.00,0.6244
1224.00,0.6091
1223.00,0.5959
1222.00,0.5851
1221.00,0.5763
1220.00,0.5695
1219.00,0.5645
1218.00,0.5613
1217.00,0.5598
1216.00,0.5599
1215.00,0.5611
1214.00,0.5629
1213.00,0.5645
1212.00,0.5653
1211.00,0.5651
1210.00,0.5636
1209.00,0.5608
1208.00,0.5569
1207.00,0.5527
1206.00,0.5490
1205.00,0.5471
1204.00,0.5476
1203.00,0.5512
1202.00,0.5580
1201.00,0.5666
1200.00,0.5747
1199.00,0.5796
1198.00,0.5801
1197.00,0.5775
1196.00,0.5746
1195.00,0.5739
1194.00,0.5763
1193.00,0.5814
1192.00,0.5880
1191.00,0.5944
1190.00,0.5985
1189.00,0.5993
1188.00,0.5966
1187.00,0.5914
1186.00,0.5854
1185.00,0.5795
1184.00,0.5742
1183.00,0.5696
1182.00,0.5655
1181.00,0.5617
1180.00,0.5584
1179.00,0.5559
1178.00,0.5544
1177.00,0.5539
1176.00,0.5547
1175.00,0.5568
1174.00,0.5601
1173.00,0.5643
1172.00,0.5690
1171.00,0.5736
1170.00,0.5776
1169.00,0.5806
1168.00,0.5825
1167.00,0.5837
1166.00,0.5847
1165.00,0.5859
1164.00,0.5878
1163.00,0.5904
1162.00,0.5934
1161.00,0.5961
1160.00,0.5981
1159.00,0.5991
1158.00,0.5992
1157.00,0.5988
1156.00,0.5984
1155.00,0.5979
1154.00,0.5974
1153.00,0.5965
1152.00,0.5952
1151.00,0.5935
1150.00,0.5915
1149.00,0.5891
1148.00,0.5866
1147.00,0.5840
1146.00,0.5815
1145.00,0.5795
1144.00,0.5781
1143.00,0.5778
1142.00,0.5788
1141.00,0.5813
1140.00,0.5857
1139.00,0.5918
1138.00,0.5993
1137.00,0.6084
1136.00,0.6188
1135.00,0.6294
1134.00,0.6380
1133.00,0.6418
1132.00,0.6390
1131.00,0.6307
1130.00,0.6198
1129.00,0.6102
1128.00,0.6047
1127.00,0.6036
1126.00,0.6054
1125.00,0.6070
1124.00,0.6061
1123.00,0.6020
1122.00,0.5957
1121.00,0.5894
1120.00,0.5849
1119.00,0.5832
1118.00,0.5843
1117.00,0.5874
1116.00,0.5912
1115.00,0.5938
1114.00,0.5930
1113.00,0.5875
1112.00,0.5779
1111.00,0.5659
1110.00,0.5538
1109.00,0.5434
1108.00,0.5356
1107.00,0.5308
1106.00,0.5292
1105.00,0.5308
1104.00,0.5352
1103.00,0.5421
1102.00,0.5506
1101.00,0.5594
1100.00,0.5669
1099.00,0.5709
1098.00,0.5702
1097.00,0.5655
1096.00,0.5588
1095.00,0.5525
1094.00,0.5474
1093.00,0.5434
1092.00,0.5401
1091.00,0.5369
1090.00,0.5341
1089.00,0.5318
1088.00,0.5304
1087.00,0.5306
1086.00,0.5326
1085.00,0.5366
1084.00,0.5426
1083.00,0.5506
1082.00,0.5599
1081.00,0.5697
1080.00,0.5791
1079.00,0.5869
1078.00,0.5919
1077.00,0.5930
1076.00,0.5898
1075.00,0.5828
1074.00,0.5731
1073.00,0.5623
1072.00,0.5519
1071.00,0.5427
1070.00,0.5350
1069.00,0.5284
1068.00,0.5229
1067.00,0.5181
1066.00,0.5141
1065.00,0.5108
1064.00,0.5081
1063.00,0.5062
1062.00,0.5047
1061.00,0.5034
1060.00,0.5017
1059.00,0.4996
1058.00,0.4968
1057.00,0.4935
1056.00,0.4899
1055.00,0.4864
1054.00,0.4829
1053.00,0.4794
1052.00,0.4761
1051.00,0.4735
1050.00,0.4715
1049.00,0.4702
1048.00,0.4695
1047.00,0.4693
1046.00,0.4694
1045.00,0.4693
1044.00,0.4690
1043.00,0.4686
1042.00,0.4685
1041.00,0.4688
1040.00,0.4694
1039.00,0.4704
1038.00,0.4717
1037.00,0.4733
1036.00,0.4754
1035.00,0.4784
1034.00,0.4825
1033.00,0.4877
1032.00,0.4939
1031.00,0.5007
1030.00,0.5075
1029.00,0.5133
1028.00,0.5170
1027.00,0.5177
1026.00,0.5147
1025.00,0.5086
1024.00,0.5004
1023.00,0.4913
1022.00,0.4826
1021.00,0.4749
1020.00,0.4688
1019.00,0.4643
1018.00,0.4612
1017.00,0.4593
1016.00,0.4580
1015.00,0.4573
1014.00,0.4568
1013.00,0.4562
1012.00,0.4553
1011.00,0.4543
1010.00,0.4539
1009.00,0.4545
1008.00,0.4558
1007.00,0.4577
1006.00,0.4595
1005.00,0.4612
1004.00,0.4627
1003.00,0.4643
1002.00,0.4658
1001.00,0.4674
1000.00,0.4688
999.00,0.4697
998.00,0.4699
997.00,0.4692
996.00,0.4677
995.00,0.4659
994.00,0.4640
993.00,0.4623
992.00,0.4608
991.00,0.4595
990.00,0.4584
989.00,0.4571
988.00,0.4553
987.00,0.4531
986.00,0.4508
985.00,0.4494
984.00,0.4497
983.00,0.4520
982.00,0.4563
981.00,0.4622
980.00,0.4695
979.00,0.4787
978.00,0.4908
977.00,0.5078
976.00,0.5319
975.00,0.5655
974.00,0.6108
973.00,0.6702
972.00,0.7449
971.00,0.8336
970.00,0.9287
969.00,1.0122
968.00,1.0566
967.00,1.0422
966.00,0.9768
965.00,0.8872
964.00,0.7968
963.00,0.7177
962.00,0.6553
961.00,0.6112
960.00,0.5854
959.00,0.5755
958.00,0.5769
957.00,0.5831
956.00,0.5874
955.00,0.5850
954.00,0.5747
953.00,0.5583
952.00,0.5394
951.00,0.5211
950.00,0.5056
949.00,0.4937
948.00,0.4857
947.00,0.4815
946.00,0.4808
945.00,0.4828
944.00,0.4868
943.00,0.4922
942.00,0.4980
941.00,0.5033
940.00,0.5074
939.00,0.5098
938.00,0.5103
937.00,0.5092
936.00,0.5069
935.00,0.5038
934.00,0.5000
933.00,0.4955
932.00,0.4904
931.00,0.4849
930.00,0.4792
929.00,0.4740
928.00,0.4697
927.00,0.4672
926.00,0.4671
925.00,0.4698
924.00,0.4750
923.00,0.4819
922.00,0.4887
921.00,0.4928
920.00,0.4923
919.00,0.4866
918.00,0.4768
917.00,0.4651
916.00,0.4535
915.00,0.4435
914.00,0.4359
913.00,0.4303
912.00,0.4266
911.00,0.4244
910.00,0.4234
909.00,0.4239
908.00,0.4261
907.00,0.4304
906.00,0.4370
905.00,0.4447
904.00,0.4510
903.00,0.4536
902.00,0.4515
901.00,0.4464
900.00,0.4413
899.00,0.4382
898.00,0.4374
897.00,0.4385
896.00,0.4408
895.00,0.4443
894.00,0.4488
893.00,0.4542
892.00,0.4600
891.00,0.4657
890.00,0.4705
889.00,0.4735
888.00,0.4739
887.00,0.4717
886.00,0.4674
885.00,0.4622
884.00,0.4572
883.00,0.4534
882.00,0.4507
881.00,0.4492
880.00,0.4485
879.00,0.4484
878.00,0.4488
877.00,0.4493
876.00,0.4499
875.00,0.4506
874.00,0.4512
873.00,0.4514
872.00,0.4514
871.00,0.4514
870.00,0.4516
869.00,0.4524
868.00,0.4541
867.00,0.4570
866.00,0.4615
865.00,0.4674
864.00,0.4739
863.00,0.4797
862.00,0.4826
861.00,0.4809
860.00,0.4744
859.00,0.4649
858.00,0.4546
857.00,0.4456
856.00,0.4386
855.00,0.4336
854.00,0.4302
853.00,0.4279
852.00,0.4266
851.00,0.4258
850.00,0.4251
849.00,0.4242
848.00,0.4231
847.00,0.4221
846.00,0.4214
845.00,0.4211
844.00,0.4214
843.00,0.4226
842.00,0.4253
841.00,0.4307
840.00,0.4395
839.00,0.4517
838.00,0.4654
837.00,0.4773
836.00,0.4835
835.00,0.4825
834.00,0.4759
833.00,0.4672
832.00,0.4597
831.00,0.4558
830.00,0.4562
829.00,0.4606
828.00,0.4674
827.00,0.4755
826.00,0.4839
825.00,0.4928
824.00,0.5021
823.00,0.5115
822.00,0.5194
821.00,0.5241
820.00,0.5251
819.00,0.5226
818.00,0.5176
817.00,0.5115
816.00,0.5055
815.00,0.5001
814.00,0.4950
813.00,0.4897
812.00,0.4840
811.00,0.4783
810.00,0.4729
809.00,0.4676
808.00,0.4626
807.00,0.4579
806.00,0.4532
805.00,0.4485
804.00,0.4437
803.00,0.4389
802.00,0.4344
801.00,0.4307
800.00,0.4281
799.00,0.4266
798.00,0.4258
797.00,0.4253
796.00,0.4248
795.00,0.4245
794.00,0.4246
793.00,0.4252
792.00,0.4265
791.00,0.4283
790.00,0.4305
789.00,0.4326
788.00,0.4345
787.00,0.4367
786.00,0.4399
785.00,0.4446
784.00,0.4513
783.00,0.4601
782.00,0.4711
781.00,0.4843
780.00,0.4995
779.00,0.5146
778.00,0.5260
777.00,0.5301
776.00,0.5259
775.00,0.5161
774.00,0.5055
773.00,0.4976
772.00,0.4938
771.00,0.4935
770.00,0.4954
769.00,0.4982
768.00,0.5012
767.00,0.5041
766.00,0.5068
765.00,0.5092
764.00,0.5116
763.00,0.5148
762.00,0.5192
761.00,0.5246
760.00,0.5302
759.00,0.5350
758.00,0.5383
757.00,0.5404
756.00,0.5422
755.00,0.5449
754.00,0.5489
753.00,0.5542
752.00,0.5601
751.00,0.5665
750.00,0.5731
749.00,0.5800
748.00,0.5872
747.00,0.5948
746.00,0.6029
745.00,0.6118
744.00,0.6215
743.00,0.6321
742.00,0.6439
741.00,0.6568
740.00,0.6704
739.00,0.6845
738.00,0.6990
737.00,0.7140
736.00,0.7299
735.00,0.7465
734.00,0.7636
733.00,0.7811
732.00,0.7996
731.00,0.8203
730.00,0.8448
729.00,0.8745
728.00,0.9114
727.00,0.9579
726.00,1.0156
725.00,1.0837
724.00,1.1570
723.00,1.2238
722.00,1.2648
721.00,1.2611
720.00,1.2116
719.00,1.1361
718.00,1.0569
717.00,0.9865
716.00,0.9289
715.00,0.8836
714.00,0.8484
713.00,0.8205
712.00,0.7973
711.00,0.7770
710.00,0.7576
709.00,0.7373
708.00,0.7157
707.00,0.6939
706.00,0.6729
705.00,0.6532
704.00,0.6346
703.00,0.6174
702.00,0.6018
701.00,0.5873
700.00,0.5734
699.00,0.5592
698.00,0.5440
697.00,0.5276
696.00,0.5111
695.00,0.4958
694.00,0.4831
693.00,0.4730
692.00,0.4651
691.00,0.4590
690.00,0.4543
689.00,0.4501
688.00,0.4459
687.00,0.4412
686.00,0.4361
685.00,0.4311
684.00,0.4266
683.00,0.4232
682.00,0.4208
681.00,0.4192
680.00,0.4181
679.00,0.4171
678.00,0.4162
677.00,0.4155
676.00,0.4150
675.00,0.4149
674.00,0.4149
673.00,0.4151
672.00,0.4152
671.00,0.4149
670.00,0.4146
669.00,0.4147
668.00,0.4152
667.00,0.4158
666.00,0.4170
665.00,0.4186
664.00,0.4199
663.00,0.4209
662.00,0.4217
661.00,0.4226
660.00,0.4235
659.00,0.4244
658.00,0.4253
657.00,0.4260
656.00,0.4265
655.00,0.4271
654.00,0.4280
653.00,0.4290
652.00,0.4301
651.00,0.4315
650.00,0.4330
649.00,0.4345
648.00,0.4359
647.00,0.4373
646.00,0.4390
645.00,0.4410
644.00,0.4432
643.00,0.4457
642.00,0.4483
641.00,0.4509
640.00,0.4535
639.00,0.4561
638.00,0.4584
637.00,0.4602
636.00,0.4613
635.00,0.4619
634.00,0.4623
633.00,0.4629
632.00,0.4638
631.00,0.4653
630.00,0.4672
629.00,0.4695
628.00,0.4725
627.00,0.4761
626.00,0.4799
625.00,0.4833
624.00,0.4862
623.00,0.4886
622.00,0.4906
621.00,0.4922
620.00,0.4933
619.00,0.4941
618.00,0.4947
617.00,0.4954
616.00,0.4959
615.00,0.4963
614.00,0.4964
613.00,0.4959
612.00,0.4949
611.00,0.4940
610.00,0.4935
609.00,0.4935
608.00,0.4940
607.00,0.4945
606.00,0.4950
605.00,0.4954
604.00,0.4952
603.00,0.4945
602.00,0.4932
601.00,0.4916
600.00,0.4897
599.00,0.4878
598.00,0.4861
597.00,0.4850
596.00,0.4845
595.00,0.4844
594.00,0.4844
593.00,0.4843
592.00,0.4843
591.00,0.4846
590.00,0.4855
589.00,0.4873
588.00,0.4900
587.00,0.4937
586.00,0.4979
585.00,0.5022
584.00,0.5060
583.00,0.5092
582.00,0.5121
581.00,0.5149
580.00,0.5176
579.00,0.5201
578.00,0.5224
577.00,0.5248
576.00,0.5277
575.00,0.5311
574.00,0.5348
573.00,0.5386
572.00,0.5419
571.00,0.5446
570.00,0.5471
569.00,0.5499
568.00,0.5533
567.00,0.5571
566.00,0.5613
565.00,0.5659
564.00,0.5711
563.00,0.5765
562.00,0.5814
561.00,0.5856
560.00,0.5895
559.00,0.5933
558.00,0.5972
557.00,0.6016
556.00,0.6069
555.00,0.6131
554.00,0.6199
553.00,0.6267
552.00,0.6331
551.00,0.6388
550.00,0.6438
