Created as New Dataset,
cm-1,A
4000.00,0.3392
3999.00,0.3389
3998.00,0.3386
3997.00,0.3383
3996.00,0.3381
3995.00,0.3378
3994.00,0.3375
3993.00,0.3372
3992.00,0.3369
3991.00,0.3366
3990.00,0.3363
3989.00,0.3359
3988.00,0.3354
3987.00,0.3350
3986.00,0.3345
3985.00,0.3341
3984.00,0.3338
3983.00,0.3334
3982.00,0.3330
3981.00,0.3325
3980.00,0.3321
3979.00,0.3317
3978.00,0.3313
3977.00,0.3309
3976.00,0.3306
3975.00,0.3304
3974.00,0.3301
3973.00,0.3298
3972.00,0.3295
3971.00,0.3293
3970.00,0.3290
3969.00,0.3288
3968.00,0.3286
3967.00,0.3283
3966.00,0.3281
3965.00,0.3278
3964.00,0.3275
3963.00,0.3273
3962.00,0.3271
3961.00,0.3269
3960.00,0.3267
3959.00,0.3265
3958.00,0.3263
3957.00,0.3261
3956.00,0.3259
3955.00,0.3258
3954.00,0.3255
3953.00,0.3253
3952.00,0.3250
3951.00,0.3247
3950.00,0.3245
3949.00,0.3243
3948.00,0.3241
3947.00,0.3238
3946.00,0.3236
3945.00,0.3233
3944.00,0.3232
3943.00,0.3230
3942.00,0.3229
3941.00,0.3228
3940.00,0.3228
3939.00,0.3228
3938.00,0.3227
3937.00,0.3227
3936.00,0.3225
3935.00,0.3224
3934.00,0.3223
3933.00,0.3222
3932.00,0.3222
3931.00,0.3223
3930.00,0.3223
3929.00,0.3223
3928.00,0.3223
3927.00,0.3224
3926.00,0.3224
3925.00,0.3224
3924.00,0.3223
3923.00,0.3222
3922.00,0.3220
3921.00,0.3220
3920.00,0.3219
3919.00,0.3219
3918.00,0.3218
3917.00,0.3218
3916.00,0.3217
3915.00,0.3216
3914.00,0.3216
3913.00,0.3216
3912.00,0.3216
3911.00,0.3215
3910.00,0.3214
3909.00,0.3211
3908.00,0.3208
3907.00,0.3206
3906.00,0.3203
3905.00,0.3202
3904.00,0.3200
3903.00,0.3199
3902.00,0.3198
3901.00,0.3199
3900.00,0.3201
3899.00,0.3203
3898.00,0.3205
3897.00,0.3205
3896.00,0.3204
3895.00,0.3203
3894.00,0.3202
3893.00,0.3201
3892.00,0.3201
3891.00,0.3201
3890.00,0.3199
3889.00,0.3196
3888.00,0.3193
3887.00,0.3192
3886.00,0.3193
3885.00,0.3192
3884.00,0.3189
3883.00,0.3186
3882.00,0.3185
3881.00,0.3186
3880.00,0.3187
3879.00,0.3187
3878.00,0.3185
3877.00,0.3183
3876.00,0.3182
3875.00,0.3182
3874.00,0.3181
3873.00,0.3177
3872.00,0.3173
3871.00,0.3172
3870.00,0.3172
3869.00,0.3172
3868.00,0.3169
3867.00,0.3166
3866.00,0.3166
3865.00,0.3167
3864.00,0.3168
3863.00,0.3167
3862.00,0.3166
3861.00,0.3166
3860.00,0.3165
3859.00,0.3164
3858.00,0.3161
3857.00,0.3155
3856.00,0.3149
3855.00,0.3146
3854.00,0.3146
3853.00,0.3148
3852.00,0.3149
3851.00,0.3147
3850.00,0.3148
3849.00,0.3152
3848.00,0.3155
3847.00,0.3156
3846.00,0.3155
3845.00,0.3154
3844.00,0.3151
3843.00,0.3148
3842.00,0.3143
3841.00,0.3139
3840.00,0.3136
3839.00,0.3135
3838.00,0.3135
3837.00,0.3136
3836.00,0.3136
3835.00,0.3135
3834.00,0.3136
3833.00,0.3139
3832.00,0.3141
3831.00,0.3142
3830.00,0.3141
3829.00,0.3139
3828.00,0.3139
3827.00,0.3140
3826.00,0.3139
3825.00,0.3136
3824.00,0.3132
3823.00,0.3129
3822.00,0.3129
3821.00,0.3130
3820.00,0.3128
3819.00,0.3123
3818.00,0.3121
3817.00,0.3122
3816.00,0.3125
3815.00,0.3126
3814.00,0.3123
3813.00,0.3119
3812.00,0.3117
3811.00,0.3115
3810.00,0.3113
3809.00,0.3110
3808.00,0.3108
3807.00,0.3106
3806.00,0.3103
3805.00,0.3097
3804.00,0.3092
3803.00,0.3090
3802.00,0.3092
3801.00,0.3094
3800.00,0.3092
3799.00,0.3089
3798.00,0.3087
3797.00,0.3089
3796.00,0.3092
3795.00,0.3093
3794.00,0.3092
3793.00,0.3091
3792.00,0.3091
3791.00,0.3090
3790.00,0.3089
3789.00,0.3086
3788.00,0.3084
3787.00,0.3082
3786.00,0.3080
3785.00,0.3078
3784.00,0.3077
3783.00,0.3074
3782.00,0.3071
3781.00,0.3069
3780.00,0.3068
3779.00,0.3067
3778.00,0.3065
3777.00,0.3063
3776.00,0.3062
3775.00,0.3060
3774.00,0.3059
3773.00,0.3056
3772.00,0.3053
3771.00,0.3050
3770.00,0.3048
3769.00,0.3045
3768.00,0.3042
3767.00,0.3041
3766.00,0.3041
3765.00,0.3041
3764.00,0.3040
3763.00,0.3038
3762.00,0.3037
3761.00,0.3037
3760.00,0.3037
3759.00,0.3037
3758.00,0.3035
3757.00,0.3033
3756.00,0.3030
3755.00,0.3026
3754.00,0.3022
3753.00,0.3019
3752.00,0.3016
3751.00,0.3014
3750.00,0.3013
3749.00,0.3011
3748.00,0.3007
3747.00,0.3002
3746.00,0.3001
3745.00,0.3004
3744.00,0.3008
3743.00,0.3008
3742.00,0.3005
3741.00,0.3003
3740.00,0.3003
3739.00,0.3002
3738.00,0.2999
3737.00,0.2995
3736.00,0.2993
3735.00,0.2992
3734.00,0.2991
3733.00,0.2992
3732.00,0.2994
3731.00,0.2995
3730.00,0.2995
3729.00,0.2994
3728.00,0.2993
3727.00,0.2993
3726.00,0.2992
3725.00,0.2990
3724.00,0.2989
3723.00,0.2988
3722.00,0.2988
3721.00,0.2988
3720.00,0.2988
3719.00,0.2988
3718.00,0.2988
3717.00,0.2988
3716.00,0.2985
3715.00,0.2982
3714.00,0.2979
3713.00,0.2977
3712.00,0.2976
3711.00,0.2975
3710.00,0.2975
3709.00,0.2976
3708.00,0.2978
3707.00,0.2980
3706.00,0.2980
3705.00,0.2980
3704.00,0.2980
3703.00,0.2980
3702.00,0.2981
3701.00,0.2981
3700.00,0.2980
3699.00,0.2980
3698.00,0.2980
3697.00,0.2981
3696.00,0.2982
3695.00,0.2981
3694.00,0.2980
3693.00,0.2978
3692.00,0.2977
3691.00,0.2976
3690.00,0.2978
3689.00,0.2980
3688.00,0.2983
3687.00,0.2984
3686.00,0.2986
3685.00,0.2988
3684.00,0.2991
3683.00,0.2992
3682.00,0.2991
3681.00,0.2989
3680.00,0.2986
3679.00,0.2982
3678.00,0.2977
3677.00,0.2975
3676.00,0.2975
3675.00,0.2976
3674.00,0.2975
3673.00,0.2973
3672.00,0.2974
3671.00,0.2979
3670.00,0.2984
3669.00,0.2987
3668.00,0.2989
3667.00,0.2992
3666.00,0.2997
3665.00,0.3004
3664.00,0.3010
3663.00,0.3017
3662.00,0.3024
3661.00,0.3031
3660.00,0.3041
3659.00,0.3053
3658.00,0.3069
3657.00,0.3091
3656.00,0.3116
3655.00,0.3140
3654.00,0.3161
3653.00,0.3180
3652.00,0.3199
3651.00,0.3216
3650.00,0.3228
3649.00,0.3233
3648.00,0.3231
3647.00,0.3223
3646.00,0.3212
3645.00,0.3200
3644.00,0.3186
3643.00,0.3172
3642.00,0.3158
3641.00,0.3144
3640.00,0.3130
3639.00,0.3118
3638.00,0.3108
3637.00,0.3098
3636.00,0.3091
3635.00,0.3084
3634.00,0.3078
3633.00,0.3070
3632.00,0.3062
3631.00,0.3056
3630.00,0.3053
3629.00,0.3054
3628.00,0.3055
3627.00,0.3056
3626.00,0.3057
3625.00,0.3059
3624.00,0.3062
3623.00,0.3063
3622.00,0.3060
3621.00,0.3056
3620.00,0.3052
3619.00,0.3048
3618.00,0.3044
3617.00,0.3040
3616.00,0.3038
3615.00,0.3037
3614.00,0.3037
3613.00,0.3036
3612.00,0.3035
3611.00,0.3033
3610.00,0.3033
3609.00,0.3033
3608.00,0.3035
3607.00,0.3035
3606.00,0.3034
3605.00,0.3032
3604.00,0.3029
3603.00,0.3025
3602.00,0.3020
3601.00,0.3013
3600.00,0.3005
3599.00,0.2996
3598.00,0.2986
3597.00,0.2977
3596.00,0.2968
3595.00,0.2959
3594.00,0.2951
3593.00,0.2944
3592.00,0.2937
3591.00,0.2930
3590.00,0.2925
3589.00,0.2921
3588.00,0.2919
3587.00,0.2916
3586.00,0.2914
3585.00,0.2912
3584.00,0.2912
3583.00,0.2912
3582.00,0.2912
3581.00,0.2911
3580.00,0.2910
3579.00,0.2908
3578.00,0.2907
3577.00,0.2907
3576.00,0.2906
3575.00,0.2906
3574.00,0.2906
3573.00,0.2905
3572.00,0.2904
3571.00,0.2903
3570.00,0.2901
3569.00,0.2899
3568.00,0.2898
3567.00,0.2898
3566.00,0.2898
3565.00,0.2898
3564.00,0.2899
3563.00,0.2901
3562.00,0.2902
3561.00,0.2903
3560.00,0.2904
3559.00,0.2905
3558.00,0.2906
3557.00,0.2907
3556.00,0.2908
3555.00,0.2910
3554.00,0.2911
3553.00,0.2913
3552.00,0.2915
3551.00,0.2917
3550.00,0.2919
3549.00,0.2921
3548.00,0.2924
3547.00,0.2927
3546.00,0.2930
3545.00,0.2932
3544.00,0.2935
3543.00,0.2938
3542.00,0.2941
3541.00,0.2944
3540.00,0.2947
3539.00,0.2949
3538.00,0.2952
3537.00,0.2954
3536.00,0.2957
3535.00,0.2959
3534.00,0.2960
3533.00,0.2963
3532.00,0.2965
3531.00,0.2967
3530.00,0.2969
3529.00,0.2971
3528.00,0.2973
3527.00,0.2976
3526.00,0.2979
3525.00,0.2982
3524.00,0.2985
3523.00,0.2987
3522.00,0.2990
3521.00,0.2993
3520.00,0.2997
3519.00,0.3001
3518.00,0.3004
3517.00,0.3008
3516.00,0.3012
3515.00,0.3016
3514.00,0.3020
3513.00,0.3024
3512.00,0.3028
3511.00,0.3032
3510.00,0.3036
3509.00,0.3041
3508.00,0.3045
3507.00,0.3050
3506.00,0.3054
3505.00,0.3059
3504.00,0.3063
3503.00,0.3068
3502.00,0.3073
3501.00,0.3079
3500.00,0.3084
3499.00,0.3090
3498.00,0.3094
3497.00,0.3099
3496.00,0.3104
3495.00,0.3109
3494.00,0.3114
3493.00,0.3121
3492.00,0.3127
3491.00,0.3133
3490.00,0.3138
3489.00,0.3144
3488.00,0.3151
3487.00,0.3157
3486.00,0.3163
3485.00,0.3169
3484.00,0.3175
3483.00,0.3181
3482.00,0.3187
3481.00,0.3192
3480.00,0.3198
3479.00,0.3204
3478.00,0.3209
3477.00,0.3213
3476.00,0.3217
3475.00,0.3221
3474.00,0.3226
3473.00,0.3232
3472.00,0.3239
3471.00,0.3246
3470.00,0.3252
3469.00,0.3258
3468.00,0.3264
3467.00,0.3270
3466.00,0.3276
3465.00,0.3281
3464.00,0.3287
3463.00,0.3293
3462.00,0.3300
3461.00,0.3307
3460.00,0.3315
3459.00,0.3322
3458.00,0.3330
3457.00,0.3337
3456.00,0.3344
3455.00,0.3351
3454.00,0.3358
3453.00,0.3367
3452.00,0.3376
3451.00,0.3386
3450.00,0.3396
3449.00,0.3406
3448.00,0.3416
3447.00,0.3428
3446.00,0.3440
3445.00,0.3453
3444.00,0.3467
3443.00,0.3481
3442.00,0.3495
3441.00,0.3510
3440.00,0.3523
3439.00,0.3536
3438.00,0.3548
3437.00,0.3558
3436.00,0.3568
3435.00,0.3576
3434.00,0.3584
3433.00,0.3591
3432.00,0.3597
3431.00,0.3604
3430.00,0.3611
3429.00,0.3618
3428.00,0.3626
3427.00,0.3633
3426.00,0.3640
3425.00,0.3647
3424.00,0.3654
3423.00,0.3661
3422.00,0.3668
3421.00,0.3677
3420.00,0.3685
3419.00,0.3694
3418.00,0.3704
3417.00,0.3714
3416.00,0.3724
3415.00,0.3734
3414.00,0.3744
3413.00,0.3754
3412.00,0.3764
3411.00,0.3774
3410.00,0.3785
3409.00,0.3796
3408.00,0.3808
3407.00,0.3821
3406.00,0.3833
3405.00,0.3846
3404.00,0.3859
3403.00,0.3872
3402.00,0.3885
3401.00,0.3897
3400.00,0.3910
3399.00,0.3922
3398.00,0.3935
3397.00,0.3947
3396.00,0.3960
3395.00,0.3972
3394.00,0.3985
3393.00,0.3998
3392.00,0.4011
3391.00,0.4024
3390.00,0.4037
3389.00,0.4050
3388.00,0.4063
3387.00,0.4076
3386.00,0.4089
3385.00,0.4102
3384.00,0.4115
3383.00,0.4130
3382.00,0.4144
3381.00,0.4159
3380.00,0.4174
3379.00,0.4190
3378.00,0.4206
3377.00,0.4222
3376.00,0.4239
3375.00,0.4254
3374.00,0.4270
3373.00,0.4286
3372.00,0.4303
3371.00,0.4321
3370.00,0.4340
3369.00,0.4358
3368.00,0.4377
3367.00,0.4395
3366.00,0.4414
3365.00,0.4433
3364.00,0.4452
3363.00,0.4471
3362.00,0.4490
3361.00,0.4509
3360.00,0.4529
3359.00,0.4548
3358.00,0.4568
3357.00,0.4588
3356.00,0.4608
3355.00,0.4627
3354.00,0.4646
3353.00,0.4665
3352.00,0.4684
3351.00,0.4703
3350.00,0.4721
3349.00,0.4739
3348.00,0.4755
3347.00,0.4771
3346.00,0.4787
3345.00,0.4803
3344.00,0.4818
3343.00,0.4832
3342.00,0.4845
3341.00,0.4857
3340.00,0.4868
3339.00,0.4879
3338.00,0.4888
3337.00,0.4896
3336.00,0.4903
3335.00,0.4910
3334.00,0.4915
3333.00,0.4919
3332.00,0.4921
3331.00,0.4922
3330.00,0.4922
3329.00,0.4922
3328.00,0.4922
3327.00,0.4920
3326.00,0.4917
3325.00,0.4913
3324.00,0.4908
3323.00,0.4903
3322.00,0.4897
3321.00,0.4890
3320.00,0.4882
3319.00,0.4874
3318.00,0.4865
3317.00,0.4857
3316.00,0.4848
3315.00,0.4838
3314.00,0.4829
3313.00,0.4820
3312.00,0.4811
3311.00,0.4801
3310.00,0.4791
3309.00,0.4781
3308.00,0.4771
3307.00,0.4762
3306.00,0.4753
3305.00,0.4744
3304.00,0.4734
3303.00,0.4725
3302.00,0.4716
3301.00,0.4709
3300.00,0.4701
3299.00,0.4695
3298.00,0.4689
3297.00,0.4683
3296.00,0.4677
3295.00,0.4671
3294.00,0.4665
3293.00,0.4659
3292.00,0.4654
3291.00,0.4650
3290.00,0.4648
3289.00,0.4646
3288.00,0.4644
3287.00,0.4643
3286.00,0.4642
3285.00,0.4642
3284.00,0.4642
3283.00,0.4642
3282.00,0.4642
3281.00,0.4644
3280.00,0.4646
3279.00,0.4648
3278.00,0.4650
3277.00,0.4652
3276.00,0.4655
3275.00,0.4659
3274.00,0.4663
3273.00,0.4667
3272.00,0.4670
3271.00,0.4674
3270.00,0.4678
3269.00,0.4683
3268.00,0.4687
3267.00,0.4692
3266.00,0.4696
3265.00,0.4700
3264.00,0.4705
3263.00,0.4709
3262.00,0.4713
3261.00,0.4717
3260.00,0.4720
3259.00,0.4724
3258.00,0.4727
3257.00,0.4731
3256.00,0.4735
3255.00,0.4739
3254.00,0.4743
3253.00,0.4746
3252.00,0.4748
3251.00,0.4751
3250.00,0.4753
3249.00,0.4756
3248.00,0.4758
3247.00,0.4759
3246.00,0.4760
3245.00,0.4760
3244.00,0.4759
3243.00,0.4758
3242.00,0.4758
3241.00,0.4758
3240.00,0.4758
3239.00,0.4757
3238.00,0.4755
3237.00,0.4753
3236.00,0.4751
3235.00,0.4748
3234.00,0.4744
3233.00,0.4741
3232.00,0.4738
3231.00,0.4733
3230.00,0.4728
3229.00,0.4723
3228.00,0.4717
3227.00,0.4712
3226.00,0.4708
3225.00,0.4703
3224.00,0.4698
3223.00,0.4693
3222.00,0.4687
3221.00,0.4681
3220.00,0.4676
3219.00,0.4671
3218.00,0.4666
3217.00,0.4661
3216.00,0.4656
3215.00,0.4650
3214.00,0.4644
3213.00,0.4638
3212.00,0.4633
3211.00,0.4628
3210.00,0.4623
3209.00,0.4618
3208.00,0.4612
3207.00,0.4607
3206.00,0.4602
3205.00,0.4597
3204.00,0.4591
3203.00,0.4585
3202.00,0.4579
3201.00,0.4574
3200.00,0.4568
3199.00,0.4563
3198.00,0.4557
3197.00,0.4552
3196.00,0.4546
3195.00,0.4541
3194.00,0.4535
3193.00,0.4528
3192.00,0.4522
3191.00,0.4515
3190.00,0.4509
3189.00,0.4502
3188.00,0.4495
3187.00,0.4488
3186.00,0.4481
3185.00,0.4474
3184.00,0.4467
3183.00,0.4459
3182.00,0.4452
3181.00,0.4444
3180.00,0.4436
3179.00,0.4428
3178.00,0.4419
3177.00,0.4410
3176.00,0.4402
3175.00,0.4395
3174.00,0.4387
3173.00,0.4380
3172.00,0.4373
3171.00,0.4365
3170.00,0.4356
3169.00,0.4347
3168.00,0.4338
3167.00,0.4329
3166.00,0.4320
3165.00,0.4312
3164.00,0.4303
3163.00,0.4295
3162.00,0.4286
3161.00,0.4277
3160.00,0.4268
3159.00,0.4260
3158.00,0.4251
3157.00,0.4243
3156.00,0.4235
3155.00,0.4228
3154.00,0.4222
3153.00,0.4215
3152.00,0.4208
3151.00,0.4202
3150.00,0.4195
3149.00,0.4188
3148.00,0.4182
3147.00,0.4176
3146.00,0.4170
3145.00,0.4164
3144.00,0.4158
3143.00,0.4153
3142.00,0.4148
3141.00,0.4144
3140.00,0.4140
3139.00,0.4136
3138.00,0.4131
3137.00,0.4127
3136.00,0.4123
3135.00,0.4119
3134.00,0.4115
3133.00,0.4112
3132.00,0.4109
3131.00,0.4106
3130.00,0.4103
3129.00,0.4101
3128.00,0.4099
3127.00,0.4097
3126.00,0.4095
3125.00,0.4094
3124.00,0.4094
3123.00,0.4093
3122.00,0.4094
3121.00,0.4095
3120.00,0.4096
3119.00,0.4098
3118.00,0.4101
3117.00,0.4105
3116.00,0.4108
3115.00,0.4111
3114.00,0.4115
3113.00,0.4120
3112.00,0.4125
3111.00,0.4131
3110.00,0.4137
3109.00,0.4145
3108.00,0.4153
3107.00,0.4162
3106.00,0.4171
3105.00,0.4180
3104.00,0.4189
3103.00,0.4198
3102.00,0.4207
3101.00,0.4216
3100.00,0.4225
3099.00,0.4235
3098.00,0.4245
3097.00,0.4256
3096.00,0.4267
3095.00,0.4279
3094.00,0.4291
3093.00,0.4304
3092.00,0.4318
3091.00,0.4334
3090.00,0.4351
3089.00,0.4370
3088.00,0.4390
3087.00,0.4411
3086.00,0.4433
3085.00,0.4455
3084.00,0.4479
3083.00,0.4503
3082.00,0.4529
3081.00,0.4557
3080.00,0.4586
3079.00,0.4617
3078.00,0.4649
3077.00,0.4682
3076.00,0.4717
3075.00,0.4752
3074.00,0.4788
3073.00,0.4824
3072.00,0.4861
3071.00,0.4898
3070.00,0.4936
3069.00,0.4974
3068.00,0.5012
3067.00,0.5050
3066.00,0.5088
3065.00,0.5126
3064.00,0.5162
3063.00,0.5198
3062.00,0.5232
3061.00,0.5264
3060.00,0.5295
3059.00,0.5326
3058.00,0.5356
3057.00,0.5386
3056.00,0.5418
3055.00,0.5449
3054.00,0.5482
3053.00,0.5515
3052.00,0.5550
3051.00,0.5585
3050.00,0.5621
3049.00,0.5657
3048.00,0.5694
3047.00,0.5733
3046.00,0.5774
3045.00,0.5816
3044.00,0.5858
3043.00,0.5901
3042.00,0.5944
3041.00,0.5987
3040.00,0.6033
3039.00,0.6080
3038.00,0.6129
3037.00,0.6181
3036.00,0.6236
3035.00,0.6294
3034.00,0.6356
3033.00,0.6420
3032.00,0.6487
3031.00,0.6557
3030.00,0.6629
3029.00,0.6704
3028.00,0.6782
3027.00,0.6861
3026.00,0.6942
3025.00,0.7025
3024.00,0.7110
3023.00,0.7197
3022.00,0.7288
3021.00,0.7383
3020.00,0.7480
3019.00,0.7581
3018.00,0.7684
3017.00,0.7790
3016.00,0.7898
3015.00,0.8010
3014.00,0.8127
3013.00,0.8249
3012.00,0.8378
3011.00,0.8513
3010.00,0.8655
3009.00,0.8803
3008.00,0.8960
3007.00,0.9124
3006.00,0.9297
3005.00,0.9477
3004.00,0.9662
3003.00,0.9854
3002.00,1.0053
3001.00,1.0260
3000.00,1.0477
2999.00,1.0707
2998.00,1.0953
2997.00,1.1219
2996.00,1.1508
2995.00,1.1825
2994.00,1.2171
2993.00,1.2550
2992.00,1.2967
2991.00,1.3427
2990.00,1.3935
2989.00,1.4491
2988.00,1.5098
2987.00,1.5766
2986.00,1.6509
2985.00,1.7341
2984.00,1.8269
2983.00,1.9298
2982.00,2.0433
2981.00,2.1670
2980.00,2.3010
2979.00,2.4471
2978.00,2.6084
2977.00,2.7846
2976.00,2.9719
2975.00,3.1674
2974.00,3.3712
2973.00,3.5661
2972.00,3.7169
2971.00,3.8124
2970.00,3.8197
2969.00,3.7526
2968.00,3.6894
2967.00,3.6949
2966.00,3.7385
2965.00,3.7774
2964.00,3.8615
2963.00,4.0822
2962.00,4.4725
2961.00,4.3585
2960.00,4.1537
2959.00,4.0604
2958.00,4.1242
2957.00,4.2697
2956.00,4.5821
2955.00,4.3387
2954.00,4.1026
2953.00,3.9093
2952.00,3.8874
2951.00,3.8693
2950.00,3.8821
2949.00,3.9425
2948.00,4.0037
2947.00,4.0767
2946.00,4.1365
2945.00,4.0380
2944.00,3.8750
2943.00,3.7669
2942.00,3.7504
2941.00,3.7888
2940.00,3.8255
2939.00,3.8534
2938.00,3.8950
2937.00,3.9747
2936.00,4.1107
2935.00,4.2276
2934.00,4.0904
2933.00,3.8863
2932.00,3.7568
2931.00,3.7515
2930.00,3.8343
2929.00,3.9845
2928.00,4.2112
2927.00,4.4666
2926.00,4.5066
2925.00,4.2988
2924.00,4.1506
2923.00,4.1182
2922.00,4.1373
2921.00,4.1300
2920.00,4.1124
2919.00,4.1973
2918.00,4.4459
2917.00,4.7139
2916.00,4.3097
2915.00,4.0558
2914.00,3.9855
2913.00,4.0563
2912.00,4.0955
2911.00,4.0505
2910.00,4.0150
2909.00,4.0256
2908.00,4.0290
2907.00,3.9582
2906.00,3.8677
2905.00,3.8351
2904.00,3.8814
2903.00,3.9929
2902.00,4.1132
2901.00,4.2152
2900.00,4.3815
2899.00,4.6480
2898.00,4.6381
2897.00,4.2634
2896.00,4.0558
2895.00,4.0469
2894.00,4.1284
2893.00,4.0835
2892.00,4.0134
2891.00,4.0409
2890.00,4.2102
2889.00,4.2371
2888.00,4.1409
2887.00,4.1031
2886.00,4.0896
2885.00,3.9759
2884.00,3.8615
2883.00,3.8544
2882.00,4.0064
2881.00,4.3342
2880.00,4.4089
2879.00,4.2005
2878.00,4.0605
2877.00,4.1510
2876.00,4.3122
2875.00,4.3229
2874.00,4.2583
2873.00,4.1337
2872.00,3.9931
2871.00,3.8560
2870.00,3.7984
2869.00,3.8573
2868.00,4.1160
2867.00,4.3929
2866.00,4.0210
2865.00,3.7613
2864.00,3.7047
2863.00,3.8874
2862.00,4.2595
2861.00,4.2164
2860.00,4.0976
2859.00,4.0230
2858.00,4.1046
2857.00,3.9663
2856.00,3.8709
2855.00,3.9305
2854.00,4.1139
2853.00,4.2441
2852.00,4.1185
2851.00,4.0027
2850.00,3.9530
2849.00,3.9695
2848.00,4.0016
2847.00,4.1051
2846.00,4.2470
2845.00,4.4176
2844.00,4.5281
2843.00,4.4280
2842.00,4.2323
2841.00,4.1698
2840.00,4.2830
2839.00,3.9289
2838.00,3.5162
2837.00,3.1801
2836.00,2.9338
2835.00,2.7272
2834.00,2.5465
2833.00,2.3859
2832.00,2.2419
2831.00,2.1131
2830.00,1.9971
2829.00,1.8918
2828.00,1.7970
2827.00,1.7125
2826.00,1.6372
2825.00,1.5694
2824.00,1.5079
2823.00,1.4518
2822.00,1.4008
2821.00,1.3539
2820.00,1.3106
2819.00,1.2705
2818.00,1.2331
2817.00,1.1983
2816.00,1.1659
2815.00,1.1356
2814.00,1.1072
2813.00,1.0804
2812.00,1.0549
2811.00,1.0307
2810.00,1.0077
2809.00,0.9858
2808.00,0.9648
2807.00,0.9447
2806.00,0.9254
2805.00,0.9070
2804.00,0.8894
2803.00,0.8727
2802.00,0.8567
2801.00,0.8414
2800.00,0.8266
2799.00,0.8125
2798.00,0.7989
2797.00,0.7860
2796.00,0.7735
2795.00,0.7615
2794.00,0.7500
2793.00,0.7387
2792.00,0.7278
2791.00,0.7171
2790.00,0.7067
2789.00,0.6965
2788.00,0.6864
2787.00,0.6766
2786.00,0.6670
2785.00,0.6576
2784.00,0.6485
2783.00,0.6397
2782.00,0.6311
2781.00,0.6228
2780.00,0.6148
2779.00,0.6072
2778.00,0.5999
2777.00,0.5931
2776.00,0.5866
2775.00,0.5805
2774.00,0.5747
2773.00,0.5693
2772.00,0.5643
2771.00,0.5597
2770.00,0.5555
2769.00,0.5518
2768.00,0.5484
2767.00,0.5454
2766.00,0.5428
2765.00,0.5405
2764.00,0.5384
2763.00,0.5366
2762.00,0.5350
2761.00,0.5335
2760.00,0.5322
2759.00,0.5310
2758.00,0.5299
2757.00,0.5288
2756.00,0.5279
2755.00,0.5270
2754.00,0.5263
2753.00,0.5257
2752.00,0.5253
2751.00,0.5252
2750.00,0.5252
2749.00,0.5255
2748.00,0.5260
2747.00,0.5266
2746.00,0.5274
2745.00,0.5284
2744.00,0.5297
2743.00,0.5312
2742.00,0.5331
2741.00,0.5354
2740.00,0.5381
2739.00,0.5412
2738.00,0.5446
2737.00,0.5485
2736.00,0.5529
2735.00,0.5576
2734.00,0.5625
2733.00,0.5673
2732.00,0.5715
2731.00,0.5750
2730.00,0.5773
2729.00,0.5783
2728.00,0.5781
2727.00,0.5770
2726.00,0.5753
2725.00,0.5731
2724.00,0.5707
2723.00,0.5681
2722.00,0.5653
2721.00,0.5623
2720.00,0.5592
2719.00,0.5558
2718.00,0.5523
2717.00,0.5485
2716.00,0.5446
2715.00,0.5406
2714.00,0.5366
2713.00,0.5326
2712.00,0.5288
2711.00,0.5253
2710.00,0.5222
2709.00,0.5195
2708.00,0.5172
2707.00,0.5152
2706.00,0.5134
2705.00,0.5120
2704.00,0.5108
2703.00,0.5099
2702.00,0.5092
2701.00,0.5089
2700.00,0.5088
2699.00,0.5090
2698.00,0.5093
2697.00,0.5099
2696.00,0.5106
2695.00,0.5115
2694.00,0.5125
2693.00,0.5137
2692.00,0.5150
2691.00,0.5163
2690.00,0.5176
2689.00,0.5190
2688.00,0.5202
2687.00,0.5212
2686.00,0.5222
2685.00,0.5229
2684.00,0.5235
2683.00,0.5239
2682.00,0.5241
2681.00,0.5242
2680.00,0.5244
2679.00,0.5247
2678.00,0.5250
2677.00,0.5254
2676.00,0.5256
2675.00,0.5258
2674.00,0.5259
2673.00,0.5260
2672.00,0.5259
2671.00,0.5257
2670.00,0.5251
2669.00,0.5241
2668.00,0.5227
2667.00,0.5210
2666.00,0.5191
2665.00,0.5170
2664.00,0.5148
2663.00,0.5124
2662.00,0.5100
2661.00,0.5076
2660.00,0.5051
2659.00,0.5027
2658.00,0.5002
2657.00,0.4979
2656.00,0.4958
2655.00,0.4937
2654.00,0.4917
2653.00,0.4898
2652.00,0.4881
2651.00,0.4864
2650.00,0.4847
2649.00,0.4831
2648.00,0.4815
2647.00,0.4800
2646.00,0.4785
2645.00,0.4771
2644.00,0.4757
2643.00,0.4743
2642.00,0.4729
2641.00,0.4717
2640.00,0.4706
2639.00,0.4695
2638.00,0.4685
2637.00,0.4675
2636.00,0.4665
2635.00,0.4655
2634.00,0.4645
2633.00,0.4636
2632.00,0.4626
2631.00,0.4617
2630.00,0.4608
2629.00,0.4598
2628.00,0.4589
2627.00,0.4579
2626.00,0.4569
2625.00,0.4558
2624.00,0.4547
2623.00,0.4536
2622.00,0.4525
2621.00,0.4515
2620.00,0.4504
2619.00,0.4494
2618.00,0.4484
2617.00,0.4474
2616.00,0.4464
2615.00,0.4454
2614.00,0.4444
2613.00,0.4434
2612.00,0.4424
2611.00,0.4413
2610.00,0.4403
2609.00,0.4394
2608.00,0.4384
2607.00,0.4375
2606.00,0.4365
2605.00,0.4355
2604.00,0.4345
2603.00,0.4335
2602.00,0.4324
2601.00,0.4312
2600.00,0.4300
2599.00,0.4286
2598.00,0.4272
2597.00,0.4258
2596.00,0.4242
2595.00,0.4226
2594.00,0.4210
2593.00,0.4194
2592.00,0.4178
2591.00,0.4162
2590.00,0.4145
2589.00,0.4129
2588.00,0.4113
2587.00,0.4097
2586.00,0.4080
2585.00,0.4064
2584.00,0.4048
2583.00,0.4031
2582.00,0.4014
2581.00,0.3997
2580.00,0.3980
2579.00,0.3963
2578.00,0.3946
2577.00,0.3930
2576.00,0.3914
2575.00,0.3898
2574.00,0.3882
2573.00,0.3867
2572.00,0.3852
2571.00,0.3839
2570.00,0.3826
2569.00,0.3813
2568.00,0.3800
2567.00,0.3788
2566.00,0.3775
2565.00,0.3761
2564.00,0.3748
2563.00,0.3734
2562.00,0.3720
2561.00,0.3706
2560.00,0.3693
2559.00,0.3680
2558.00,0.3668
2557.00,0.3655
2556.00,0.3643
2555.00,0.3631
2554.00,0.3619
2553.00,0.3608
2552.00,0.3598
2551.00,0.3588
2550.00,0.3578
2549.00,0.3568
2548.00,0.3558
2547.00,0.3549
2546.00,0.3540
2545.00,0.3532
2544.00,0.3525
2543.00,0.3517
2542.00,0.3509
2541.00,0.3502
2540.00,0.3495
2539.00,0.3488
2538.00,0.3481
2537.00,0.3475
2536.00,0.3469
2535.00,0.3463
2534.00,0.3457
2533.00,0.3450
2532.00,0.3443
2531.00,0.3435
2530.00,0.3426
2529.00,0.3417
2528.00,0.3407
2527.00,0.3396
2526.00,0.3386
2525.00,0.3375
2524.00,0.3363
2523.00,0.3352
2522.00,0.3341
2521.00,0.3330
2520.00,0.3320
2519.00,0.3311
2518.00,0.3301
2517.00,0.3292
2516.00,0.3283
2515.00,0.3273
2514.00,0.3265
2513.00,0.3256
2512.00,0.3248
2511.00,0.3240
2510.00,0.3233
2509.00,0.3226
2508.00,0.3220
2507.00,0.3214
2506.00,0.3209
2505.00,0.3204
2504.00,0.3200
2503.00,0.3196
2502.00,0.3194
2501.00,0.3192
2500.00,0.3190
2499.00,0.3187
2498.00,0.3184
2497.00,0.3181
2496.00,0.3178
2495.00,0.3176
2494.00,0.3173
2493.00,0.3170
2492.00,0.3166
2491.00,0.3162
2490.00,0.3156
2489.00,0.3151
2488.00,0.3145
2487.00,0.3140
2486.00,0.3134
2485.00,0.3128
2484.00,0.3122
2483.00,0.3117
2482.00,0.3111
2481.00,0.3105
2480.00,0.3100
2479.00,0.3094
2478.00,0.3089
2477.00,0.3085
2476.00,0.3080
2475.00,0.3076
2474.00,0.3071
2473.00,0.3068
2472.00,0.3065
2471.00,0.3062
2470.00,0.3060
2469.00,0.3057
2468.00,0.3053
2467.00,0.3050
2466.00,0.3047
2465.00,0.3044
2464.00,0.3042
2463.00,0.3040
2462.00,0.3038
2461.00,0.3036
2460.00,0.3034
2459.00,0.3032
2458.00,0.3031
2457.00,0.3029
2456.00,0.3028
2455.00,0.3026
2454.00,0.3024
2453.00,0.3022
2452.00,0.3021
2451.00,0.3020
2450.00,0.3018
2449.00,0.3017
2448.00,0.3017
2447.00,0.3016
2446.00,0.3016
2445.00,0.3016
2444.00,0.3015
2443.00,0.3015
2442.00,0.3015
2441.00,0.3016
2440.00,0.3018
2439.00,0.3019
2438.00,0.3020
2437.00,0.3021
2436.00,0.3021
2435.00,0.3022
2434.00,0.3023
2433.00,0.3024
2432.00,0.3025
2431.00,0.3026
2430.00,0.3027
2429.00,0.3029
2428.00,0.3030
2427.00,0.3031
2426.00,0.3032
2425.00,0.3033
2424.00,0.3034
2423.00,0.3035
2422.00,0.3036
2421.00,0.3038
2420.00,0.3039
2419.00,0.3040
2418.00,0.3041
2417.00,0.3041
2416.00,0.3041
2415.00,0.3041
2414.00,0.3041
2413.00,0.3042
2412.00,0.3043
2411.00,0.3043
2410.00,0.3044
2409.00,0.3045
2408.00,0.3045
2407.00,0.3045
2406.00,0.3045
2405.00,0.3045
2404.00,0.3046
2403.00,0.3047
2402.00,0.3047
2401.00,0.3047
2400.00,0.3047
2399.00,0.3046
2398.00,0.3046
2397.00,0.3046
2396.00,0.3046
2395.00,0.3046
2394.00,0.3046
2393.00,0.3047
2392.00,0.3048
2391.00,0.3049
2390.00,0.3049
2389.00,0.3049
2388.00,0.3049
2387.00,0.3050
2386.00,0.3050
2385.00,0.3051
2384.00,0.3053
2383.00,0.3054
2382.00,0.3056
2381.00,0.3058
2380.00,0.3060
2379.00,0.3062
2378.00,0.3064
2377.00,0.3064
2376.00,0.3065
2375.00,0.3065
2374.00,0.3064
2373.00,0.3063
2372.00,0.3062
2371.00,0.3061
2370.00,0.3060
2369.00,0.3059
2368.00,0.3058
2367.00,0.3058
2366.00,0.3057
2365.00,0.3057
2364.00,0.3056
2363.00,0.3056
2362.00,0.3055
2361.00,0.3055
2360.00,0.3055
2359.00,0.3055
2358.00,0.3054
2357.00,0.3052
2356.00,0.3050
2355.00,0.3048
2354.00,0.3047
2353.00,0.3048
2352.00,0.3049
2351.00,0.3049
2350.00,0.3048
2349.00,0.3044
2348.00,0.3040
2347.00,0.3037
2346.00,0.3037
2345.00,0.3038
2344.00,0.3039
2343.00,0.3037
2342.00,0.3035
2341.00,0.3033
2340.00,0.3031
2339.00,0.3030
2338.00,0.3030
2337.00,0.3030
2336.00,0.3030
2335.00,0.3028
2334.00,0.3026
2333.00,0.3024
2332.00,0.3022
2331.00,0.3018
2330.00,0.3015
2329.00,0.3012
2328.00,0.3009
2327.00,0.3006
2326.00,0.3003
2325.00,0.3000
2324.00,0.2997
2323.00,0.2996
2322.00,0.2994
2321.00,0.2992
2320.00,0.2989
2319.00,0.2986
2318.00,0.2981
2317.00,0.2977
2316.00,0.2973
2315.00,0.2970
2314.00,0.2968
2313.00,0.2966
2312.00,0.2964
2311.00,0.2961
2310.00,0.2957
2309.00,0.2952
2308.00,0.2948
2307.00,0.2943
2306.00,0.2939
2305.00,0.2936
2304.00,0.2932
2303.00,0.2929
2302.00,0.2926
2301.00,0.2925
2300.00,0.2923
2299.00,0.2921
2298.00,0.2919
2297.00,0.2917
2296.00,0.2914
2295.00,0.2911
2294.00,0.2907
2293.00,0.2903
2292.00,0.2899
2291.00,0.2895
2290.00,0.2891
2289.00,0.2888
2288.00,0.2884
2287.00,0.2880
2286.00,0.2876
2285.00,0.2872
2284.00,0.2868
2283.00,0.2864
2282.00,0.2860
2281.00,0.2856
2280.00,0.2852
2279.00,0.2849
2278.00,0.2846
2277.00,0.2842
2276.00,0.2840
2275.00,0.2837
2274.00,0.2835
2273.00,0.2833
2272.00,0.2831
2271.00,0.2829
2270.00,0.2827
2269.00,0.2826
2268.00,0.2825
2267.00,0.2824
2266.00,0.2823
2265.00,0.2822
2264.00,0.2821
2263.00,0.2819
2262.00,0.2817
2261.00,0.2815
2260.00,0.2812
2259.00,0.2809
2258.00,0.2805
2257.00,0.2802
2256.00,0.2798
2255.00,0.2795
2254.00,0.2792
2253.00,0.2788
2252.00,0.2785
2251.00,0.2782
2250.00,0.2779
2249.00,0.2776
2248.00,0.2773
2247.00,0.2771
2246.00,0.2770
2245.00,0.2768
2244.00,0.2767
2243.00,0.2765
2242.00,0.2762
2241.00,0.2760
2240.00,0.2758
2239.00,0.2756
2238.00,0.2755
2237.00,0.2754
2236.00,0.2753
2235.00,0.2752
2234.00,0.2751
2233.00,0.2750
2232.00,0.2749
2231.00,0.2748
2230.00,0.2747
2229.00,0.2746
2228.00,0.2745
2227.00,0.2743
2226.00,0.2741
2225.00,0.2739
2224.00,0.2738
2223.00,0.2736
2222.00,0.2735
2221.00,0.2733
2220.00,0.2732
2219.00,0.2730
2218.00,0.2729
2217.00,0.2728
2216.00,0.2727
2215.00,0.2726
2214.00,0.2725
2213.00,0.2724
2212.00,0.2724
2211.00,0.2724
2210.00,0.2724
2209.00,0.2724
2208.00,0.2725
2207.00,0.2725
2206.00,0.2725
2205.00,0.2726
2204.00,0.2727
2203.00,0.2728
2202.00,0.2728
2201.00,0.2729
2200.00,0.2730
2199.00,0.2732
2198.00,0.2733
2197.00,0.2734
2196.00,0.2734
2195.00,0.2734
2194.00,0.2734
2193.00,0.2735
2192.00,0.2736
2191.00,0.2736
2190.00,0.2737
2189.00,0.2737
2188.00,0.2737
2187.00,0.2737
2186.00,0.2736
2185.00,0.2736
2184.00,0.2735
2183.00,0.2734
2182.00,0.2733
2181.00,0.2733
2180.00,0.2732
2179.00,0.2732
2178.00,0.2731
2177.00,0.2730
2176.00,0.2729
2175.00,0.2728
2174.00,0.2728
2173.00,0.2727
2172.00,0.2727
2171.00,0.2727
2170.00,0.2727
2169.00,0.2727
2168.00,0.2727
2167.00,0.2727
2166.00,0.2727
2165.00,0.2727
2164.00,0.2728
2163.00,0.2728
2162.00,0.2727
2161.00,0.2726
2160.00,0.2725
2159.00,0.2723
2158.00,0.2721
2157.00,0.2719
2156.00,0.2718
2155.00,0.2716
2154.00,0.2714
2153.00,0.2712
2152.00,0.2710
2151.00,0.2708
2150.00,0.2705
2149.00,0.2702
2148.00,0.2698
2147.00,0.2694
2146.00,0.2690
2145.00,0.2685
2144.00,0.2680
2143.00,0.2674
2142.00,0.2669
2141.00,0.2663
2140.00,0.2659
2139.00,0.2655
2138.00,0.2651
2137.00,0.2649
2136.00,0.2646
2135.00,0.2643
2134.00,0.2639
2133.00,0.2637
2132.00,0.2635
2131.00,0.2633
2130.00,0.2632
2129.00,0.2630
2128.00,0.2629
2127.00,0.2628
2126.00,0.2626
2125.00,0.2625
2124.00,0.2624
2123.00,0.2623
2122.00,0.2621
2121.00,0.2620
2120.00,0.2619
2119.00,0.2618
2118.00,0.2616
2117.00,0.2615
2116.00,0.2614
2115.00,0.2612
2114.00,0.2611
2113.00,0.2609
2112.00,0.2607
2111.00,0.2606
2110.00,0.2604
2109.00,0.2602
2108.00,0.2601
2107.00,0.2599
2106.00,0.2598
2105.00,0.2598
2104.00,0.2598
2103.00,0.2597
2102.00,0.2597
2101.00,0.2597
2100.00,0.2596
2099.00,0.2596
2098.00,0.2595
2097.00,0.2596
2096.00,0.2596
2095.00,0.2595
2094.00,0.2595
2093.00,0.2595
2092.00,0.2596
2091.00,0.2596
2090.00,0.2596
2089.00,0.2596
2088.00,0.2596
2087.00,0.2595
2086.00,0.2595
2085.00,0.2594
2084.00,0.2594
2083.00,0.2594
2082.00,0.2593
2081.00,0.2593
2080.00,0.2593
2079.00,0.2592
2078.00,0.2592
2077.00,0.2592
2076.00,0.2592
2075.00,0.2592
2074.00,0.2592
2073.00,0.2592
2072.00,0.2592
2071.00,0.2593
2070.00,0.2594
2069.00,0.2595
2068.00,0.2596
2067.00,0.2598
2066.00,0.2600
2065.00,0.2603
2064.00,0.2605
2063.00,0.2607
2062.00,0.2609
2061.00,0.2611
2060.00,0.2613
2059.00,0.2615
2058.00,0.2616
2057.00,0.2618
2056.00,0.2620
2055.00,0.2622
2054.00,0.2624
2053.00,0.2626
2052.00,0.2628
2051.00,0.2630
2050.00,0.2632
2049.00,0.2634
2048.00,0.2637
2047.00,0.2639
2046.00,0.2640
2045.00,0.2643
2044.00,0.2645
2043.00,0.2647
2042.00,0.2649
2041.00,0.2651
2040.00,0.2653
2039.00,0.2654
2038.00,0.2654
2037.00,0.2654
2036.00,0.2655
2035.00,0.2656
2034.00,0.2657
2033.00,0.2658
2032.00,0.2659
2031.00,0.2659
2030.00,0.2659
2029.00,0.2660
2028.00,0.2661
2027.00,0.2663
2026.00,0.2663
2025.00,0.2663
2024.00,0.2663
2023.00,0.2661
2022.00,0.2658
2021.00,0.2655
2020.00,0.2650
2019.00,0.2645
2018.00,0.2639
2017.00,0.2633
2016.00,0.2626
2015.00,0.2618
2014.00,0.2609
2013.00,0.2601
2012.00,0.2593
2011.00,0.2586
2010.00,0.2579
2009.00,0.2573
2008.00,0.2567
2007.00,0.2562
2006.00,0.2557
2005.00,0.2553
2004.00,0.2549
2003.00,0.2546
2002.00,0.2542
2001.00,0.2540
2000.00,0.2538
1999.00,0.2537
1998.00,0.2536
1997.00,0.2535
1996.00,0.2534
1995.00,0.2532
1994.00,0.2531
1993.00,0.2531
1992.00,0.2532
1991.00,0.2533
1990.00,0.2533
1989.00,0.2532
1988.00,0.2532
1987.00,0.2531
1986.00,0.2530
1985.00,0.2529
1984.00,0.2528
1983.00,0.2528
1982.00,0.2527
1981.00,0.2527
1980.00,0.2527
1979.00,0.2527
1978.00,0.2527
1977.00,0.2527
1976.00,0.2526
1975.00,0.2525
1974.00,0.2525
1973.00,0.2524
1972.00,0.2524
1971.00,0.2523
1970.00,0.2523
1969.00,0.2523
1968.00,0.2523
1967.00,0.2525
1966.00,0.2526
1965.00,0.2526
1964.00,0.2526
1963.00,0.2525
1962.00,0.2524
1961.00,0.2525
1960.00,0.2527
1959.00,0.2529
1958.00,0.2530
1957.00,0.2531
1956.00,0.2533
1955.00,0.2535
1954.00,0.2537
1953.00,0.2540
1952.00,0.2541
1951.00,0.2542
1950.00,0.2543
1949.00,0.2544
1948.00,0.2545
1947.00,0.2546
1946.00,0.2548
1945.00,0.2551
1944.00,0.2554
1943.00,0.2558
1942.00,0.2563
1941.00,0.2568
1940.00,0.2571
1939.00,0.2573
1938.00,0.2575
1937.00,0.2576
1936.00,0.2576
1935.00,0.2576
1934.00,0.2576
1933.00,0.2575
1932.00,0.2575
1931.00,0.2575
1930.00,0.2575
1929.00,0.2575
1928.00,0.2575
1927.00,0.2574
1926.00,0.2573
1925.00,0.2573
1924.00,0.2575
1923.00,0.2578
1922.00,0.2581
1921.00,0.2585
1920.00,0.2587
1919.00,0.2588
1918.00,0.2590
1917.00,0.2593
1916.00,0.2596
1915.00,0.2597
1914.00,0.2598
1913.00,0.2599
1912.00,0.2601
1911.00,0.2602
1910.00,0.2604
1909.00,0.2606
1908.00,0.2609
1907.00,0.2610
1906.00,0.2610
1905.00,0.2609
1904.00,0.2608
1903.00,0.2607
1902.00,0.2606
1901.00,0.2606
1900.00,0.2605
1899.00,0.2605
1898.00,0.2604
1897.00,0.2604
1896.00,0.2605
1895.00,0.2606
1894.00,0.2607
1893.00,0.2607
1892.00,0.2608
1891.00,0.2608
1890.00,0.2608
1889.00,0.2610
1888.00,0.2613
1887.00,0.2614
1886.00,0.2616
1885.00,0.2617
1884.00,0.2618
1883.00,0.2619
1882.00,0.2620
1881.00,0.2620
1880.00,0.2621
1879.00,0.2620
1878.00,0.2620
1877.00,0.2619
1876.00,0.2619
1875.00,0.2617
1874.00,0.2616
1873.00,0.2614
1872.00,0.2612
1871.00,0.2610
1870.00,0.2606
1869.00,0.2603
1868.00,0.2601
1867.00,0.2599
1866.00,0.2597
1865.00,0.2594
1864.00,0.2592
1863.00,0.2589
1862.00,0.2586
1861.00,0.2584
1860.00,0.2582
1859.00,0.2579
1858.00,0.2575
1857.00,0.2572
1856.00,0.2568
1855.00,0.2565
1854.00,0.2562
1853.00,0.2560
1852.00,0.2558
1851.00,0.2557
1850.00,0.2555
1849.00,0.2555
1848.00,0.2554
1847.00,0.2553
1846.00,0.2552
1845.00,0.2551
1844.00,0.2551
1843.00,0.2552
1842.00,0.2554
1841.00,0.2555
1840.00,0.2554
1839.00,0.2552
1838.00,0.2551
1837.00,0.2551
1836.00,0.2551
1835.00,0.2551
1834.00,0.2551
1833.00,0.2550
1832.00,0.2549
1831.00,0.2546
1830.00,0.2543
1829.00,0.2541
1828.00,0.2540
1827.00,0.2540
1826.00,0.2541
1825.00,0.2543
1824.00,0.2545
1823.00,0.2547
1822.00,0.2548
1821.00,0.2549
1820.00,0.2549
1819.00,0.2549
1818.00,0.2549
1817.00,0.2550
1816.00,0.2553
1815.00,0.2554
1814.00,0.2555
1813.00,0.2557
1812.00,0.2560
1811.00,0.2564
1810.00,0.2568
1809.00,0.2573
1808.00,0.2579
1807.00,0.2586
1806.00,0.2593
1805.00,0.2601
1804.00,0.2609
1803.00,0.2619
1802.00,0.2629
1801.00,0.2639
1800.00,0.2646
1799.00,0.2650
1798.00,0.2654
1797.00,0.2659
1796.00,0.2665
1795.00,0.2670
1794.00,0.2672
1793.00,0.2674
1792.00,0.2677
1791.00,0.2681
1790.00,0.2686
1789.00,0.2690
1788.00,0.2692
1787.00,0.2694
1786.00,0.2696
1785.00,0.2700
1784.00,0.2705
1783.00,0.2709
1782.00,0.2710
1781.00,0.2712
1780.00,0.2716
1779.00,0.2720
1778.00,0.2724
1777.00,0.2728
1776.00,0.2731
1775.00,0.2734
1774.00,0.2739
1773.00,0.2746
1772.00,0.2754
1771.00,0.2759
1770.00,0.2763
1769.00,0.2768
1768.00,0.2777
1767.00,0.2788
1766.00,0.2797
1765.00,0.2802
1764.00,0.2805
1763.00,0.2809
1762.00,0.2815
1761.00,0.2824
1760.00,0.2835
1759.00,0.2845
1758.00,0.2855
1757.00,0.2868
1756.00,0.2883
1755.00,0.2900
1754.00,0.2918
1753.00,0.2942
1752.00,0.2977
1751.00,0.3021
1750.00,0.3071
1749.00,0.3126
1748.00,0.3185
1747.00,0.3250
1746.00,0.3321
1745.00,0.3398
1744.00,0.3474
1743.00,0.3540
1742.00,0.3589
1741.00,0.3617
1740.00,0.3624
1739.00,0.3611
1738.00,0.3587
1737.00,0.3555
1736.00,0.3516
1735.00,0.3469
1734.00,0.3419
1733.00,0.3378
1732.00,0.3345
1731.00,0.3311
1730.00,0.3273
1729.00,0.3239
1728.00,0.3214
1727.00,0.3198
1726.00,0.3187
1725.00,0.3181
1724.00,0.3180
1723.00,0.3181
1722.00,0.3183
1721.00,0.3185
1720.00,0.3187
1719.00,0.3191
1718.00,0.3204
1717.00,0.3227
1716.00,0.3253
1715.00,0.3269
1714.00,0.3276
1713.00,0.3281
1712.00,0.3291
1711.00,0.3307
1710.00,0.3324
1709.00,0.3341
1708.00,0.3354
1707.00,0.3361
1706.00,0.3363
1705.00,0.3361
1704.00,0.3355
1703.00,0.3344
1702.00,0.3328
1701.00,0.3306
1700.00,0.3277
1699.00,0.3252
1698.00,0.3241
1697.00,0.3240
1696.00,0.3240
1695.00,0.3237
1694.00,0.3231
1693.00,0.3218
1692.00,0.3203
1691.00,0.3190
1690.00,0.3185
1689.00,0.3185
1688.00,0.3187
1687.00,0.3188
1686.00,0.3192
1685.00,0.3200
1684.00,0.3203
1683.00,0.3197
1682.00,0.3188
1681.00,0.3181
1680.00,0.3179
1679.00,0.3182
1678.00,0.3185
1677.00,0.3187
1676.00,0.3191
1675.00,0.3197
1674.00,0.3204
1673.00,0.3215
1672.00,0.3226
1671.00,0.3235
1670.00,0.3244
1669.00,0.3258
1668.00,0.3276
1667.00,0.3295
1666.00,0.3314
1665.00,0.3332
1664.00,0.3351
1663.00,0.3371
1662.00,0.3394
1661.00,0.3422
1660.00,0.3453
1659.00,0.3485
1658.00,0.3515
1657.00,0.3544
1656.00,0.3571
1655.00,0.3604
1654.00,0.3652
1653.00,0.3713
1652.00,0.3771
1651.00,0.3813
1650.00,0.3837
1649.00,0.3845
1648.00,0.3857
1647.00,0.3889
1646.00,0.3938
1645.00,0.3992
1644.00,0.4043
1643.00,0.4085
1642.00,0.4123
1641.00,0.4160
1640.00,0.4200
1639.00,0.4235
1638.00,0.4268
1637.00,0.4308
1636.00,0.4356
1635.00,0.4405
1634.00,0.4449
1633.00,0.4492
1632.00,0.4535
1631.00,0.4577
1630.00,0.4620
1629.00,0.4668
1628.00,0.4718
1627.00,0.4767
1626.00,0.4817
1625.00,0.4872
1624.00,0.4935
1623.00,0.5004
1622.00,0.5079
1621.00,0.5161
1620.00,0.5248
1619.00,0.5344
1618.00,0.5461
1617.00,0.5612
1616.00,0.5786
1615.00,0.5956
1614.00,0.6120
1613.00,0.6298
1612.00,0.6504
1611.00,0.6734
1610.00,0.6973
1609.00,0.7211
1608.00,0.7434
1607.00,0.7626
1606.00,0.7787
1605.00,0.7942
1604.00,0.8114
1603.00,0.8311
1602.00,0.8543
1601.00,0.8831
1600.00,0.9185
1599.00,0.9605
1598.00,1.0099
1597.00,1.0706
1596.00,1.1464
1595.00,1.2389
1594.00,1.3500
1593.00,1.4861
1592.00,1.6550
1591.00,1.8578
1590.00,2.0898
1589.00,2.3660
1588.00,2.7317
1587.00,3.1774
1586.00,3.4025
1585.00,3.5083
1584.00,3.8655
1583.00,3.9126
1582.00,3.8182
1581.00,3.6374
1580.00,3.9828
1579.00,3.6288
1578.00,2.9386
1577.00,2.5185
1576.00,2.2170
1575.00,1.9828
1574.00,1.8099
1573.00,1.6894
1572.00,1.6067
1571.00,1.5530
1570.00,1.5316
1569.00,1.5517
1568.00,1.6152
1567.00,1.7166
1566.00,1.8550
1565.00,2.0433
1564.00,2.2938
1563.00,2.5720
1562.00,2.7551
1561.00,2.7672
1560.00,2.5646
1559.00,2.2013
1558.00,1.8917
1557.00,1.6746
1556.00,1.5026
1555.00,1.3478
1554.00,1.2144
1553.00,1.1123
1552.00,1.0389
1551.00,0.9852
1550.00,0.9467
1549.00,0.9235
1548.00,0.9144
1547.00,0.9159
1546.00,0.9250
1545.00,0.9395
1544.00,0.9561
1543.00,0.9695
1542.00,0.9748
1541.00,0.9693
1540.00,0.9522
1539.00,0.9270
1538.00,0.9009
1537.00,0.8773
1536.00,0.8543
1535.00,0.8290
1534.00,0.8019
1533.00,0.7767
1532.00,0.7563
1531.00,0.7400
1530.00,0.7262
1529.00,0.7143
1528.00,0.7037
1527.00,0.6940
1526.00,0.6854
1525.00,0.6791
1524.00,0.6754
1523.00,0.6747
1522.00,0.6782
1521.00,0.6867
1520.00,0.6978
1519.00,0.7085
1518.00,0.7178
1517.00,0.7256
1516.00,0.7300
1515.00,0.7276
1514.00,0.7176
1513.00,0.7015
1512.00,0.6816
1511.00,0.6612
1510.00,0.6430
1509.00,0.6283
1508.00,0.6174
1507.00,0.6099
1506.00,0.6061
1505.00,0.6055
1504.00,0.6074
1503.00,0.6105
1502.00,0.6139
1501.00,0.6185
1500.00,0.6245
1499.00,0.6314
1498.00,0.6397
1497.00,0.6509
1496.00,0.6648
1495.00,0.6791
1494.00,0.6929
1493.00,0.7072
1492.00,0.7233
1491.00,0.7409
1490.00,0.7588
1489.00,0.7763
1488.00,0.7932
1487.00,0.8104
1486.00,0.8300
1485.00,0.8541
1484.00,0.8829
1483.00,0.9160
1482.00,0.9549
1481.00,1.0011
1480.00,1.0544
1479.00,1.1148
1478.00,1.1855
1477.00,1.2716
1476.00,1.3751
1475.00,1.4965
1474.00,1.6440
1473.00,1.8372
1472.00,2.0917
1471.00,2.4022
1470.00,2.7507
1469.00,3.1413
1468.00,3.5787
1467.00,3.9059
1466.00,4.0930
1465.00,3.9135
1464.00,3.6837
1463.00,3.7567
1462.00,3.9843
1461.00,4.3342
1460.00,4.0791
1459.00,3.9808
1458.00,4.0607
1457.00,3.9943
1456.00,3.8411
1455.00,4.0189
1454.00,4.0291
1453.00,3.8982
1452.00,3.7865
1451.00,3.6814
1450.00,3.6768
1449.00,3.7984
1448.00,3.7586
1447.00,3.7143
1446.00,3.6895
1445.00,3.7568
1444.00,3.8320
1443.00,3.6370
1442.00,3.3840
1441.00,3.2316
1440.00,3.0696
1439.00,2.8595
1438.00,2.6473
1437.00,2.4493
1436.00,2.2610
1435.00,2.0899
1434.00,1.9404
1433.00,1.8052
1432.00,1.6777
1431.00,1.5591
1430.00,1.4539
1429.00,1.3646
1428.00,1.2911
1427.00,1.2317
1426.00,1.1838
1425.00,1.1451
1424.00,1.1144
1423.00,1.0915
1422.00,1.0750
1421.00,1.0634
1420.00,1.0562
1419.00,1.0542
1418.00,1.0580
1417.00,1.0675
1416.00,1.0827
1415.00,1.1032
1414.00,1.1276
1413.00,1.1530
1412.00,1.1752
1411.00,1.1895
1410.00,1.1922
1409.00,1.1830
1408.00,1.1634
1407.00,1.1348
1406.00,1.0989
1405.00,1.0580
1404.00,1.0157
1403.00,0.9755
1402.00,0.9389
1401.00,0.9056
1400.00,0.8756
1399.00,0.8503
1398.00,0.8308
1397.00,0.8167
1396.00,0.8067
1395.00,0.7994
1394.00,0.7943
1393.00,0.7923
1392.00,0.7954
1391.00,0.8056
1390.00,0.8251
1389.00,0.8570
1388.00,0.9052
1387.00,0.9712
1386.00,1.0516
1385.00,1.1413
1384.00,1.2397
1383.00,1.3503
1382.00,1.4773
1381.00,1.6248
1380.00,1.7929
1379.00,1.9649
1378.00,2.0910
1377.00,2.1179
1376.00,2.0465
1375.00,1.9167
1374.00,1.7690
1373.00,1.6338
1372.00,1.5242
1371.00,1.4409
1370.00,1.3815
1369.00,1.3436
1368.00,1.3224
1367.00,1.3075
1366.00,1.2851
1365.00,1.2452
1364.00,1.1874
1363.00,1.1210
1362.00,1.0577
1361.00,1.0051
1360.00,0.9643
1359.00,0.9338
1358.00,0.9116
1357.00,0.8964
1356.00,0.8876
1355.00,0.8843
1354.00,0.8851
1353.00,0.8883
1352.00,0.8932
1351.00,0.8994
1350.00,0.9079
1349.00,0.9201
1348.00,0.9377
1347.00,0.9609
1346.00,0.9860
1345.00,1.0057
1344.00,1.0117
1343.00,0.9996
1342.00,0.9726
1341.00,0.9377
1340.00,0.9017
1339.00,0.8680
1338.00,0.8373
1337.00,0.8093
1336.00,0.7839
1335.00,0.7612
1334.00,0.7416
1333.00,0.7254
1332.00,0.7125
1331.00,0.7030
1330.00,0.6965
1329.00,0.6929
1328.00,0.6918
1327.00,0.6929
1326.00,0.6952
1325.00,0.6979
1324.00,0.7007
1323.00,0.7035
1322.00,0.7066
1321.00,0.7101
1320.00,0.7142
1319.00,0.7188
1318.00,0.7236
1317.00,0.7285
1316.00,0.7336
1315.00,0.7392
1314.00,0.7454
1313.00,0.7522
1312.00,0.7595
1311.00,0.7671
1310.00,0.7745
1309.00,0.7812
1308.00,0.7865
1307.00,0.7894
1306.00,0.7894
1305.00,0.7868
1304.00,0.7827
1303.00,0.7779
1302.00,0.7735
1301.00,0.7696
1300.00,0.7661
1299.00,0.7626
1298.00,0.7585
1297.00,0.7537
1296.00,0.7487
1295.00,0.7439
1294.00,0.7392
1293.00,0.7342
1292.00,0.7282
1291.00,0.7205
1290.00,0.7110
1289.00,0.7005
1288.00,0.6901
1287.00,0.6809
1286.00,0.6729
1285.00,0.6665
1284.00,0.6619
1283.00,0.6601
1282.00,0.6619
1281.00,0.6674
1280.00,0.6758
1279.00,0.6840
1278.00,0.6878
1277.00,0.6843
1276.00,0.6737
1275.00,0.6589
1274.00,0.6439
1273.00,0.6311
1272.00,0.6214
1271.00,0.6147
1270.00,0.6101
1269.00,0.6066
1268.00,0.6033
1267.00,0.5995
1266.00,0.5952
1265.00,0.5907
1264.00,0.5866
1263.00,0.5831
1262.00,0.5807
1261.00,0.5790
1260.00,0.5783
1259.00,0.5785
1258.00,0.5795
1257.00,0.5811
1256.00,0.5831
1255.00,0.5856
1254.00,0.5884
1253.00,0.5911
1252.00,0.5929
1251.00,0.5935
1250.00,0.5925
1249.00,0.5904
1248.00,0.5875
1247.00,0.5841
1246.00,0.5804
1245.00,0.5765
1244.00,0.5728
1243.00,0.5697
1242.00,0.5668
1241.00,0.5638
1240.00,0.5605
1239.00,0.5573
1238.00,0.5551
1237.00,0.5550
1236.00,0.5572
1235.00,0.5617
1234.00,0.5676
1233.00,0.5739
1232.00,0.5797
1231.00,0.5841
1230.00,0.5858
1229.00,0.5840
1228.00,0.5781
1227.00,0.5687
1226.00,0.5569
1225.00,0.5444
1224.00,0.5326
1223.00,0.5224
1222.00,0.5141
1221.00,0.5077
1220.00,0.5027
1219.00,0.4993
1218.00,0.4973
1217.00,0.4967
1216.00,0.4974
1215.00,0.4990
1214.00,0.5010
1213.00,0.5028
1212.00,0.5040
1211.00,0.5041
1210.00,0.5032
1209.00,0.5013
1208.00,0.4986
1207.00,0.4957
1206.00,0.4932
1205.00,0.4918
1204.00,0.4923
1203.00,0.4954
1202.00,0.5011
1201.00,0.5085
1200.00,0.5157
1199.00,0.5205
1198.00,0.5219
1197.00,0.5209
1196.00,0.5196
1195.00,0.5201
1194.00,0.5229
1193.00,0.5276
1192.00,0.5332
1191.00,0.5384
1190.00,0.5416
1189.00,0.5418
1188.00,0.5392
1187.00,0.5347
1186.00,0.5292
1185.00,0.5237
1184.00,0.5186
1183.00,0.5139
1182.00,0.5099
1181.00,0.5066
1180.00,0.5040
1179.00,0.5023
1178.00,0.5015
1177.00,0.5016
1176.00,0.5028
1175.00,0.5052
1174.00,0.5085
1173.00,0.5125
1172.00,0.5170
1171.00,0.5215
1170.00,0.5254
1169.00,0.5282
1168.00,0.5300
1167.00,0.5312
1166.00,0.5324
1165.00,0.5339
1164.00,0.5360
1163.00,0.5385
1162.00,0.5411
1161.00,0.5432
1160.00,0.5445
1159.00,0.5448
1158.00,0.5442
1157.00,0.5432
1156.00,0.5421
1155.00,0.5409
1154.00,0.5397
1153.00,0.5383
1152.00,0.5366
1151.00,0.5347
1150.00,0.5326
1149.00,0.5304
1148.00,0.5284
1147.00,0.5266
1146.00,0.5251
1145.00,0.5240
1144.00,0.5234
1143.00,0.5238
1142.00,0.5254
1141.00,0.5282
1140.00,0.5322
1139.00,0.5374
1138.00,0.5438
1137.00,0.5515
1136.00,0.5602
1135.00,0.5689
1134.00,0.5759
1133.00,0.5787
1132.00,0.5765
1131.00,0.5699
1130.00,0.5616
1129.00,0.5542
1128.00,0.5499
1127.00,0.5491
1126.00,0.5505
1125.00,0.5517
1124.00,0.5506
1123.00,0.5466
1122.00,0.5409
1121.00,0.5353
1120.00,0.5314
1119.00,0.5300
1118.00,0.5309
1117.00,0.5332
1116.00,0.5356
1115.00,0.5364
1114.00,0.5340
1113.00,0.5277
1112.00,0.5180
1111.00,0.5069
1110.00,0.4961
1109.00,0.4873
1108.00,0.4809
1107.00,0.4773
1106.00,0.4763
1105.00,0.4778
1104.00,0.4814
1103.00,0.4868
1102.00,0.4934
1101.00,0.5002
1100.00,0.5060
1099.00,0.5091
1098.00,0.5084
1097.00,0.5044
1096.00,0.4985
1095.00,0.4928
1094.00,0.4883
1093.00,0.4848
1092.00,0.4820
1091.00,0.4795
1090.00,0.4773
1089.00,0.4756
1088.00,0.4749
1087.00,0.4754
1086.00,0.4773
1085.00,0.4806
1084.00,0.4856
1083.00,0.4921
1082.00,0.4998
1081.00,0.5080
1080.00,0.5158
1079.00,0.5225
1078.00,0.5268
1077.00,0.5280
1076.00,0.5257
1075.00,0.5203
1074.00,0.5127
1073.00,0.5043
1072.00,0.4961
1071.00,0.4889
1070.00,0.4826
1069.00,0.4772
1068.00,0.4725
1067.00,0.4682
1066.00,0.4646
1065.00,0.4617
1064.00,0.4595
1063.00,0.4579
1062.00,0.4566
1061.00,0.4552
1060.00,0.4534
1059.00,0.4512
1058.00,0.4487
1057.00,0.4459
1056.00,0.4430
1055.00,0.4402
1054.00,0.4373
1053.00,0.4346
1052.00,0.4321
1051.00,0.4303
1050.00,0.4292
1049.00,0.4285
1048.00,0.4280
1047.00,0.4279
1046.00,0.4279
1045.00,0.4278
1044.00,0.4275
1043.00,0.4274
1042.00,0.4275
1041.00,0.4278
1040.00,0.4283
1039.00,0.4290
1038.00,0.4298
1037.00,0.4307
1036.00,0.4319
1035.00,0.4339
1034.00,0.4369
1033.00,0.4409
1032.00,0.4456
1031.00,0.4509
1030.00,0.4562
1029.00,0.4608
1028.00,0.4638
1027.00,0.4644
1026.00,0.4621
1025.00,0.4573
1024.00,0.4508
1023.00,0.4435
1022.00,0.4364
1021.00,0.4302
1020.00,0.4253
1019.00,0.4219
1018.00,0.4197
1017.00,0.4183
1016.00,0.4176
1015.00,0.4173
1014.00,0.4171
1013.00,0.4168
1012.00,0.4163
1011.00,0.4159
1010.00,0.4159
1009.00,0.4165
1008.00,0.4175
1007.00,0.4184
1006.00,0.4192
1005.00,0.4198
1004.00,0.4203
1003.00,0.4211
1002.00,0.4220
1001.00,0.4231
1000.00,0.4239
999.00,0.4243
998.00,0.4241
997.00,0.4233
996.00,0.4221
995.00,0.4208
994.00,0.4196
993.00,0.4184
992.00,0.4174
991.00,0.4165
990.00,0.4157
989.00,0.4148
988.00,0.4133
987.00,0.4114
986.00,0.4096
985.00,0.4085
984.00,0.4087
983.00,0.4104
982.00,0.4137
981.00,0.4184
980.00,0.4246
979.00,0.4329
978.00,0.4445
977.00,0.4608
976.00,0.4836
975.00,0.5143
974.00,0.5541
973.00,0.6035
972.00,0.6613
971.00,0.7231
970.00,0.7801
969.00,0.8199
968.00,0.8311
967.00,0.8106
966.00,0.7652
965.00,0.7076
964.00,0.6491
963.00,0.5972
962.00,0.5558
961.00,0.5266
960.00,0.5097
959.00,0.5039
958.00,0.5064
957.00,0.5130
956.00,0.5188
955.00,0.5200
954.00,0.5145
953.00,0.5030
952.00,0.4879
951.00,0.4724
950.00,0.4590
949.00,0.4488
948.00,0.4424
947.00,0.4395
946.00,0.4396
945.00,0.4419
944.00,0.4458
943.00,0.4505
942.00,0.4552
941.00,0.4593
940.00,0.4624
939.00,0.4642
938.00,0.4647
937.00,0.4640
936.00,0.4624
935.00,0.4600
934.00,0.4568
933.00,0.4526
932.00,0.4478
931.00,0.4428
930.00,0.4377
929.00,0.4331
928.00,0.4293
927.00,0.4270
926.00,0.4266
925.00,0.4283
924.00,0.4320
923.00,0.4372
922.00,0.4425
921.00,0.4459
920.00,0.4457
919.00,0.4412
918.00,0.4333
917.00,0.4236
916.00,0.4139
915.00,0.4054
914.00,0.3987
913.00,0.3938
912.00,0.3904
911.00,0.3880
910.00,0.3866
909.00,0.3863
908.00,0.3875
907.00,0.3907
906.00,0.3959
905.00,0.4021
904.00,0.4076
903.00,0.4104
902.00,0.4096
901.00,0.4062
900.00,0.4025
899.00,0.4001
898.00,0.3996
897.00,0.4006
896.00,0.4025
895.00,0.4054
894.00,0.4092
893.00,0.4137
892.00,0.4185
891.00,0.4232
890.00,0.4272
889.00,0.4294
888.00,0.4292
887.00,0.4267
886.00,0.4227
885.00,0.4182
884.00,0.4141
883.00,0.4109
882.00,0.4085
881.00,0.4070
880.00,0.4063
879.00,0.4060
878.00,0.4058
877.00,0.4056
876.00,0.4056
875.00,0.4058
874.00,0.4061
873.00,0.4063
872.00,0.4065
871.00,0.4068
870.00,0.4072
869.00,0.4080
868.00,0.4094
867.00,0.4119
866.00,0.4158
865.00,0.4205
864.00,0.4255
863.00,0.4298
862.00,0.4320
861.00,0.4310
860.00,0.4263
859.00,0.4190
858.00,0.4108
857.00,0.4032
856.00,0.3971
855.00,0.3928
854.00,0.3899
853.00,0.3881
852.00,0.3868
851.00,0.3857
850.00,0.3848
849.00,0.3839
848.00,0.3832
847.00,0.3825
846.00,0.3820
845.00,0.3817
844.00,0.3819
843.00,0.3830
842.00,0.3857
841.00,0.3905
840.00,0.3982
839.00,0.4084
838.00,0.4196
837.00,0.4289
836.00,0.4337
835.00,0.4328
834.00,0.4273
833.00,0.4199
832.00,0.4135
831.00,0.4102
830.00,0.4106
829.00,0.4142
828.00,0.4198
827.00,0.4264
826.00,0.4333
825.00,0.4406
824.00,0.4484
823.00,0.4562
822.00,0.4628
821.00,0.4667
820.00,0.4673
819.00,0.4649
818.00,0.4608
817.00,0.4560
816.00,0.4515
815.00,0.4473
814.00,0.4435
813.00,0.4396
812.00,0.4356
811.00,0.4315
810.00,0.4275
809.00,0.4236
808.00,0.4200
807.00,0.4165
806.00,0.4128
805.00,0.4090
804.00,0.4051
803.00,0.4013
802.00,0.3978
801.00,0.3947
800.00,0.3922
799.00,0.3904
798.00,0.3891
797.00,0.3878
796.00,0.3865
795.00,0.3856
794.00,0.3854
793.00,0.3858
792.00,0.3869
791.00,0.3884
790.00,0.3901
789.00,0.3917
788.00,0.3934
787.00,0.3954
786.00,0.3986
785.00,0.4029
784.00,0.4087
783.00,0.4158
782.00,0.4247
781.00,0.4355
780.00,0.4480
779.00,0.4607
778.00,0.4708
777.00,0.4752
776.00,0.4730
775.00,0.4661
774.00,0.4580
773.00,0.4515
772.00,0.4479
771.00,0.4471
770.00,0.4481
769.00,0.4498
768.00,0.4518
767.00,0.4536
766.00,0.4552
765.00,0.4567
764.00,0.4583
763.00,0.4607
762.00,0.4641
761.00,0.4686
760.00,0.4733
759.00,0.4773
758.00,0.4799
757.00,0.4817
756.00,0.4835
755.00,0.4862
754.00,0.4899
753.00,0.4943
752.00,0.4991
751.00,0.5044
750.00,0.5101
749.00,0.5161
748.00,0.5224
747.00,0.5291
746.00,0.5362
745.00,0.5436
744.00,0.5515
743.00,0.5601
742.00,0.5697
741.00,0.5799
740.00,0.5905
739.00,0.6014
738.00,0.6129
737.00,0.6251
736.00,0.6380
735.00,0.6519
734.00,0.6664
733.00,0.6813
732.00,0.6966
731.00,0.7135
730.00,0.7334
729.00,0.7577
728.00,0.7879
727.00,0.8263
726.00,0.8748
725.00,0.9330
724.00,0.9958
723.00,1.0519
722.00,1.0845
721.00,1.0797
720.00,1.0383
719.00,0.9756
718.00,0.9089
717.00,0.8486
716.00,0.7991
715.00,0.7611
714.00,0.7324
713.00,0.7098
712.00,0.6905
711.00,0.6728
710.00,0.6556
709.00,0.6380
708.00,0.6198
707.00,0.6017
706.00,0.5844
705.00,0.5682
704.00,0.5528
703.00,0.5387
702.00,0.5261
701.00,0.5150
700.00,0.5044
699.00,0.4934
698.00,0.4812
697.00,0.4677
696.00,0.4542
695.00,0.4420
694.00,0.4321
693.00,0.4243
692.00,0.4184
691.00,0.4138
690.00,0.4101
689.00,0.4069
688.00,0.4036
687.00,0.3999
686.00,0.3958
685.00,0.3915
684.00,0.3878
683.00,0.3849
682.00,0.3829
681.00,0.3813
680.00,0.3801
679.00,0.3792
678.00,0.3786
677.00,0.3784
676.00,0.3784
675.00,0.3786
674.00,0.3787
673.00,0.3787
672.00,0.3787
671.00,0.3789
670.00,0.3792
669.00,0.3800
668.00,0.3811
667.00,0.3819
666.00,0.3828
665.00,0.3839
664.00,0.3849
663.00,0.3859
662.00,0.3870
661.00,0.3882
660.00,0.3892
659.00,0.3899
658.00,0.3907
657.00,0.3916
656.00,0.3927
655.00,0.3940
654.00,0.3951
653.00,0.3958
652.00,0.3964
651.00,0.3972
650.00,0.3983
649.00,0.3998
648.00,0.4012
647.00,0.4027
646.00,0.4041
645.00,0.4053
644.00,0.4065
643.00,0.4080
642.00,0.4099
641.00,0.4118
640.00,0.4136
639.00,0.4152
638.00,0.4167
637.00,0.4182
636.00,0.4196
635.00,0.4209
634.00,0.4221
633.00,0.4233
632.00,0.4246
631.00,0.4264
630.00,0.4285
629.00,0.4310
628.00,0.4340
627.00,0.4376
626.00,0.4414
625.00,0.4452
624.00,0.4485
623.00,0.4511
622.00,0.4529
621.00,0.4543
620.00,0.4555
619.00,0.4566
618.00,0.4574
617.00,0.4577
616.00,0.4577
615.00,0.4572
614.00,0.4564
613.00,0.4551
612.00,0.4537
611.00,0.4527
610.00,0.4521
609.00,0.4516
608.00,0.4511
607.00,0.4505
606.00,0.4498
605.00,0.4490
604.00,0.4482
603.00,0.4477
602.00,0.4471
601.00,0.4464
600.00,0.4455
599.00,0.4446
598.00,0.4440
597.00,0.4440
596.00,0.4444
595.00,0.4453
594.00,0.4462
593.00,0.4471
592.00,0.4476
591.00,0.4480
590.00,0.4484
589.00,0.4491
588.00,0.4507
587.00,0.4537
586.00,0.4580
585.00,0.4628
584.00,0.4673
583.00,0.4711
582.00,0.4740
581.00,0.4760
580.00,0.4774
579.00,0.4787
578.00,0.4801
577.00,0.4817
576.00,0.4834
575.00,0.4855
574.00,0.4880
573.00,0.4907
572.00,0.4933
571.00,0.4957
570.00,0.4982
569.00,0.5009
568.00,0.5041
567.00,0.5078
566.00,0.5114
565.00,0.5146
564.00,0.5175
563.00,0.5207
562.00,0.5243
561.00,0.5282
560.00,0.5322
559.00,0.5364
558.00,0.5407
557.00,0.5450
556.00,0.5493
555.00,0.5539
554.00,0.5593
553.00,0.5650
552.00,0.5702
551.00,0.5746
550.00,0.5786
