Created as New Dataset,
cm-1,A
4000.00,0.3422
3999.00,0.3420
3998.00,0.3418
3997.00,0.3417
3996.00,0.3415
3995.00,0.3413
3994.00,0.3410
3993.00,0.3407
3992.00,0.3403
3991.00,0.3399
3990.00,0.3395
3989.00,0.3392
3988.00,0.3388
3987.00,0.3383
3986.00,0.3379
3985.00,0.3374
3984.00,0.3370
3983.00,0.3366
3982.00,0.3362
3981.00,0.3357
3980.00,0.3353
3979.00,0.3348
3978.00,0.3344
3977.00,0.3341
3976.00,0.3337
3975.00,0.3334
3974.00,0.3331
3973.00,0.3328
3972.00,0.3325
3971.00,0.3323
3970.00,0.3321
3969.00,0.3319
3968.00,0.3317
3967.00,0.3314
3966.00,0.3312
3965.00,0.3309
3964.00,0.3306
3963.00,0.3305
3962.00,0.3303
3961.00,0.3301
3960.00,0.3300
3959.00,0.3298
3958.00,0.3296
3957.00,0.3295
3956.00,0.3293
3955.00,0.3291
3954.00,0.3289
3953.00,0.3286
3952.00,0.3283
3951.00,0.3280
3950.00,0.3278
3949.00,0.3277
3948.00,0.3275
3947.00,0.3273
3946.00,0.3271
3945.00,0.3268
3944.00,0.3266
3943.00,0.3264
3942.00,0.3262
3941.00,0.3260
3940.00,0.3259
3939.00,0.3258
3938.00,0.3258
3937.00,0.3258
3936.00,0.3258
3935.00,0.3256
3934.00,0.3255
3933.00,0.3254
3932.00,0.3254
3931.00,0.3254
3930.00,0.3254
3929.00,0.3254
3928.00,0.3255
3927.00,0.3255
3926.00,0.3256
3925.00,0.3257
3924.00,0.3257
3923.00,0.3256
3922.00,0.3254
3921.00,0.3253
3920.00,0.3252
3919.00,0.3252
3918.00,0.3253
3917.00,0.3253
3916.00,0.3252
3915.00,0.3252
3914.00,0.3252
3913.00,0.3251
3912.00,0.3251
3911.00,0.3250
3910.00,0.3248
3909.00,0.3246
3908.00,0.3242
3907.00,0.3239
3906.00,0.3236
3905.00,0.3233
3904.00,0.3231
3903.00,0.3229
3902.00,0.3228
3901.00,0.3229
3900.00,0.3231
3899.00,0.3234
3898.00,0.3236
3897.00,0.3236
3896.00,0.3236
3895.00,0.3235
3894.00,0.3234
3893.00,0.3233
3892.00,0.3233
3891.00,0.3232
3890.00,0.3231
3889.00,0.3227
3888.00,0.3225
3887.00,0.3224
3886.00,0.3226
3885.00,0.3226
3884.00,0.3224
3883.00,0.3221
3882.00,0.3219
3881.00,0.3221
3880.00,0.3223
3879.00,0.3223
3878.00,0.3221
3877.00,0.3219
3876.00,0.3218
3875.00,0.3218
3874.00,0.3216
3873.00,0.3212
3872.00,0.3208
3871.00,0.3206
3870.00,0.3206
3869.00,0.3206
3868.00,0.3203
3867.00,0.3200
3866.00,0.3200
3865.00,0.3201
3864.00,0.3202
3863.00,0.3202
3862.00,0.3201
3861.00,0.3201
3860.00,0.3200
3859.00,0.3198
3858.00,0.3194
3857.00,0.3189
3856.00,0.3183
3855.00,0.3179
3854.00,0.3178
3853.00,0.3180
3852.00,0.3180
3851.00,0.3179
3850.00,0.3181
3849.00,0.3186
3848.00,0.3190
3847.00,0.3192
3846.00,0.3192
3845.00,0.3190
3844.00,0.3187
3843.00,0.3184
3842.00,0.3181
3841.00,0.3177
3840.00,0.3175
3839.00,0.3173
3838.00,0.3173
3837.00,0.3173
3836.00,0.3173
3835.00,0.3172
3834.00,0.3173
3833.00,0.3175
3832.00,0.3177
3831.00,0.3178
3830.00,0.3177
3829.00,0.3177
3828.00,0.3176
3827.00,0.3176
3826.00,0.3175
3825.00,0.3172
3824.00,0.3168
3823.00,0.3165
3822.00,0.3164
3821.00,0.3165
3820.00,0.3162
3819.00,0.3158
3818.00,0.3154
3817.00,0.3155
3816.00,0.3159
3815.00,0.3160
3814.00,0.3158
3813.00,0.3155
3812.00,0.3153
3811.00,0.3152
3810.00,0.3150
3809.00,0.3148
3808.00,0.3146
3807.00,0.3144
3806.00,0.3141
3805.00,0.3136
3804.00,0.3131
3803.00,0.3128
3802.00,0.3129
3801.00,0.3130
3800.00,0.3129
3799.00,0.3126
3798.00,0.3125
3797.00,0.3126
3796.00,0.3129
3795.00,0.3129
3794.00,0.3128
3793.00,0.3126
3792.00,0.3126
3791.00,0.3125
3790.00,0.3124
3789.00,0.3122
3788.00,0.3120
3787.00,0.3118
3786.00,0.3116
3785.00,0.3114
3784.00,0.3113
3783.00,0.3110
3782.00,0.3108
3781.00,0.3107
3780.00,0.3106
3779.00,0.3105
3778.00,0.3103
3777.00,0.3101
3776.00,0.3099
3775.00,0.3098
3774.00,0.3096
3773.00,0.3093
3772.00,0.3090
3771.00,0.3087
3770.00,0.3085
3769.00,0.3083
3768.00,0.3081
3767.00,0.3079
3766.00,0.3078
3765.00,0.3078
3764.00,0.3077
3763.00,0.3075
3762.00,0.3074
3761.00,0.3073
3760.00,0.3073
3759.00,0.3072
3758.00,0.3070
3757.00,0.3067
3756.00,0.3063
3755.00,0.3060
3754.00,0.3055
3753.00,0.3052
3752.00,0.3048
3751.00,0.3046
3750.00,0.3043
3749.00,0.3040
3748.00,0.3036
3747.00,0.3032
3746.00,0.3032
3745.00,0.3035
3744.00,0.3039
3743.00,0.3039
3742.00,0.3036
3741.00,0.3034
3740.00,0.3034
3739.00,0.3034
3738.00,0.3031
3737.00,0.3028
3736.00,0.3025
3735.00,0.3024
3734.00,0.3024
3733.00,0.3026
3732.00,0.3029
3731.00,0.3031
3730.00,0.3031
3729.00,0.3029
3728.00,0.3028
3727.00,0.3028
3726.00,0.3027
3725.00,0.3025
3724.00,0.3023
3723.00,0.3022
3722.00,0.3021
3721.00,0.3022
3720.00,0.3022
3719.00,0.3023
3718.00,0.3022
3717.00,0.3021
3716.00,0.3018
3715.00,0.3015
3714.00,0.3011
3713.00,0.3009
3712.00,0.3008
3711.00,0.3008
3710.00,0.3008
3709.00,0.3009
3708.00,0.3011
3707.00,0.3013
3706.00,0.3014
3705.00,0.3014
3704.00,0.3014
3703.00,0.3014
3702.00,0.3014
3701.00,0.3014
3700.00,0.3013
3699.00,0.3013
3698.00,0.3014
3697.00,0.3015
3696.00,0.3016
3695.00,0.3016
3694.00,0.3014
3693.00,0.3012
3692.00,0.3009
3691.00,0.3007
3690.00,0.3006
3689.00,0.3008
3688.00,0.3011
3687.00,0.3013
3686.00,0.3014
3685.00,0.3016
3684.00,0.3018
3683.00,0.3019
3682.00,0.3019
3681.00,0.3017
3680.00,0.3013
3679.00,0.3008
3678.00,0.3003
3677.00,0.2999
3676.00,0.2999
3675.00,0.3000
3674.00,0.3000
3673.00,0.2997
3672.00,0.2997
3671.00,0.3001
3670.00,0.3006
3669.00,0.3011
3668.00,0.3014
3667.00,0.3018
3666.00,0.3024
3665.00,0.3031
3664.00,0.3039
3663.00,0.3047
3662.00,0.3055
3661.00,0.3065
3660.00,0.3076
3659.00,0.3090
3658.00,0.3108
3657.00,0.3133
3656.00,0.3162
3655.00,0.3190
3654.00,0.3215
3653.00,0.3236
3652.00,0.3257
3651.00,0.3275
3650.00,0.3288
3649.00,0.3292
3648.00,0.3288
3647.00,0.3277
3646.00,0.3262
3645.00,0.3244
3644.00,0.3225
3643.00,0.3207
3642.00,0.3189
3641.00,0.3172
3640.00,0.3155
3639.00,0.3141
3638.00,0.3128
3637.00,0.3117
3636.00,0.3108
3635.00,0.3100
3634.00,0.3093
3633.00,0.3086
3632.00,0.3078
3631.00,0.3071
3630.00,0.3067
3629.00,0.3067
3628.00,0.3068
3627.00,0.3068
3626.00,0.3069
3625.00,0.3071
3624.00,0.3073
3623.00,0.3073
3622.00,0.3070
3621.00,0.3066
3620.00,0.3061
3619.00,0.3057
3618.00,0.3052
3617.00,0.3048
3616.00,0.3045
3615.00,0.3043
3614.00,0.3042
3613.00,0.3040
3612.00,0.3038
3611.00,0.3035
3610.00,0.3034
3609.00,0.3034
3608.00,0.3035
3607.00,0.3036
3606.00,0.3035
3605.00,0.3032
3604.00,0.3029
3603.00,0.3025
3602.00,0.3019
3601.00,0.3012
3600.00,0.3004
3599.00,0.2995
3598.00,0.2985
3597.00,0.2976
3596.00,0.2967
3595.00,0.2959
3594.00,0.2951
3593.00,0.2944
3592.00,0.2937
3591.00,0.2930
3590.00,0.2924
3589.00,0.2919
3588.00,0.2915
3587.00,0.2913
3586.00,0.2911
3585.00,0.2909
3584.00,0.2908
3583.00,0.2908
3582.00,0.2908
3581.00,0.2908
3580.00,0.2907
3579.00,0.2906
3578.00,0.2905
3577.00,0.2904
3576.00,0.2903
3575.00,0.2902
3574.00,0.2901
3573.00,0.2901
3572.00,0.2899
3571.00,0.2896
3570.00,0.2892
3569.00,0.2889
3568.00,0.2888
3567.00,0.2888
3566.00,0.2888
3565.00,0.2888
3564.00,0.2889
3563.00,0.2891
3562.00,0.2893
3561.00,0.2895
3560.00,0.2896
3559.00,0.2897
3558.00,0.2897
3557.00,0.2897
3556.00,0.2897
3555.00,0.2898
3554.00,0.2900
3553.00,0.2901
3552.00,0.2903
3551.00,0.2905
3550.00,0.2906
3549.00,0.2908
3548.00,0.2910
3547.00,0.2912
3546.00,0.2915
3545.00,0.2917
3544.00,0.2920
3543.00,0.2923
3542.00,0.2926
3541.00,0.2929
3540.00,0.2932
3539.00,0.2934
3538.00,0.2936
3537.00,0.2938
3536.00,0.2941
3535.00,0.2943
3534.00,0.2945
3533.00,0.2946
3532.00,0.2947
3531.00,0.2948
3530.00,0.2950
3529.00,0.2952
3528.00,0.2954
3527.00,0.2956
3526.00,0.2958
3525.00,0.2961
3524.00,0.2965
3523.00,0.2968
3522.00,0.2971
3521.00,0.2973
3520.00,0.2976
3519.00,0.2980
3518.00,0.2984
3517.00,0.2988
3516.00,0.2992
3515.00,0.2996
3514.00,0.3000
3513.00,0.3004
3512.00,0.3007
3511.00,0.3011
3510.00,0.3014
3509.00,0.3017
3508.00,0.3021
3507.00,0.3025
3506.00,0.3029
3505.00,0.3034
3504.00,0.3039
3503.00,0.3043
3502.00,0.3048
3501.00,0.3052
3500.00,0.3056
3499.00,0.3061
3498.00,0.3065
3497.00,0.3070
3496.00,0.3075
3495.00,0.3080
3494.00,0.3086
3493.00,0.3092
3492.00,0.3098
3491.00,0.3105
3490.00,0.3111
3489.00,0.3117
3488.00,0.3124
3487.00,0.3129
3486.00,0.3135
3485.00,0.3140
3484.00,0.3146
3483.00,0.3152
3482.00,0.3158
3481.00,0.3164
3480.00,0.3168
3479.00,0.3173
3478.00,0.3177
3477.00,0.3182
3476.00,0.3186
3475.00,0.3191
3474.00,0.3196
3473.00,0.3201
3472.00,0.3207
3471.00,0.3212
3470.00,0.3218
3469.00,0.3224
3468.00,0.3230
3467.00,0.3235
3466.00,0.3240
3465.00,0.3246
3464.00,0.3251
3463.00,0.3257
3462.00,0.3263
3461.00,0.3269
3460.00,0.3275
3459.00,0.3281
3458.00,0.3288
3457.00,0.3295
3456.00,0.3303
3455.00,0.3310
3454.00,0.3318
3453.00,0.3327
3452.00,0.3336
3451.00,0.3346
3450.00,0.3356
3449.00,0.3366
3448.00,0.3377
3447.00,0.3388
3446.00,0.3401
3445.00,0.3414
3444.00,0.3427
3443.00,0.3441
3442.00,0.3455
3441.00,0.3469
3440.00,0.3482
3439.00,0.3494
3438.00,0.3505
3437.00,0.3515
3436.00,0.3524
3435.00,0.3532
3434.00,0.3539
3433.00,0.3546
3432.00,0.3552
3431.00,0.3559
3430.00,0.3566
3429.00,0.3572
3428.00,0.3580
3427.00,0.3586
3426.00,0.3593
3425.00,0.3599
3424.00,0.3604
3423.00,0.3610
3422.00,0.3617
3421.00,0.3625
3420.00,0.3634
3419.00,0.3642
3418.00,0.3651
3417.00,0.3660
3416.00,0.3669
3415.00,0.3679
3414.00,0.3689
3413.00,0.3698
3412.00,0.3708
3411.00,0.3719
3410.00,0.3730
3409.00,0.3741
3408.00,0.3753
3407.00,0.3765
3406.00,0.3777
3405.00,0.3789
3404.00,0.3801
3403.00,0.3812
3402.00,0.3824
3401.00,0.3836
3400.00,0.3847
3399.00,0.3859
3398.00,0.3870
3397.00,0.3882
3396.00,0.3894
3395.00,0.3907
3394.00,0.3920
3393.00,0.3933
3392.00,0.3945
3391.00,0.3957
3390.00,0.3969
3389.00,0.3981
3388.00,0.3993
3387.00,0.4005
3386.00,0.4017
3385.00,0.4030
3384.00,0.4043
3383.00,0.4056
3382.00,0.4070
3381.00,0.4084
3380.00,0.4099
3379.00,0.4114
3378.00,0.4130
3377.00,0.4145
3376.00,0.4161
3375.00,0.4176
3374.00,0.4192
3373.00,0.4208
3372.00,0.4225
3371.00,0.4242
3370.00,0.4259
3369.00,0.4276
3368.00,0.4292
3367.00,0.4309
3366.00,0.4326
3365.00,0.4344
3364.00,0.4362
3363.00,0.4381
3362.00,0.4400
3361.00,0.4419
3360.00,0.4438
3359.00,0.4456
3358.00,0.4475
3357.00,0.4494
3356.00,0.4514
3355.00,0.4534
3354.00,0.4552
3353.00,0.4570
3352.00,0.4588
3351.00,0.4607
3350.00,0.4626
3349.00,0.4645
3348.00,0.4663
3347.00,0.4679
3346.00,0.4695
3345.00,0.4710
3344.00,0.4726
3343.00,0.4743
3342.00,0.4758
3341.00,0.4772
3340.00,0.4785
3339.00,0.4797
3338.00,0.4808
3337.00,0.4818
3336.00,0.4828
3335.00,0.4837
3334.00,0.4845
3333.00,0.4852
3332.00,0.4857
3331.00,0.4861
3330.00,0.4865
3329.00,0.4867
3328.00,0.4868
3327.00,0.4868
3326.00,0.4866
3325.00,0.4865
3324.00,0.4862
3323.00,0.4860
3322.00,0.4857
3321.00,0.4853
3320.00,0.4848
3319.00,0.4842
3318.00,0.4835
3317.00,0.4827
3316.00,0.4819
3315.00,0.4810
3314.00,0.4801
3313.00,0.4792
3312.00,0.4783
3311.00,0.4774
3310.00,0.4765
3309.00,0.4755
3308.00,0.4745
3307.00,0.4735
3306.00,0.4725
3305.00,0.4715
3304.00,0.4706
3303.00,0.4696
3302.00,0.4687
3301.00,0.4679
3300.00,0.4670
3299.00,0.4661
3298.00,0.4653
3297.00,0.4645
3296.00,0.4638
3295.00,0.4630
3294.00,0.4624
3293.00,0.4618
3292.00,0.4613
3291.00,0.4608
3290.00,0.4604
3289.00,0.4601
3288.00,0.4598
3287.00,0.4595
3286.00,0.4594
3285.00,0.4592
3284.00,0.4592
3283.00,0.4592
3282.00,0.4591
3281.00,0.4592
3280.00,0.4592
3279.00,0.4593
3278.00,0.4594
3277.00,0.4596
3276.00,0.4598
3275.00,0.4601
3274.00,0.4604
3273.00,0.4607
3272.00,0.4610
3271.00,0.4614
3270.00,0.4617
3269.00,0.4621
3268.00,0.4626
3267.00,0.4631
3266.00,0.4635
3265.00,0.4639
3264.00,0.4644
3263.00,0.4648
3262.00,0.4653
3261.00,0.4658
3260.00,0.4664
3259.00,0.4668
3258.00,0.4672
3257.00,0.4676
3256.00,0.4680
3255.00,0.4684
3254.00,0.4689
3253.00,0.4693
3252.00,0.4697
3251.00,0.4701
3250.00,0.4706
3249.00,0.4710
3248.00,0.4714
3247.00,0.4717
3246.00,0.4719
3245.00,0.4721
3244.00,0.4722
3243.00,0.4723
3242.00,0.4724
3241.00,0.4726
3240.00,0.4726
3239.00,0.4726
3238.00,0.4726
3237.00,0.4725
3236.00,0.4724
3235.00,0.4723
3234.00,0.4721
3233.00,0.4720
3232.00,0.4718
3231.00,0.4715
3230.00,0.4712
3229.00,0.4709
3228.00,0.4706
3227.00,0.4703
3226.00,0.4699
3225.00,0.4696
3224.00,0.4692
3223.00,0.4687
3222.00,0.4682
3221.00,0.4678
3220.00,0.4673
3219.00,0.4668
3218.00,0.4664
3217.00,0.4659
3216.00,0.4655
3215.00,0.4651
3214.00,0.4646
3213.00,0.4642
3212.00,0.4637
3211.00,0.4633
3210.00,0.4628
3209.00,0.4622
3208.00,0.4617
3207.00,0.4612
3206.00,0.4607
3205.00,0.4601
3204.00,0.4596
3203.00,0.4591
3202.00,0.4586
3201.00,0.4580
3200.00,0.4574
3199.00,0.4569
3198.00,0.4563
3197.00,0.4557
3196.00,0.4552
3195.00,0.4546
3194.00,0.4539
3193.00,0.4533
3192.00,0.4526
3191.00,0.4520
3190.00,0.4513
3189.00,0.4507
3188.00,0.4500
3187.00,0.4493
3186.00,0.4487
3185.00,0.4480
3184.00,0.4473
3183.00,0.4465
3182.00,0.4457
3181.00,0.4449
3180.00,0.4441
3179.00,0.4434
3178.00,0.4426
3177.00,0.4419
3176.00,0.4411
3175.00,0.4402
3174.00,0.4393
3173.00,0.4385
3172.00,0.4376
3171.00,0.4367
3170.00,0.4359
3169.00,0.4350
3168.00,0.4342
3167.00,0.4333
3166.00,0.4324
3165.00,0.4315
3164.00,0.4306
3163.00,0.4297
3162.00,0.4288
3161.00,0.4279
3160.00,0.4270
3159.00,0.4262
3158.00,0.4254
3157.00,0.4246
3156.00,0.4239
3155.00,0.4231
3154.00,0.4223
3153.00,0.4216
3152.00,0.4209
3151.00,0.4202
3150.00,0.4196
3149.00,0.4189
3148.00,0.4183
3147.00,0.4176
3146.00,0.4170
3145.00,0.4164
3144.00,0.4158
3143.00,0.4153
3142.00,0.4148
3141.00,0.4144
3140.00,0.4139
3139.00,0.4134
3138.00,0.4129
3137.00,0.4125
3136.00,0.4121
3135.00,0.4116
3134.00,0.4112
3133.00,0.4109
3132.00,0.4106
3131.00,0.4103
3130.00,0.4100
3129.00,0.4097
3128.00,0.4095
3127.00,0.4092
3126.00,0.4091
3125.00,0.4091
3124.00,0.4090
3123.00,0.4090
3122.00,0.4090
3121.00,0.4091
3120.00,0.4092
3119.00,0.4094
3118.00,0.4095
3117.00,0.4097
3116.00,0.4099
3115.00,0.4102
3114.00,0.4106
3113.00,0.4110
3112.00,0.4115
3111.00,0.4121
3110.00,0.4127
3109.00,0.4135
3108.00,0.4142
3107.00,0.4150
3106.00,0.4157
3105.00,0.4165
3104.00,0.4174
3103.00,0.4183
3102.00,0.4192
3101.00,0.4201
3100.00,0.4210
3099.00,0.4220
3098.00,0.4230
3097.00,0.4240
3096.00,0.4251
3095.00,0.4262
3094.00,0.4275
3093.00,0.4288
3092.00,0.4303
3091.00,0.4318
3090.00,0.4334
3089.00,0.4351
3088.00,0.4369
3087.00,0.4389
3086.00,0.4410
3085.00,0.4431
3084.00,0.4453
3083.00,0.4477
3082.00,0.4502
3081.00,0.4528
3080.00,0.4556
3079.00,0.4586
3078.00,0.4616
3077.00,0.4647
3076.00,0.4680
3075.00,0.4714
3074.00,0.4749
3073.00,0.4785
3072.00,0.4822
3071.00,0.4859
3070.00,0.4896
3069.00,0.4933
3068.00,0.4970
3067.00,0.5006
3066.00,0.5042
3065.00,0.5078
3064.00,0.5114
3063.00,0.5148
3062.00,0.5182
3061.00,0.5214
3060.00,0.5245
3059.00,0.5277
3058.00,0.5308
3057.00,0.5339
3056.00,0.5369
3055.00,0.5400
3054.00,0.5432
3053.00,0.5465
3052.00,0.5499
3051.00,0.5534
3050.00,0.5570
3049.00,0.5606
3048.00,0.5644
3047.00,0.5684
3046.00,0.5725
3045.00,0.5767
3044.00,0.5809
3043.00,0.5853
3042.00,0.5896
3041.00,0.5941
3040.00,0.5986
3039.00,0.6033
3038.00,0.6084
3037.00,0.6136
3036.00,0.6192
3035.00,0.6249
3034.00,0.6309
3033.00,0.6372
3032.00,0.6438
3031.00,0.6507
3030.00,0.6578
3029.00,0.6653
3028.00,0.6730
3027.00,0.6810
3026.00,0.6893
3025.00,0.6979
3024.00,0.7067
3023.00,0.7158
3022.00,0.7251
3021.00,0.7347
3020.00,0.7445
3019.00,0.7547
3018.00,0.7652
3017.00,0.7761
3016.00,0.7875
3015.00,0.7992
3014.00,0.8113
3013.00,0.8238
3012.00,0.8369
3011.00,0.8509
3010.00,0.8659
3009.00,0.8818
3008.00,0.8985
3007.00,0.9157
3006.00,0.9336
3005.00,0.9522
3004.00,0.9716
3003.00,0.9918
3002.00,1.0126
3001.00,1.0343
3000.00,1.0568
2999.00,1.0806
2998.00,1.1061
2997.00,1.1337
2996.00,1.1634
2995.00,1.1954
2994.00,1.2302
2993.00,1.2683
2992.00,1.3102
2991.00,1.3566
2990.00,1.4081
2989.00,1.4652
2988.00,1.5287
2987.00,1.5991
2986.00,1.6769
2985.00,1.7623
2984.00,1.8553
2983.00,1.9570
2982.00,2.0695
2981.00,2.1948
2980.00,2.3342
2979.00,2.4889
2978.00,2.6609
2977.00,2.8484
2976.00,3.0434
2975.00,3.2365
2974.00,3.4292
2973.00,3.6242
2972.00,3.8002
2971.00,3.9061
2970.00,3.9308
2969.00,3.9216
2968.00,3.9170
2967.00,3.9337
2966.00,3.9101
2965.00,3.8461
2964.00,3.8045
2963.00,3.8217
2962.00,3.8928
2961.00,4.0029
2960.00,4.2343
2959.00,4.6272
2958.00,4.6682
2957.00,4.6846
2956.00,4.6993
2955.00,4.5165
2954.00,4.2483
2953.00,4.1150
2952.00,4.1257
2951.00,3.9899
2950.00,3.7970
2949.00,3.6572
2948.00,3.6212
2947.00,3.6939
2946.00,3.8315
2945.00,3.9288
2944.00,3.9559
2943.00,3.9819
2942.00,3.9931
2941.00,3.9066
2940.00,3.8113
2939.00,3.8278
2938.00,4.0192
2937.00,4.4335
2936.00,4.4964
2935.00,4.2686
2934.00,4.1187
2933.00,4.1262
2932.00,4.0836
2931.00,4.0058
2930.00,3.9351
2929.00,3.8805
2928.00,3.8704
2927.00,3.8919
2926.00,3.8727
2925.00,3.8377
2924.00,3.8638
2923.00,4.0207
2922.00,4.3172
2921.00,4.6984
2920.00,4.5374
2919.00,4.3188
2918.00,4.4241
2917.00,4.3731
2916.00,4.0647
2915.00,3.8480
2914.00,3.8024
2913.00,3.8454
2912.00,3.8649
2911.00,3.9016
2910.00,3.9531
2909.00,4.0480
2908.00,4.3623
2907.00,4.4659
2906.00,4.2511
2905.00,4.1044
2904.00,4.1456
2903.00,4.1971
2902.00,4.1223
2901.00,4.0583
2900.00,4.0024
2899.00,3.9572
2898.00,3.9512
2897.00,3.9719
2896.00,4.0512
2895.00,4.2697
2894.00,4.4013
2893.00,4.2607
2892.00,3.9980
2891.00,3.8836
2890.00,3.8663
2889.00,3.9158
2888.00,3.9662
2887.00,3.9771
2886.00,4.0033
2885.00,4.0492
2884.00,4.0834
2883.00,4.1126
2882.00,4.1660
2881.00,4.1668
2880.00,3.9868
2879.00,3.8076
2878.00,3.7368
2877.00,3.7896
2876.00,3.8699
2875.00,3.8529
2874.00,3.7876
2873.00,3.8150
2872.00,3.9721
2871.00,4.0789
2870.00,4.1204
2869.00,4.2374
2868.00,4.3990
2867.00,4.3497
2866.00,4.3000
2865.00,4.3094
2864.00,4.0644
2863.00,3.8370
2862.00,3.7538
2861.00,3.7906
2860.00,3.9094
2859.00,4.0544
2858.00,4.0614
2857.00,3.9530
2856.00,3.8892
2855.00,3.9184
2854.00,4.0002
2853.00,4.0700
2852.00,4.0686
2851.00,4.0566
2850.00,4.0819
2849.00,4.1433
2848.00,4.2264
2847.00,4.2867
2846.00,4.2166
2845.00,4.0124
2844.00,3.8745
2843.00,3.8520
2842.00,3.9664
2841.00,4.0279
2840.00,3.7833
2839.00,3.5400
2838.00,3.3542
2837.00,3.1869
2836.00,2.9956
2835.00,2.8015
2834.00,2.6149
2833.00,2.4394
2832.00,2.2796
2831.00,2.1381
2830.00,2.0144
2829.00,1.9061
2828.00,1.8109
2827.00,1.7269
2826.00,1.6516
2825.00,1.5832
2824.00,1.5206
2823.00,1.4634
2822.00,1.4114
2821.00,1.3636
2820.00,1.3195
2819.00,1.2784
2818.00,1.2403
2817.00,1.2047
2816.00,1.1715
2815.00,1.1404
2814.00,1.1113
2813.00,1.0839
2812.00,1.0582
2811.00,1.0340
2810.00,1.0110
2809.00,0.9889
2808.00,0.9675
2807.00,0.9472
2806.00,0.9279
2805.00,0.9095
2804.00,0.8919
2803.00,0.8752
2802.00,0.8591
2801.00,0.8438
2800.00,0.8292
2799.00,0.8152
2798.00,0.8019
2797.00,0.7889
2796.00,0.7763
2795.00,0.7641
2794.00,0.7523
2793.00,0.7410
2792.00,0.7300
2791.00,0.7193
2790.00,0.7089
2789.00,0.6987
2788.00,0.6887
2787.00,0.6788
2786.00,0.6692
2785.00,0.6598
2784.00,0.6506
2783.00,0.6416
2782.00,0.6329
2781.00,0.6245
2780.00,0.6166
2779.00,0.6091
2778.00,0.6019
2777.00,0.5950
2776.00,0.5885
2775.00,0.5823
2774.00,0.5765
2773.00,0.5712
2772.00,0.5662
2771.00,0.5616
2770.00,0.5573
2769.00,0.5534
2768.00,0.5499
2767.00,0.5468
2766.00,0.5441
2765.00,0.5417
2764.00,0.5396
2763.00,0.5378
2762.00,0.5362
2761.00,0.5349
2760.00,0.5337
2759.00,0.5326
2758.00,0.5315
2757.00,0.5304
2756.00,0.5293
2755.00,0.5284
2754.00,0.5276
2753.00,0.5271
2752.00,0.5268
2751.00,0.5267
2750.00,0.5268
2749.00,0.5271
2748.00,0.5276
2747.00,0.5283
2746.00,0.5291
2745.00,0.5302
2744.00,0.5315
2743.00,0.5330
2742.00,0.5348
2741.00,0.5371
2740.00,0.5398
2739.00,0.5430
2738.00,0.5465
2737.00,0.5504
2736.00,0.5548
2735.00,0.5594
2734.00,0.5643
2733.00,0.5690
2732.00,0.5733
2731.00,0.5768
2730.00,0.5792
2729.00,0.5805
2728.00,0.5807
2727.00,0.5799
2726.00,0.5783
2725.00,0.5764
2724.00,0.5743
2723.00,0.5720
2722.00,0.5694
2721.00,0.5665
2720.00,0.5635
2719.00,0.5601
2718.00,0.5565
2717.00,0.5527
2716.00,0.5487
2715.00,0.5446
2714.00,0.5406
2713.00,0.5366
2712.00,0.5327
2711.00,0.5292
2710.00,0.5260
2709.00,0.5232
2708.00,0.5208
2707.00,0.5187
2706.00,0.5170
2705.00,0.5156
2704.00,0.5144
2703.00,0.5135
2702.00,0.5129
2701.00,0.5125
2700.00,0.5124
2699.00,0.5125
2698.00,0.5128
2697.00,0.5134
2696.00,0.5141
2695.00,0.5150
2694.00,0.5160
2693.00,0.5172
2692.00,0.5184
2691.00,0.5196
2690.00,0.5208
2689.00,0.5220
2688.00,0.5231
2687.00,0.5242
2686.00,0.5251
2685.00,0.5258
2684.00,0.5265
2683.00,0.5271
2682.00,0.5276
2681.00,0.5280
2680.00,0.5284
2679.00,0.5286
2678.00,0.5288
2677.00,0.5291
2676.00,0.5293
2675.00,0.5296
2674.00,0.5299
2673.00,0.5302
2672.00,0.5302
2671.00,0.5299
2670.00,0.5294
2669.00,0.5285
2668.00,0.5273
2667.00,0.5257
2666.00,0.5239
2665.00,0.5218
2664.00,0.5195
2663.00,0.5172
2662.00,0.5148
2661.00,0.5124
2660.00,0.5099
2659.00,0.5075
2658.00,0.5051
2657.00,0.5028
2656.00,0.5006
2655.00,0.4985
2654.00,0.4964
2653.00,0.4945
2652.00,0.4926
2651.00,0.4909
2650.00,0.4892
2649.00,0.4876
2648.00,0.4861
2647.00,0.4845
2646.00,0.4830
2645.00,0.4815
2644.00,0.4801
2643.00,0.4787
2642.00,0.4774
2641.00,0.4762
2640.00,0.4750
2639.00,0.4739
2638.00,0.4729
2637.00,0.4720
2636.00,0.4711
2635.00,0.4702
2634.00,0.4692
2633.00,0.4683
2632.00,0.4673
2631.00,0.4663
2630.00,0.4653
2629.00,0.4643
2628.00,0.4633
2627.00,0.4622
2626.00,0.4612
2625.00,0.4602
2624.00,0.4592
2623.00,0.4582
2622.00,0.4571
2621.00,0.4560
2620.00,0.4549
2619.00,0.4538
2618.00,0.4528
2617.00,0.4518
2616.00,0.4508
2615.00,0.4498
2614.00,0.4488
2613.00,0.4478
2612.00,0.4467
2611.00,0.4456
2610.00,0.4446
2609.00,0.4437
2608.00,0.4428
2607.00,0.4419
2606.00,0.4409
2605.00,0.4399
2604.00,0.4389
2603.00,0.4378
2602.00,0.4368
2601.00,0.4356
2600.00,0.4343
2599.00,0.4329
2598.00,0.4315
2597.00,0.4301
2596.00,0.4285
2595.00,0.4269
2594.00,0.4252
2593.00,0.4235
2592.00,0.4219
2591.00,0.4203
2590.00,0.4187
2589.00,0.4170
2588.00,0.4153
2587.00,0.4137
2586.00,0.4120
2585.00,0.4103
2584.00,0.4086
2583.00,0.4069
2582.00,0.4052
2581.00,0.4034
2580.00,0.4017
2579.00,0.4000
2578.00,0.3984
2577.00,0.3967
2576.00,0.3950
2575.00,0.3935
2574.00,0.3920
2573.00,0.3905
2572.00,0.3891
2571.00,0.3877
2570.00,0.3863
2569.00,0.3850
2568.00,0.3837
2567.00,0.3823
2566.00,0.3810
2565.00,0.3796
2564.00,0.3783
2563.00,0.3769
2562.00,0.3756
2561.00,0.3743
2560.00,0.3729
2559.00,0.3716
2558.00,0.3704
2557.00,0.3692
2556.00,0.3680
2555.00,0.3669
2554.00,0.3658
2553.00,0.3647
2552.00,0.3636
2551.00,0.3626
2550.00,0.3616
2549.00,0.3607
2548.00,0.3598
2547.00,0.3589
2546.00,0.3579
2545.00,0.3570
2544.00,0.3562
2543.00,0.3553
2542.00,0.3546
2541.00,0.3539
2540.00,0.3532
2539.00,0.3526
2538.00,0.3519
2537.00,0.3513
2536.00,0.3507
2535.00,0.3502
2534.00,0.3496
2533.00,0.3489
2532.00,0.3482
2531.00,0.3474
2530.00,0.3465
2529.00,0.3456
2528.00,0.3446
2527.00,0.3436
2526.00,0.3425
2525.00,0.3414
2524.00,0.3403
2523.00,0.3392
2522.00,0.3381
2521.00,0.3370
2520.00,0.3360
2519.00,0.3350
2518.00,0.3340
2517.00,0.3331
2516.00,0.3322
2515.00,0.3314
2514.00,0.3306
2513.00,0.3298
2512.00,0.3290
2511.00,0.3282
2510.00,0.3274
2509.00,0.3267
2508.00,0.3261
2507.00,0.3256
2506.00,0.3251
2505.00,0.3247
2504.00,0.3244
2503.00,0.3240
2502.00,0.3237
2501.00,0.3234
2500.00,0.3232
2499.00,0.3229
2498.00,0.3226
2497.00,0.3224
2496.00,0.3221
2495.00,0.3218
2494.00,0.3215
2493.00,0.3211
2492.00,0.3207
2491.00,0.3202
2490.00,0.3197
2489.00,0.3192
2488.00,0.3187
2487.00,0.3181
2486.00,0.3176
2485.00,0.3170
2484.00,0.3165
2483.00,0.3159
2482.00,0.3154
2481.00,0.3148
2480.00,0.3143
2479.00,0.3138
2478.00,0.3133
2477.00,0.3128
2476.00,0.3124
2475.00,0.3119
2474.00,0.3116
2473.00,0.3112
2472.00,0.3109
2471.00,0.3106
2470.00,0.3103
2469.00,0.3100
2468.00,0.3098
2467.00,0.3095
2466.00,0.3093
2465.00,0.3090
2464.00,0.3088
2463.00,0.3085
2462.00,0.3083
2461.00,0.3081
2460.00,0.3079
2459.00,0.3077
2458.00,0.3075
2457.00,0.3074
2456.00,0.3072
2455.00,0.3070
2454.00,0.3069
2453.00,0.3067
2452.00,0.3065
2451.00,0.3064
2450.00,0.3063
2449.00,0.3062
2448.00,0.3061
2447.00,0.3061
2446.00,0.3060
2445.00,0.3060
2444.00,0.3060
2443.00,0.3060
2442.00,0.3061
2441.00,0.3063
2440.00,0.3064
2439.00,0.3065
2438.00,0.3065
2437.00,0.3066
2436.00,0.3067
2435.00,0.3068
2434.00,0.3069
2433.00,0.3070
2432.00,0.3071
2431.00,0.3072
2430.00,0.3073
2429.00,0.3074
2428.00,0.3076
2427.00,0.3077
2426.00,0.3078
2425.00,0.3079
2424.00,0.3080
2423.00,0.3080
2422.00,0.3081
2421.00,0.3082
2420.00,0.3083
2419.00,0.3083
2418.00,0.3084
2417.00,0.3085
2416.00,0.3085
2415.00,0.3086
2414.00,0.3087
2413.00,0.3088
2412.00,0.3089
2411.00,0.3090
2410.00,0.3090
2409.00,0.3090
2408.00,0.3090
2407.00,0.3090
2406.00,0.3090
2405.00,0.3090
2404.00,0.3091
2403.00,0.3091
2402.00,0.3091
2401.00,0.3092
2400.00,0.3092
2399.00,0.3093
2398.00,0.3093
2397.00,0.3093
2396.00,0.3093
2395.00,0.3093
2394.00,0.3093
2393.00,0.3093
2392.00,0.3092
2391.00,0.3093
2390.00,0.3093
2389.00,0.3094
2388.00,0.3094
2387.00,0.3094
2386.00,0.3095
2385.00,0.3096
2384.00,0.3097
2383.00,0.3097
2382.00,0.3098
2381.00,0.3100
2380.00,0.3101
2379.00,0.3102
2378.00,0.3103
2377.00,0.3104
2376.00,0.3105
2375.00,0.3104
2374.00,0.3104
2373.00,0.3103
2372.00,0.3102
2371.00,0.3101
2370.00,0.3100
2369.00,0.3100
2368.00,0.3100
2367.00,0.3100
2366.00,0.3101
2365.00,0.3102
2364.00,0.3102
2363.00,0.3101
2362.00,0.3099
2361.00,0.3099
2360.00,0.3098
2359.00,0.3098
2358.00,0.3098
2357.00,0.3097
2356.00,0.3097
2355.00,0.3096
2354.00,0.3095
2353.00,0.3095
2352.00,0.3097
2351.00,0.3101
2350.00,0.3103
2349.00,0.3102
2348.00,0.3096
2347.00,0.3089
2346.00,0.3085
2345.00,0.3084
2344.00,0.3083
2343.00,0.3081
2342.00,0.3079
2341.00,0.3077
2340.00,0.3076
2339.00,0.3075
2338.00,0.3074
2337.00,0.3072
2336.00,0.3070
2335.00,0.3068
2334.00,0.3065
2333.00,0.3062
2332.00,0.3059
2331.00,0.3057
2330.00,0.3054
2329.00,0.3052
2328.00,0.3050
2327.00,0.3047
2326.00,0.3043
2325.00,0.3040
2324.00,0.3037
2323.00,0.3035
2322.00,0.3032
2321.00,0.3029
2320.00,0.3026
2319.00,0.3022
2318.00,0.3018
2317.00,0.3015
2316.00,0.3011
2315.00,0.3008
2314.00,0.3005
2313.00,0.3002
2312.00,0.2999
2311.00,0.2996
2310.00,0.2992
2309.00,0.2988
2308.00,0.2984
2307.00,0.2980
2306.00,0.2977
2305.00,0.2974
2304.00,0.2972
2303.00,0.2969
2302.00,0.2967
2301.00,0.2965
2300.00,0.2964
2299.00,0.2962
2298.00,0.2960
2297.00,0.2958
2296.00,0.2956
2295.00,0.2953
2294.00,0.2950
2293.00,0.2947
2292.00,0.2944
2291.00,0.2941
2290.00,0.2937
2289.00,0.2934
2288.00,0.2930
2287.00,0.2926
2286.00,0.2922
2285.00,0.2919
2284.00,0.2915
2283.00,0.2911
2282.00,0.2907
2281.00,0.2903
2280.00,0.2899
2279.00,0.2896
2278.00,0.2892
2277.00,0.2889
2276.00,0.2886
2275.00,0.2883
2274.00,0.2880
2273.00,0.2877
2272.00,0.2875
2271.00,0.2873
2270.00,0.2871
2269.00,0.2870
2268.00,0.2869
2267.00,0.2868
2266.00,0.2867
2265.00,0.2866
2264.00,0.2865
2263.00,0.2864
2262.00,0.2862
2261.00,0.2860
2260.00,0.2858
2259.00,0.2855
2258.00,0.2852
2257.00,0.2849
2256.00,0.2845
2255.00,0.2841
2254.00,0.2837
2253.00,0.2834
2252.00,0.2831
2251.00,0.2828
2250.00,0.2825
2249.00,0.2822
2248.00,0.2820
2247.00,0.2818
2246.00,0.2815
2245.00,0.2813
2244.00,0.2811
2243.00,0.2809
2242.00,0.2807
2241.00,0.2806
2240.00,0.2804
2239.00,0.2803
2238.00,0.2801
2237.00,0.2800
2236.00,0.2799
2235.00,0.2798
2234.00,0.2797
2233.00,0.2796
2232.00,0.2795
2231.00,0.2794
2230.00,0.2793
2229.00,0.2792
2228.00,0.2791
2227.00,0.2789
2226.00,0.2788
2225.00,0.2786
2224.00,0.2784
2223.00,0.2782
2222.00,0.2781
2221.00,0.2780
2220.00,0.2779
2219.00,0.2778
2218.00,0.2777
2217.00,0.2776
2216.00,0.2776
2215.00,0.2775
2214.00,0.2774
2213.00,0.2773
2212.00,0.2773
2211.00,0.2772
2210.00,0.2772
2209.00,0.2772
2208.00,0.2772
2207.00,0.2773
2206.00,0.2773
2205.00,0.2774
2204.00,0.2774
2203.00,0.2775
2202.00,0.2775
2201.00,0.2776
2200.00,0.2776
2199.00,0.2777
2198.00,0.2778
2197.00,0.2779
2196.00,0.2779
2195.00,0.2780
2194.00,0.2781
2193.00,0.2782
2192.00,0.2783
2191.00,0.2784
2190.00,0.2784
2189.00,0.2785
2188.00,0.2785
2187.00,0.2785
2186.00,0.2784
2185.00,0.2784
2184.00,0.2784
2183.00,0.2783
2182.00,0.2782
2181.00,0.2781
2180.00,0.2781
2179.00,0.2781
2178.00,0.2780
2177.00,0.2779
2176.00,0.2779
2175.00,0.2778
2174.00,0.2777
2173.00,0.2776
2172.00,0.2775
2171.00,0.2775
2170.00,0.2775
2169.00,0.2775
2168.00,0.2774
2167.00,0.2774
2166.00,0.2773
2165.00,0.2773
2164.00,0.2773
2163.00,0.2772
2162.00,0.2771
2161.00,0.2770
2160.00,0.2769
2159.00,0.2768
2158.00,0.2766
2157.00,0.2765
2156.00,0.2763
2155.00,0.2762
2154.00,0.2760
2153.00,0.2758
2152.00,0.2756
2151.00,0.2754
2150.00,0.2752
2149.00,0.2749
2148.00,0.2745
2147.00,0.2740
2146.00,0.2735
2145.00,0.2730
2144.00,0.2725
2143.00,0.2719
2142.00,0.2714
2141.00,0.2709
2140.00,0.2704
2139.00,0.2700
2138.00,0.2696
2137.00,0.2692
2136.00,0.2689
2135.00,0.2686
2134.00,0.2684
2133.00,0.2681
2132.00,0.2679
2131.00,0.2677
2130.00,0.2676
2129.00,0.2674
2128.00,0.2673
2127.00,0.2672
2126.00,0.2671
2125.00,0.2670
2124.00,0.2669
2123.00,0.2667
2122.00,0.2666
2121.00,0.2665
2120.00,0.2664
2119.00,0.2663
2118.00,0.2662
2117.00,0.2661
2116.00,0.2660
2115.00,0.2658
2114.00,0.2657
2113.00,0.2656
2112.00,0.2654
2111.00,0.2652
2110.00,0.2651
2109.00,0.2649
2108.00,0.2648
2107.00,0.2647
2106.00,0.2646
2105.00,0.2645
2104.00,0.2644
2103.00,0.2644
2102.00,0.2643
2101.00,0.2643
2100.00,0.2642
2099.00,0.2642
2098.00,0.2642
2097.00,0.2642
2096.00,0.2642
2095.00,0.2642
2094.00,0.2641
2093.00,0.2642
2092.00,0.2642
2091.00,0.2642
2090.00,0.2641
2089.00,0.2641
2088.00,0.2641
2087.00,0.2640
2086.00,0.2640
2085.00,0.2640
2084.00,0.2639
2083.00,0.2639
2082.00,0.2639
2081.00,0.2639
2080.00,0.2638
2079.00,0.2638
2078.00,0.2637
2077.00,0.2636
2076.00,0.2636
2075.00,0.2636
2074.00,0.2637
2073.00,0.2637
2072.00,0.2638
2071.00,0.2639
2070.00,0.2640
2069.00,0.2641
2068.00,0.2642
2067.00,0.2644
2066.00,0.2646
2065.00,0.2648
2064.00,0.2650
2063.00,0.2652
2062.00,0.2654
2061.00,0.2656
2060.00,0.2658
2059.00,0.2659
2058.00,0.2661
2057.00,0.2663
2056.00,0.2665
2055.00,0.2666
2054.00,0.2668
2053.00,0.2669
2052.00,0.2672
2051.00,0.2674
2050.00,0.2676
2049.00,0.2679
2048.00,0.2681
2047.00,0.2683
2046.00,0.2685
2045.00,0.2687
2044.00,0.2689
2043.00,0.2690
2042.00,0.2692
2041.00,0.2694
2040.00,0.2696
2039.00,0.2697
2038.00,0.2698
2037.00,0.2699
2036.00,0.2700
2035.00,0.2701
2034.00,0.2702
2033.00,0.2703
2032.00,0.2704
2031.00,0.2704
2030.00,0.2704
2029.00,0.2704
2028.00,0.2705
2027.00,0.2705
2026.00,0.2706
2025.00,0.2706
2024.00,0.2706
2023.00,0.2705
2022.00,0.2703
2021.00,0.2699
2020.00,0.2695
2019.00,0.2689
2018.00,0.2683
2017.00,0.2676
2016.00,0.2669
2015.00,0.2662
2014.00,0.2654
2013.00,0.2646
2012.00,0.2639
2011.00,0.2631
2010.00,0.2625
2009.00,0.2618
2008.00,0.2613
2007.00,0.2608
2006.00,0.2603
2005.00,0.2600
2004.00,0.2596
2003.00,0.2593
2002.00,0.2590
2001.00,0.2588
2000.00,0.2587
1999.00,0.2585
1998.00,0.2584
1997.00,0.2583
1996.00,0.2582
1995.00,0.2581
1994.00,0.2581
1993.00,0.2581
1992.00,0.2581
1991.00,0.2582
1990.00,0.2582
1989.00,0.2582
1988.00,0.2581
1987.00,0.2580
1986.00,0.2579
1985.00,0.2579
1984.00,0.2579
1983.00,0.2578
1982.00,0.2577
1981.00,0.2577
1980.00,0.2577
1979.00,0.2576
1978.00,0.2576
1977.00,0.2575
1976.00,0.2575
1975.00,0.2574
1974.00,0.2573
1973.00,0.2572
1972.00,0.2572
1971.00,0.2572
1970.00,0.2571
1969.00,0.2571
1968.00,0.2571
1967.00,0.2571
1966.00,0.2572
1965.00,0.2573
1964.00,0.2573
1963.00,0.2573
1962.00,0.2572
1961.00,0.2573
1960.00,0.2574
1959.00,0.2576
1958.00,0.2577
1957.00,0.2578
1956.00,0.2580
1955.00,0.2582
1954.00,0.2584
1953.00,0.2586
1952.00,0.2589
1951.00,0.2590
1950.00,0.2591
1949.00,0.2592
1948.00,0.2594
1947.00,0.2595
1946.00,0.2597
1945.00,0.2600
1944.00,0.2602
1943.00,0.2606
1942.00,0.2610
1941.00,0.2615
1940.00,0.2619
1939.00,0.2622
1938.00,0.2623
1937.00,0.2623
1936.00,0.2622
1935.00,0.2622
1934.00,0.2621
1933.00,0.2621
1932.00,0.2620
1931.00,0.2620
1930.00,0.2620
1929.00,0.2620
1928.00,0.2621
1927.00,0.2621
1926.00,0.2620
1925.00,0.2620
1924.00,0.2622
1923.00,0.2624
1922.00,0.2628
1921.00,0.2632
1920.00,0.2635
1919.00,0.2638
1918.00,0.2640
1917.00,0.2643
1916.00,0.2647
1915.00,0.2650
1914.00,0.2651
1913.00,0.2651
1912.00,0.2651
1911.00,0.2651
1910.00,0.2652
1909.00,0.2654
1908.00,0.2656
1907.00,0.2657
1906.00,0.2658
1905.00,0.2658
1904.00,0.2657
1903.00,0.2657
1902.00,0.2656
1901.00,0.2656
1900.00,0.2655
1899.00,0.2654
1898.00,0.2654
1897.00,0.2653
1896.00,0.2654
1895.00,0.2654
1894.00,0.2655
1893.00,0.2656
1892.00,0.2656
1891.00,0.2657
1890.00,0.2657
1889.00,0.2659
1888.00,0.2662
1887.00,0.2664
1886.00,0.2666
1885.00,0.2666
1884.00,0.2667
1883.00,0.2667
1882.00,0.2668
1881.00,0.2669
1880.00,0.2670
1879.00,0.2670
1878.00,0.2670
1877.00,0.2669
1876.00,0.2669
1875.00,0.2667
1874.00,0.2665
1873.00,0.2663
1872.00,0.2661
1871.00,0.2657
1870.00,0.2654
1869.00,0.2652
1868.00,0.2651
1867.00,0.2650
1866.00,0.2649
1865.00,0.2646
1864.00,0.2642
1863.00,0.2637
1862.00,0.2633
1861.00,0.2629
1860.00,0.2626
1859.00,0.2623
1858.00,0.2620
1857.00,0.2616
1856.00,0.2613
1855.00,0.2610
1854.00,0.2607
1853.00,0.2605
1852.00,0.2604
1851.00,0.2602
1850.00,0.2601
1849.00,0.2600
1848.00,0.2600
1847.00,0.2599
1846.00,0.2599
1845.00,0.2600
1844.00,0.2602
1843.00,0.2605
1842.00,0.2608
1841.00,0.2610
1840.00,0.2608
1839.00,0.2604
1838.00,0.2601
1837.00,0.2600
1836.00,0.2600
1835.00,0.2600
1834.00,0.2600
1833.00,0.2599
1832.00,0.2597
1831.00,0.2595
1830.00,0.2593
1829.00,0.2592
1828.00,0.2592
1827.00,0.2593
1826.00,0.2594
1825.00,0.2595
1824.00,0.2597
1823.00,0.2598
1822.00,0.2599
1821.00,0.2598
1820.00,0.2597
1819.00,0.2596
1818.00,0.2596
1817.00,0.2598
1816.00,0.2601
1815.00,0.2602
1814.00,0.2603
1813.00,0.2605
1812.00,0.2607
1811.00,0.2610
1810.00,0.2614
1809.00,0.2619
1808.00,0.2626
1807.00,0.2633
1806.00,0.2641
1805.00,0.2649
1804.00,0.2659
1803.00,0.2668
1802.00,0.2678
1801.00,0.2688
1800.00,0.2697
1799.00,0.2702
1798.00,0.2706
1797.00,0.2709
1796.00,0.2713
1795.00,0.2716
1794.00,0.2719
1793.00,0.2722
1792.00,0.2726
1791.00,0.2733
1790.00,0.2739
1789.00,0.2744
1788.00,0.2744
1787.00,0.2743
1786.00,0.2742
1785.00,0.2744
1784.00,0.2748
1783.00,0.2752
1782.00,0.2753
1781.00,0.2755
1780.00,0.2756
1779.00,0.2759
1778.00,0.2763
1777.00,0.2767
1776.00,0.2770
1775.00,0.2772
1774.00,0.2776
1773.00,0.2783
1772.00,0.2793
1771.00,0.2801
1770.00,0.2807
1769.00,0.2814
1768.00,0.2822
1767.00,0.2830
1766.00,0.2838
1765.00,0.2842
1764.00,0.2845
1763.00,0.2848
1762.00,0.2854
1761.00,0.2864
1760.00,0.2876
1759.00,0.2887
1758.00,0.2897
1757.00,0.2908
1756.00,0.2922
1755.00,0.2939
1754.00,0.2957
1753.00,0.2981
1752.00,0.3014
1751.00,0.3058
1750.00,0.3111
1749.00,0.3170
1748.00,0.3234
1747.00,0.3303
1746.00,0.3377
1745.00,0.3456
1744.00,0.3533
1743.00,0.3600
1742.00,0.3649
1741.00,0.3677
1740.00,0.3681
1739.00,0.3663
1738.00,0.3632
1737.00,0.3592
1736.00,0.3544
1735.00,0.3486
1734.00,0.3426
1733.00,0.3379
1732.00,0.3345
1731.00,0.3312
1730.00,0.3273
1729.00,0.3236
1728.00,0.3209
1727.00,0.3192
1726.00,0.3181
1725.00,0.3176
1724.00,0.3174
1723.00,0.3175
1722.00,0.3177
1721.00,0.3180
1720.00,0.3182
1719.00,0.3187
1718.00,0.3200
1717.00,0.3222
1716.00,0.3249
1715.00,0.3269
1714.00,0.3280
1713.00,0.3286
1712.00,0.3295
1711.00,0.3307
1710.00,0.3321
1709.00,0.3335
1708.00,0.3348
1707.00,0.3356
1706.00,0.3361
1705.00,0.3361
1704.00,0.3357
1703.00,0.3349
1702.00,0.3335
1701.00,0.3315
1700.00,0.3293
1699.00,0.3274
1698.00,0.3266
1697.00,0.3262
1696.00,0.3254
1695.00,0.3246
1694.00,0.3239
1693.00,0.3228
1692.00,0.3211
1691.00,0.3192
1690.00,0.3179
1689.00,0.3175
1688.00,0.3174
1687.00,0.3174
1686.00,0.3176
1685.00,0.3184
1684.00,0.3192
1683.00,0.3197
1682.00,0.3198
1681.00,0.3196
1680.00,0.3192
1679.00,0.3188
1678.00,0.3188
1677.00,0.3190
1676.00,0.3195
1675.00,0.3203
1674.00,0.3214
1673.00,0.3226
1672.00,0.3236
1671.00,0.3241
1670.00,0.3247
1669.00,0.3259
1668.00,0.3278
1667.00,0.3297
1666.00,0.3313
1665.00,0.3325
1664.00,0.3337
1663.00,0.3352
1662.00,0.3370
1661.00,0.3394
1660.00,0.3420
1659.00,0.3444
1658.00,0.3466
1657.00,0.3486
1656.00,0.3508
1655.00,0.3535
1654.00,0.3578
1653.00,0.3638
1652.00,0.3697
1651.00,0.3743
1650.00,0.3768
1649.00,0.3773
1648.00,0.3778
1647.00,0.3803
1646.00,0.3847
1645.00,0.3900
1644.00,0.3951
1643.00,0.3990
1642.00,0.4022
1641.00,0.4052
1640.00,0.4086
1639.00,0.4118
1638.00,0.4150
1637.00,0.4188
1636.00,0.4235
1635.00,0.4285
1634.00,0.4331
1633.00,0.4375
1632.00,0.4415
1631.00,0.4449
1630.00,0.4485
1629.00,0.4530
1628.00,0.4581
1627.00,0.4634
1626.00,0.4691
1625.00,0.4755
1624.00,0.4830
1623.00,0.4911
1622.00,0.4999
1621.00,0.5093
1620.00,0.5190
1619.00,0.5292
1618.00,0.5415
1617.00,0.5572
1616.00,0.5754
1615.00,0.5937
1614.00,0.6114
1613.00,0.6303
1612.00,0.6517
1611.00,0.6755
1610.00,0.7001
1609.00,0.7246
1608.00,0.7474
1607.00,0.7670
1606.00,0.7837
1605.00,0.7998
1604.00,0.8174
1603.00,0.8376
1602.00,0.8617
1601.00,0.8919
1600.00,0.9295
1599.00,0.9745
1598.00,1.0278
1597.00,1.0936
1596.00,1.1757
1595.00,1.2756
1594.00,1.3946
1593.00,1.5390
1592.00,1.7174
1591.00,1.9303
1590.00,2.1699
1589.00,2.4484
1588.00,2.8102
1587.00,3.2297
1586.00,3.3900
1585.00,3.4665
1584.00,3.8368
1583.00,3.8112
1582.00,3.8079
1581.00,3.7782
1580.00,3.9809
1579.00,3.4150
1578.00,2.7744
1577.00,2.3786
1576.00,2.0953
1575.00,1.8813
1574.00,1.7258
1573.00,1.6171
1572.00,1.5413
1571.00,1.4912
1570.00,1.4704
1569.00,1.4871
1568.00,1.5429
1567.00,1.6332
1566.00,1.7585
1565.00,1.9307
1564.00,2.1606
1563.00,2.4254
1562.00,2.6483
1561.00,2.7663
1560.00,2.6650
1559.00,2.3103
1558.00,1.9833
1557.00,1.7533
1556.00,1.5704
1555.00,1.4050
1554.00,1.2629
1553.00,1.1544
1552.00,1.0760
1551.00,1.0173
1550.00,0.9728
1549.00,0.9426
1548.00,0.9259
1547.00,0.9196
1546.00,0.9209
1545.00,0.9294
1544.00,0.9440
1543.00,0.9611
1542.00,0.9764
1541.00,0.9862
1540.00,0.9858
1539.00,0.9732
1538.00,0.9527
1537.00,0.9293
1536.00,0.9027
1535.00,0.8712
1534.00,0.8364
1533.00,0.8038
1532.00,0.7779
1531.00,0.7581
1530.00,0.7424
1529.00,0.7300
1528.00,0.7199
1527.00,0.7113
1526.00,0.7038
1525.00,0.6983
1524.00,0.6952
1523.00,0.6947
1522.00,0.6980
1521.00,0.7062
1520.00,0.7175
1519.00,0.7283
1518.00,0.7374
1517.00,0.7445
1516.00,0.7476
1515.00,0.7440
1514.00,0.7326
1513.00,0.7148
1512.00,0.6931
1511.00,0.6707
1510.00,0.6506
1509.00,0.6341
1508.00,0.6212
1507.00,0.6118
1506.00,0.6066
1505.00,0.6052
1504.00,0.6063
1503.00,0.6076
1502.00,0.6089
1501.00,0.6114
1500.00,0.6158
1499.00,0.6216
1498.00,0.6290
1497.00,0.6392
1496.00,0.6519
1495.00,0.6651
1494.00,0.6776
1493.00,0.6903
1492.00,0.7044
1491.00,0.7207
1490.00,0.7392
1489.00,0.7601
1488.00,0.7825
1487.00,0.8058
1486.00,0.8311
1485.00,0.8597
1484.00,0.8921
1483.00,0.9284
1482.00,0.9700
1481.00,1.0184
1480.00,1.0735
1479.00,1.1354
1478.00,1.2072
1477.00,1.2940
1476.00,1.3980
1475.00,1.5199
1474.00,1.6681
1473.00,1.8612
1472.00,2.1135
1471.00,2.4187
1470.00,2.7678
1469.00,3.2033
1468.00,3.8072
1467.00,4.1123
1466.00,4.4606
1465.00,4.1277
1464.00,3.8071
1463.00,3.7575
1462.00,3.8078
1461.00,3.7905
1460.00,3.7008
1459.00,3.7616
1458.00,3.8791
1457.00,3.8971
1456.00,3.8361
1455.00,3.6830
1454.00,3.6509
1453.00,3.9485
1452.00,4.3203
1451.00,3.9665
1450.00,3.9160
1449.00,3.7533
1448.00,3.6859
1447.00,3.8018
1446.00,3.9940
1445.00,4.2895
1444.00,4.5313
1443.00,4.0088
1442.00,3.5151
1441.00,3.3168
1440.00,3.1221
1439.00,2.8911
1438.00,2.6697
1437.00,2.4678
1436.00,2.2783
1435.00,2.1075
1434.00,1.9588
1433.00,1.8235
1432.00,1.6949
1431.00,1.5746
1430.00,1.4679
1429.00,1.3777
1428.00,1.3038
1427.00,1.2447
1426.00,1.1976
1425.00,1.1598
1424.00,1.1301
1423.00,1.1080
1422.00,1.0921
1421.00,1.0807
1420.00,1.0734
1419.00,1.0707
1418.00,1.0729
1417.00,1.0798
1416.00,1.0913
1415.00,1.1068
1414.00,1.1249
1413.00,1.1433
1412.00,1.1588
1411.00,1.1681
1410.00,1.1685
1409.00,1.1593
1408.00,1.1412
1407.00,1.1149
1406.00,1.0814
1405.00,1.0428
1404.00,1.0020
1403.00,0.9626
1402.00,0.9266
1401.00,0.8940
1400.00,0.8653
1399.00,0.8417
1398.00,0.8240
1397.00,0.8117
1396.00,0.8033
1395.00,0.7978
1394.00,0.7950
1393.00,0.7955
1392.00,0.8011
1391.00,0.8140
1390.00,0.8364
1389.00,0.8714
1388.00,0.9228
1387.00,0.9918
1386.00,1.0745
1385.00,1.1658
1384.00,1.2644
1383.00,1.3736
1382.00,1.4977
1381.00,1.6408
1380.00,1.8039
1379.00,1.9717
1378.00,2.0981
1377.00,2.1310
1376.00,2.0665
1375.00,1.9408
1374.00,1.7950
1373.00,1.6603
1372.00,1.5506
1371.00,1.4668
1370.00,1.4069
1369.00,1.3689
1368.00,1.3482
1367.00,1.3343
1366.00,1.3126
1365.00,1.2721
1364.00,1.2123
1363.00,1.1426
1362.00,1.0761
1361.00,1.0207
1360.00,0.9779
1359.00,0.9456
1358.00,0.9217
1357.00,0.9052
1356.00,0.8952
1355.00,0.8906
1354.00,0.8901
1353.00,0.8923
1352.00,0.8961
1351.00,0.9013
1350.00,0.9086
1349.00,0.9197
1348.00,0.9364
1347.00,0.9587
1346.00,0.9827
1345.00,1.0011
1344.00,1.0057
1343.00,0.9933
1342.00,0.9671
1341.00,0.9340
1340.00,0.8999
1339.00,0.8678
1338.00,0.8382
1337.00,0.8111
1336.00,0.7864
1335.00,0.7645
1334.00,0.7456
1333.00,0.7299
1332.00,0.7175
1331.00,0.7084
1330.00,0.7026
1329.00,0.6998
1328.00,0.6996
1327.00,0.7013
1326.00,0.7038
1325.00,0.7064
1324.00,0.7085
1323.00,0.7102
1322.00,0.7120
1321.00,0.7144
1320.00,0.7177
1319.00,0.7220
1318.00,0.7270
1317.00,0.7325
1316.00,0.7383
1315.00,0.7447
1314.00,0.7515
1313.00,0.7589
1312.00,0.7668
1311.00,0.7748
1310.00,0.7826
1309.00,0.7897
1308.00,0.7955
1307.00,0.7990
1306.00,0.7996
1305.00,0.7975
1304.00,0.7940
1303.00,0.7901
1302.00,0.7867
1301.00,0.7842
1300.00,0.7824
1299.00,0.7805
1298.00,0.7775
1297.00,0.7728
1296.00,0.7668
1295.00,0.7600
1294.00,0.7529
1293.00,0.7453
1292.00,0.7369
1291.00,0.7271
1290.00,0.7161
1289.00,0.7045
1288.00,0.6935
1287.00,0.6838
1286.00,0.6754
1285.00,0.6685
1284.00,0.6635
1283.00,0.6613
1282.00,0.6626
1281.00,0.6676
1280.00,0.6750
1279.00,0.6820
1278.00,0.6847
1277.00,0.6807
1276.00,0.6703
1275.00,0.6564
1274.00,0.6423
1273.00,0.6303
1272.00,0.6211
1271.00,0.6146
1270.00,0.6100
1269.00,0.6064
1268.00,0.6030
1267.00,0.5992
1266.00,0.5949
1265.00,0.5904
1264.00,0.5862
1263.00,0.5828
1262.00,0.5802
1261.00,0.5785
1260.00,0.5778
1259.00,0.5781
1258.00,0.5794
1257.00,0.5814
1256.00,0.5838
1255.00,0.5868
1254.00,0.5901
1253.00,0.5930
1252.00,0.5950
1251.00,0.5956
1250.00,0.5947
1249.00,0.5926
1248.00,0.5898
1247.00,0.5865
1246.00,0.5829
1245.00,0.5791
1244.00,0.5753
1243.00,0.5720
1242.00,0.5690
1241.00,0.5659
1240.00,0.5627
1239.00,0.5600
1238.00,0.5585
1237.00,0.5591
1236.00,0.5623
1235.00,0.5680
1234.00,0.5754
1233.00,0.5833
1232.00,0.5903
1231.00,0.5951
1230.00,0.5965
1229.00,0.5936
1228.00,0.5865
1227.00,0.5761
1226.00,0.5639
1225.00,0.5512
1224.00,0.5394
1223.00,0.5293
1222.00,0.5211
1221.00,0.5147
1220.00,0.5098
1219.00,0.5065
1218.00,0.5045
1217.00,0.5036
1216.00,0.5037
1215.00,0.5046
1214.00,0.5059
1213.00,0.5069
1212.00,0.5073
1211.00,0.5068
1210.00,0.5052
1209.00,0.5023
1208.00,0.4985
1207.00,0.4943
1206.00,0.4907
1205.00,0.4884
1204.00,0.4880
1203.00,0.4899
1202.00,0.4941
1201.00,0.4996
1200.00,0.5047
1199.00,0.5072
1198.00,0.5066
1197.00,0.5036
1196.00,0.5005
1195.00,0.4992
1194.00,0.5004
1193.00,0.5038
1192.00,0.5086
1191.00,0.5133
1190.00,0.5163
1189.00,0.5167
1188.00,0.5143
1187.00,0.5102
1186.00,0.5056
1185.00,0.5015
1184.00,0.4980
1183.00,0.4953
1182.00,0.4930
1181.00,0.4910
1180.00,0.4892
1179.00,0.4880
1178.00,0.4872
1177.00,0.4870
1176.00,0.4877
1175.00,0.4894
1174.00,0.4921
1173.00,0.4957
1172.00,0.4997
1171.00,0.5037
1170.00,0.5071
1169.00,0.5093
1168.00,0.5105
1167.00,0.5111
1166.00,0.5114
1165.00,0.5119
1164.00,0.5126
1163.00,0.5136
1162.00,0.5149
1161.00,0.5162
1160.00,0.5171
1159.00,0.5178
1158.00,0.5182
1157.00,0.5182
1156.00,0.5181
1155.00,0.5180
1154.00,0.5179
1153.00,0.5176
1152.00,0.5170
1151.00,0.5160
1150.00,0.5147
1149.00,0.5130
1148.00,0.5112
1147.00,0.5093
1146.00,0.5076
1145.00,0.5060
1144.00,0.5051
1143.00,0.5049
1142.00,0.5058
1141.00,0.5076
1140.00,0.5108
1139.00,0.5154
1138.00,0.5214
1137.00,0.5288
1136.00,0.5371
1135.00,0.5456
1134.00,0.5524
1133.00,0.5553
1132.00,0.5532
1131.00,0.5468
1130.00,0.5383
1129.00,0.5307
1128.00,0.5260
1127.00,0.5250
1126.00,0.5262
1125.00,0.5275
1124.00,0.5267
1123.00,0.5233
1122.00,0.5182
1121.00,0.5129
1120.00,0.5089
1119.00,0.5071
1118.00,0.5078
1117.00,0.5103
1116.00,0.5136
1115.00,0.5162
1114.00,0.5163
1113.00,0.5129
1112.00,0.5062
1111.00,0.4975
1110.00,0.4886
1109.00,0.4808
1108.00,0.4750
1107.00,0.4715
1106.00,0.4706
1105.00,0.4722
1104.00,0.4760
1103.00,0.4817
1102.00,0.4886
1101.00,0.4956
1100.00,0.5012
1099.00,0.5040
1098.00,0.5032
1097.00,0.4994
1096.00,0.4943
1095.00,0.4893
1094.00,0.4854
1093.00,0.4824
1092.00,0.4799
1091.00,0.4776
1090.00,0.4755
1089.00,0.4739
1088.00,0.4732
1087.00,0.4739
1086.00,0.4761
1085.00,0.4795
1084.00,0.4842
1083.00,0.4903
1082.00,0.4974
1081.00,0.5050
1080.00,0.5124
1079.00,0.5188
1078.00,0.5232
1077.00,0.5246
1076.00,0.5225
1075.00,0.5172
1074.00,0.5096
1073.00,0.5010
1072.00,0.4926
1071.00,0.4852
1070.00,0.4791
1069.00,0.4741
1068.00,0.4699
1067.00,0.4664
1066.00,0.4633
1065.00,0.4607
1064.00,0.4584
1063.00,0.4565
1062.00,0.4549
1061.00,0.4535
1060.00,0.4520
1059.00,0.4504
1058.00,0.4483
1057.00,0.4458
1056.00,0.4430
1055.00,0.4402
1054.00,0.4374
1053.00,0.4348
1052.00,0.4325
1051.00,0.4307
1050.00,0.4295
1049.00,0.4288
1048.00,0.4286
1047.00,0.4287
1046.00,0.4291
1045.00,0.4294
1044.00,0.4294
1043.00,0.4293
1042.00,0.4293
1041.00,0.4295
1040.00,0.4298
1039.00,0.4304
1038.00,0.4313
1037.00,0.4323
1036.00,0.4336
1035.00,0.4356
1034.00,0.4384
1033.00,0.4419
1032.00,0.4462
1031.00,0.4510
1030.00,0.4559
1029.00,0.4601
1028.00,0.4627
1027.00,0.4628
1026.00,0.4601
1025.00,0.4551
1024.00,0.4486
1023.00,0.4417
1022.00,0.4353
1021.00,0.4299
1020.00,0.4258
1019.00,0.4229
1018.00,0.4211
1017.00,0.4201
1016.00,0.4195
1015.00,0.4192
1014.00,0.4190
1013.00,0.4185
1012.00,0.4176
1011.00,0.4165
1010.00,0.4159
1009.00,0.4160
1008.00,0.4169
1007.00,0.4184
1006.00,0.4200
1005.00,0.4214
1004.00,0.4225
1003.00,0.4235
1002.00,0.4244
1001.00,0.4255
1000.00,0.4264
999.00,0.4272
998.00,0.4274
997.00,0.4270
996.00,0.4259
995.00,0.4246
994.00,0.4232
993.00,0.4218
992.00,0.4205
991.00,0.4195
990.00,0.4188
989.00,0.4180
988.00,0.4168
987.00,0.4154
986.00,0.4141
985.00,0.4137
984.00,0.4144
983.00,0.4165
982.00,0.4199
981.00,0.4245
980.00,0.4302
979.00,0.4374
978.00,0.4470
977.00,0.4601
976.00,0.4783
975.00,0.5035
974.00,0.5375
973.00,0.5825
972.00,0.6401
971.00,0.7097
970.00,0.7858
969.00,0.8546
968.00,0.8946
967.00,0.8890
966.00,0.8410
965.00,0.7700
964.00,0.6957
963.00,0.6296
962.00,0.5769
961.00,0.5394
960.00,0.5170
959.00,0.5077
958.00,0.5078
957.00,0.5120
956.00,0.5149
955.00,0.5129
954.00,0.5048
953.00,0.4920
952.00,0.4768
951.00,0.4619
950.00,0.4490
949.00,0.4391
948.00,0.4323
947.00,0.4286
946.00,0.4275
945.00,0.4286
944.00,0.4312
943.00,0.4348
942.00,0.4388
941.00,0.4426
940.00,0.4457
939.00,0.4476
938.00,0.4482
937.00,0.4475
936.00,0.4459
935.00,0.4437
934.00,0.4411
933.00,0.4380
932.00,0.4344
931.00,0.4306
930.00,0.4269
929.00,0.4236
928.00,0.4212
927.00,0.4200
926.00,0.4204
925.00,0.4228
924.00,0.4270
923.00,0.4326
922.00,0.4383
921.00,0.4421
920.00,0.4423
919.00,0.4380
918.00,0.4303
917.00,0.4209
916.00,0.4116
915.00,0.4035
914.00,0.3971
913.00,0.3923
912.00,0.3889
911.00,0.3868
910.00,0.3859
909.00,0.3860
908.00,0.3875
907.00,0.3906
906.00,0.3953
905.00,0.4006
904.00,0.4049
903.00,0.4064
902.00,0.4045
901.00,0.4007
900.00,0.3970
899.00,0.3949
898.00,0.3948
897.00,0.3960
896.00,0.3981
895.00,0.4011
894.00,0.4051
893.00,0.4097
892.00,0.4146
891.00,0.4193
890.00,0.4233
889.00,0.4257
888.00,0.4259
887.00,0.4240
886.00,0.4205
885.00,0.4163
884.00,0.4124
883.00,0.4092
882.00,0.4071
881.00,0.4056
880.00,0.4047
879.00,0.4042
878.00,0.4040
877.00,0.4041
876.00,0.4045
875.00,0.4052
874.00,0.4061
873.00,0.4067
872.00,0.4072
871.00,0.4079
870.00,0.4088
869.00,0.4099
868.00,0.4114
867.00,0.4136
866.00,0.4172
865.00,0.4219
864.00,0.4273
863.00,0.4320
862.00,0.4342
861.00,0.4327
860.00,0.4276
859.00,0.4199
858.00,0.4117
857.00,0.4042
856.00,0.3983
855.00,0.3942
854.00,0.3915
853.00,0.3898
852.00,0.3887
851.00,0.3879
850.00,0.3873
849.00,0.3867
848.00,0.3859
847.00,0.3850
846.00,0.3839
845.00,0.3829
844.00,0.3825
843.00,0.3831
842.00,0.3851
841.00,0.3893
840.00,0.3960
839.00,0.4053
838.00,0.4159
837.00,0.4256
836.00,0.4314
835.00,0.4319
834.00,0.4277
833.00,0.4211
832.00,0.4149
831.00,0.4112
830.00,0.4107
829.00,0.4131
828.00,0.4178
827.00,0.4239
826.00,0.4308
825.00,0.4384
824.00,0.4465
823.00,0.4545
822.00,0.4614
821.00,0.4657
820.00,0.4668
819.00,0.4648
818.00,0.4603
817.00,0.4546
816.00,0.4489
815.00,0.4439
814.00,0.4394
813.00,0.4350
812.00,0.4304
811.00,0.4256
810.00,0.4207
809.00,0.4159
808.00,0.4113
807.00,0.4069
806.00,0.4027
805.00,0.3987
804.00,0.3947
803.00,0.3910
802.00,0.3875
801.00,0.3846
800.00,0.3825
799.00,0.3811
798.00,0.3804
797.00,0.3799
796.00,0.3796
795.00,0.3796
794.00,0.3801
793.00,0.3810
792.00,0.3822
791.00,0.3838
790.00,0.3854
789.00,0.3870
788.00,0.3884
787.00,0.3901
786.00,0.3928
785.00,0.3967
784.00,0.4021
783.00,0.4092
782.00,0.4180
781.00,0.4285
780.00,0.4401
779.00,0.4510
778.00,0.4588
777.00,0.4611
776.00,0.4576
775.00,0.4506
774.00,0.4431
773.00,0.4375
772.00,0.4347
771.00,0.4345
770.00,0.4359
769.00,0.4382
768.00,0.4406
767.00,0.4429
766.00,0.4448
765.00,0.4462
764.00,0.4474
763.00,0.4492
762.00,0.4519
761.00,0.4556
760.00,0.4598
759.00,0.4637
758.00,0.4667
757.00,0.4688
756.00,0.4702
755.00,0.4718
754.00,0.4744
753.00,0.4781
752.00,0.4827
751.00,0.4877
750.00,0.4930
749.00,0.4985
748.00,0.5046
747.00,0.5111
746.00,0.5182
745.00,0.5260
744.00,0.5347
743.00,0.5442
742.00,0.5546
741.00,0.5655
740.00,0.5767
739.00,0.5883
738.00,0.6005
737.00,0.6133
736.00,0.6263
735.00,0.6394
734.00,0.6525
733.00,0.6659
732.00,0.6801
731.00,0.6964
730.00,0.7161
729.00,0.7404
728.00,0.7703
727.00,0.8076
726.00,0.8537
725.00,0.9085
724.00,0.9679
723.00,1.0214
722.00,1.0526
721.00,1.0474
720.00,1.0061
719.00,0.9445
718.00,0.8799
717.00,0.8224
716.00,0.7755
715.00,0.7393
714.00,0.7117
713.00,0.6901
712.00,0.6719
711.00,0.6551
710.00,0.6384
709.00,0.6212
708.00,0.6036
707.00,0.5865
706.00,0.5701
705.00,0.5544
704.00,0.5394
703.00,0.5255
702.00,0.5131
701.00,0.5020
700.00,0.4913
699.00,0.4803
698.00,0.4684
697.00,0.4557
696.00,0.4432
695.00,0.4321
694.00,0.4229
693.00,0.4153
692.00,0.4089
691.00,0.4036
690.00,0.3993
689.00,0.3957
688.00,0.3922
687.00,0.3890
686.00,0.3861
685.00,0.3838
684.00,0.3820
683.00,0.3806
682.00,0.3794
681.00,0.3782
680.00,0.3769
679.00,0.3757
678.00,0.3748
677.00,0.3743
676.00,0.3738
675.00,0.3733
674.00,0.3728
673.00,0.3728
672.00,0.3731
671.00,0.3736
670.00,0.3738
669.00,0.3742
668.00,0.3749
667.00,0.3756
666.00,0.3768
665.00,0.3782
664.00,0.3792
663.00,0.3800
662.00,0.3811
661.00,0.3823
660.00,0.3833
659.00,0.3842
658.00,0.3850
657.00,0.3856
656.00,0.3861
655.00,0.3866
654.00,0.3872
653.00,0.3879
652.00,0.3887
651.00,0.3896
650.00,0.3906
649.00,0.3915
648.00,0.3922
647.00,0.3930
646.00,0.3944
645.00,0.3964
644.00,0.3988
643.00,0.4015
642.00,0.4044
641.00,0.4072
640.00,0.4098
639.00,0.4122
638.00,0.4143
637.00,0.4158
636.00,0.4168
635.00,0.4175
634.00,0.4183
633.00,0.4194
632.00,0.4209
631.00,0.4227
630.00,0.4246
629.00,0.4266
628.00,0.4290
627.00,0.4317
626.00,0.4349
625.00,0.4383
624.00,0.4416
623.00,0.4445
622.00,0.4469
621.00,0.4486
620.00,0.4497
619.00,0.4504
618.00,0.4508
617.00,0.4511
616.00,0.4512
615.00,0.4507
614.00,0.4499
613.00,0.4488
612.00,0.4477
611.00,0.4469
610.00,0.4466
609.00,0.4466
608.00,0.4468
607.00,0.4469
606.00,0.4469
605.00,0.4467
604.00,0.4464
603.00,0.4458
602.00,0.4451
601.00,0.4441
600.00,0.4430
599.00,0.4422
598.00,0.4417
597.00,0.4416
596.00,0.4418
595.00,0.4423
594.00,0.4429
593.00,0.4434
592.00,0.4439
591.00,0.4443
590.00,0.4450
589.00,0.4462
588.00,0.4482
587.00,0.4508
586.00,0.4539
585.00,0.4574
584.00,0.4610
583.00,0.4643
582.00,0.4672
581.00,0.4698
580.00,0.4724
579.00,0.4748
578.00,0.4769
577.00,0.4787
576.00,0.4806
575.00,0.4827
574.00,0.4848
573.00,0.4868
572.00,0.4890
571.00,0.4918
570.00,0.4951
569.00,0.4985
568.00,0.5017
567.00,0.5046
566.00,0.5072
565.00,0.5098
564.00,0.5129
563.00,0.5163
562.00,0.5199
561.00,0.5233
560.00,0.5266
559.00,0.5301
558.00,0.5336
557.00,0.5372
556.00,0.5409
555.00,0.5449
554.00,0.5494
553.00,0.5545
552.00,0.5602
551.00,0.5661
550.00,0.5718
