Created as New Dataset,
cm-1,A
4000.00,0.3457
3999.00,0.3454
3998.00,0.3451
3997.00,0.3447
3996.00,0.3443
3995.00,0.3439
3994.00,0.3436
3993.00,0.3432
3992.00,0.3428
3991.00,0.3424
3990.00,0.3419
3989.00,0.3415
3988.00,0.3411
3987.00,0.3407
3986.00,0.3403
3985.00,0.3400
3984.00,0.3396
3983.00,0.3392
3982.00,0.3389
3981.00,0.3385
3980.00,0.3382
3979.00,0.3379
3978.00,0.3376
3977.00,0.3374
3976.00,0.3372
3975.00,0.3370
3974.00,0.3368
3973.00,0.3367
3972.00,0.3365
3971.00,0.3362
3970.00,0.3360
3969.00,0.3358
3968.00,0.3355
3967.00,0.3353
3966.00,0.3351
3965.00,0.3348
3964.00,0.3346
3963.00,0.3344
3962.00,0.3342
3961.00,0.3340
3960.00,0.3339
3959.00,0.3337
3958.00,0.3335
3957.00,0.3333
3956.00,0.3330
3955.00,0.3328
3954.00,0.3327
3953.00,0.3325
3952.00,0.3324
3951.00,0.3322
3950.00,0.3321
3949.00,0.3320
3948.00,0.3319
3947.00,0.3318
3946.00,0.3317
3945.00,0.3315
3944.00,0.3314
3943.00,0.3312
3942.00,0.3311
3941.00,0.3310
3940.00,0.3310
3939.00,0.3309
3938.00,0.3309
3937.00,0.3309
3936.00,0.3309
3935.00,0.3308
3934.00,0.3307
3933.00,0.3306
3932.00,0.3306
3931.00,0.3306
3930.00,0.3306
3929.00,0.3306
3928.00,0.3306
3927.00,0.3306
3926.00,0.3306
3925.00,0.3306
3924.00,0.3305
3923.00,0.3304
3922.00,0.3302
3921.00,0.3301
3920.00,0.3301
3919.00,0.3301
3918.00,0.3300
3917.00,0.3300
3916.00,0.3299
3915.00,0.3299
3914.00,0.3298
3913.00,0.3296
3912.00,0.3296
3911.00,0.3296
3910.00,0.3296
3909.00,0.3296
3908.00,0.3296
3907.00,0.3296
3906.00,0.3295
3905.00,0.3295
3904.00,0.3296
3903.00,0.3296
3902.00,0.3296
3901.00,0.3296
3900.00,0.3296
3899.00,0.3295
3898.00,0.3294
3897.00,0.3293
3896.00,0.3292
3895.00,0.3291
3894.00,0.3290
3893.00,0.3289
3892.00,0.3288
3891.00,0.3287
3890.00,0.3287
3889.00,0.3285
3888.00,0.3284
3887.00,0.3283
3886.00,0.3283
3885.00,0.3284
3884.00,0.3284
3883.00,0.3283
3882.00,0.3281
3881.00,0.3280
3880.00,0.3280
3879.00,0.3280
3878.00,0.3279
3877.00,0.3278
3876.00,0.3277
3875.00,0.3277
3874.00,0.3277
3873.00,0.3277
3872.00,0.3275
3871.00,0.3273
3870.00,0.3272
3869.00,0.3271
3868.00,0.3270
3867.00,0.3269
3866.00,0.3267
3865.00,0.3266
3864.00,0.3266
3863.00,0.3265
3862.00,0.3263
3861.00,0.3262
3860.00,0.3261
3859.00,0.3261
3858.00,0.3260
3857.00,0.3258
3856.00,0.3257
3855.00,0.3255
3854.00,0.3254
3853.00,0.3253
3852.00,0.3253
3851.00,0.3252
3850.00,0.3250
3849.00,0.3250
3848.00,0.3250
3847.00,0.3250
3846.00,0.3251
3845.00,0.3251
3844.00,0.3251
3843.00,0.3251
3842.00,0.3251
3841.00,0.3251
3840.00,0.3250
3839.00,0.3249
3838.00,0.3249
3837.00,0.3249
3836.00,0.3249
3835.00,0.3249
3834.00,0.3248
3833.00,0.3248
3832.00,0.3247
3831.00,0.3245
3830.00,0.3243
3829.00,0.3242
3828.00,0.3240
3827.00,0.3239
3826.00,0.3239
3825.00,0.3239
3824.00,0.3238
3823.00,0.3237
3822.00,0.3235
3821.00,0.3234
3820.00,0.3233
3819.00,0.3230
3818.00,0.3227
3817.00,0.3224
3816.00,0.3222
3815.00,0.3221
3814.00,0.3219
3813.00,0.3217
3812.00,0.3214
3811.00,0.3213
3810.00,0.3212
3809.00,0.3211
3808.00,0.3210
3807.00,0.3209
3806.00,0.3209
3805.00,0.3208
3804.00,0.3206
3803.00,0.3204
3802.00,0.3203
3801.00,0.3203
3800.00,0.3202
3799.00,0.3200
3798.00,0.3197
3797.00,0.3195
3796.00,0.3194
3795.00,0.3192
3794.00,0.3190
3793.00,0.3187
3792.00,0.3185
3791.00,0.3183
3790.00,0.3181
3789.00,0.3179
3788.00,0.3177
3787.00,0.3175
3786.00,0.3173
3785.00,0.3172
3784.00,0.3170
3783.00,0.3169
3782.00,0.3167
3781.00,0.3166
3780.00,0.3164
3779.00,0.3163
3778.00,0.3161
3777.00,0.3159
3776.00,0.3158
3775.00,0.3157
3774.00,0.3156
3773.00,0.3155
3772.00,0.3154
3771.00,0.3152
3770.00,0.3151
3769.00,0.3150
3768.00,0.3149
3767.00,0.3147
3766.00,0.3146
3765.00,0.3145
3764.00,0.3144
3763.00,0.3143
3762.00,0.3142
3761.00,0.3141
3760.00,0.3139
3759.00,0.3137
3758.00,0.3135
3757.00,0.3133
3756.00,0.3131
3755.00,0.3130
3754.00,0.3128
3753.00,0.3127
3752.00,0.3125
3751.00,0.3122
3750.00,0.3120
3749.00,0.3119
3748.00,0.3117
3747.00,0.3116
3746.00,0.3113
3745.00,0.3112
3744.00,0.3112
3743.00,0.3111
3742.00,0.3110
3741.00,0.3109
3740.00,0.3109
3739.00,0.3109
3738.00,0.3109
3737.00,0.3109
3736.00,0.3109
3735.00,0.3109
3734.00,0.3108
3733.00,0.3108
3732.00,0.3107
3731.00,0.3107
3730.00,0.3106
3729.00,0.3104
3728.00,0.3102
3727.00,0.3100
3726.00,0.3098
3725.00,0.3097
3724.00,0.3095
3723.00,0.3092
3722.00,0.3090
3721.00,0.3089
3720.00,0.3087
3719.00,0.3084
3718.00,0.3082
3717.00,0.3080
3716.00,0.3079
3715.00,0.3079
3714.00,0.3078
3713.00,0.3077
3712.00,0.3077
3711.00,0.3076
3710.00,0.3076
3709.00,0.3076
3708.00,0.3077
3707.00,0.3077
3706.00,0.3077
3705.00,0.3077
3704.00,0.3077
3703.00,0.3077
3702.00,0.3076
3701.00,0.3076
3700.00,0.3076
3699.00,0.3076
3698.00,0.3077
3697.00,0.3079
3696.00,0.3080
3695.00,0.3081
3694.00,0.3081
3693.00,0.3081
3692.00,0.3081
3691.00,0.3081
3690.00,0.3080
3689.00,0.3080
3688.00,0.3081
3687.00,0.3081
3686.00,0.3080
3685.00,0.3079
3684.00,0.3078
3683.00,0.3077
3682.00,0.3076
3681.00,0.3076
3680.00,0.3075
3679.00,0.3075
3678.00,0.3074
3677.00,0.3073
3676.00,0.3073
3675.00,0.3073
3674.00,0.3074
3673.00,0.3073
3672.00,0.3073
3671.00,0.3073
3670.00,0.3074
3669.00,0.3075
3668.00,0.3075
3667.00,0.3076
3666.00,0.3077
3665.00,0.3079
3664.00,0.3080
3663.00,0.3081
3662.00,0.3083
3661.00,0.3086
3660.00,0.3088
3659.00,0.3090
3658.00,0.3092
3657.00,0.3094
3656.00,0.3096
3655.00,0.3100
3654.00,0.3102
3653.00,0.3104
3652.00,0.3106
3651.00,0.3109
3650.00,0.3111
3649.00,0.3113
3648.00,0.3115
3647.00,0.3117
3646.00,0.3119
3645.00,0.3121
3644.00,0.3123
3643.00,0.3125
3642.00,0.3129
3641.00,0.3132
3640.00,0.3137
3639.00,0.3141
3638.00,0.3146
3637.00,0.3152
3636.00,0.3159
3635.00,0.3166
3634.00,0.3174
3633.00,0.3182
3632.00,0.3191
3631.00,0.3200
3630.00,0.3212
3629.00,0.3227
3628.00,0.3243
3627.00,0.3257
3626.00,0.3268
3625.00,0.3277
3624.00,0.3282
3623.00,0.3283
3622.00,0.3278
3621.00,0.3270
3620.00,0.3258
3619.00,0.3245
3618.00,0.3233
3617.00,0.3223
3616.00,0.3215
3615.00,0.3208
3614.00,0.3203
3613.00,0.3200
3612.00,0.3197
3611.00,0.3196
3610.00,0.3195
3609.00,0.3195
3608.00,0.3195
3607.00,0.3196
3606.00,0.3196
3605.00,0.3196
3604.00,0.3196
3603.00,0.3196
3602.00,0.3194
3601.00,0.3192
3600.00,0.3189
3599.00,0.3186
3598.00,0.3182
3597.00,0.3178
3596.00,0.3175
3595.00,0.3171
3594.00,0.3168
3593.00,0.3165
3592.00,0.3162
3591.00,0.3159
3590.00,0.3157
3589.00,0.3156
3588.00,0.3155
3587.00,0.3154
3586.00,0.3153
3585.00,0.3152
3584.00,0.3152
3583.00,0.3152
3582.00,0.3151
3581.00,0.3151
3580.00,0.3150
3579.00,0.3150
3578.00,0.3149
3577.00,0.3149
3576.00,0.3150
3575.00,0.3151
3574.00,0.3153
3573.00,0.3154
3572.00,0.3156
3571.00,0.3158
3570.00,0.3160
3569.00,0.3162
3568.00,0.3165
3567.00,0.3168
3566.00,0.3172
3565.00,0.3176
3564.00,0.3179
3563.00,0.3183
3562.00,0.3187
3561.00,0.3192
3560.00,0.3197
3559.00,0.3202
3558.00,0.3207
3557.00,0.3212
3556.00,0.3217
3555.00,0.3222
3554.00,0.3228
3553.00,0.3234
3552.00,0.3240
3551.00,0.3245
3550.00,0.3251
3549.00,0.3257
3548.00,0.3263
3547.00,0.3269
3546.00,0.3275
3545.00,0.3281
3544.00,0.3287
3543.00,0.3292
3542.00,0.3298
3541.00,0.3304
3540.00,0.3310
3539.00,0.3315
3538.00,0.3320
3537.00,0.3325
3536.00,0.3330
3535.00,0.3333
3534.00,0.3338
3533.00,0.3342
3532.00,0.3347
3531.00,0.3352
3530.00,0.3357
3529.00,0.3362
3528.00,0.3367
3527.00,0.3373
3526.00,0.3378
3525.00,0.3383
3524.00,0.3388
3523.00,0.3394
3522.00,0.3399
3521.00,0.3405
3520.00,0.3411
3519.00,0.3417
3518.00,0.3423
3517.00,0.3429
3516.00,0.3436
3515.00,0.3443
3514.00,0.3450
3513.00,0.3457
3512.00,0.3464
3511.00,0.3471
3510.00,0.3478
3509.00,0.3485
3508.00,0.3492
3507.00,0.3500
3506.00,0.3508
3505.00,0.3517
3504.00,0.3525
3503.00,0.3533
3502.00,0.3541
3501.00,0.3550
3500.00,0.3558
3499.00,0.3567
3498.00,0.3576
3497.00,0.3586
3496.00,0.3597
3495.00,0.3607
3494.00,0.3618
3493.00,0.3629
3492.00,0.3639
3491.00,0.3650
3490.00,0.3662
3489.00,0.3673
3488.00,0.3685
3487.00,0.3696
3486.00,0.3707
3485.00,0.3717
3484.00,0.3726
3483.00,0.3736
3482.00,0.3744
3481.00,0.3753
3480.00,0.3761
3479.00,0.3768
3478.00,0.3775
3477.00,0.3781
3476.00,0.3788
3475.00,0.3794
3474.00,0.3802
3473.00,0.3809
3472.00,0.3818
3471.00,0.3826
3470.00,0.3833
3469.00,0.3841
3468.00,0.3849
3467.00,0.3856
3466.00,0.3865
3465.00,0.3873
3464.00,0.3882
3463.00,0.3892
3462.00,0.3901
3461.00,0.3911
3460.00,0.3920
3459.00,0.3930
3458.00,0.3939
3457.00,0.3949
3456.00,0.3958
3455.00,0.3968
3454.00,0.3978
3453.00,0.3988
3452.00,0.3999
3451.00,0.4010
3450.00,0.4020
3449.00,0.4030
3448.00,0.4041
3447.00,0.4052
3446.00,0.4063
3445.00,0.4075
3444.00,0.4086
3443.00,0.4096
3442.00,0.4106
3441.00,0.4117
3440.00,0.4127
3439.00,0.4137
3438.00,0.4147
3437.00,0.4158
3436.00,0.4169
3435.00,0.4180
3434.00,0.4190
3433.00,0.4201
3432.00,0.4211
3431.00,0.4222
3430.00,0.4233
3429.00,0.4243
3428.00,0.4253
3427.00,0.4263
3426.00,0.4274
3425.00,0.4284
3424.00,0.4294
3423.00,0.4305
3422.00,0.4315
3421.00,0.4326
3420.00,0.4337
3419.00,0.4348
3418.00,0.4358
3417.00,0.4369
3416.00,0.4380
3415.00,0.4391
3414.00,0.4401
3413.00,0.4412
3412.00,0.4422
3411.00,0.4432
3410.00,0.4442
3409.00,0.4451
3408.00,0.4461
3407.00,0.4471
3406.00,0.4482
3405.00,0.4493
3404.00,0.4503
3403.00,0.4513
3402.00,0.4523
3401.00,0.4532
3400.00,0.4541
3399.00,0.4549
3398.00,0.4557
3397.00,0.4565
3396.00,0.4573
3395.00,0.4582
3394.00,0.4590
3393.00,0.4598
3392.00,0.4605
3391.00,0.4612
3390.00,0.4619
3389.00,0.4626
3388.00,0.4634
3387.00,0.4642
3386.00,0.4649
3385.00,0.4656
3384.00,0.4663
3383.00,0.4669
3382.00,0.4675
3381.00,0.4682
3380.00,0.4689
3379.00,0.4696
3378.00,0.4703
3377.00,0.4709
3376.00,0.4715
3375.00,0.4720
3374.00,0.4725
3373.00,0.4731
3372.00,0.4738
3371.00,0.4744
3370.00,0.4752
3369.00,0.4759
3368.00,0.4766
3367.00,0.4774
3366.00,0.4780
3365.00,0.4787
3364.00,0.4794
3363.00,0.4801
3362.00,0.4808
3361.00,0.4816
3360.00,0.4824
3359.00,0.4830
3358.00,0.4837
3357.00,0.4844
3356.00,0.4852
3355.00,0.4859
3354.00,0.4867
3353.00,0.4874
3352.00,0.4881
3351.00,0.4888
3350.00,0.4895
3349.00,0.4901
3348.00,0.4907
3347.00,0.4913
3346.00,0.4918
3345.00,0.4925
3344.00,0.4931
3343.00,0.4938
3342.00,0.4943
3341.00,0.4949
3340.00,0.4954
3339.00,0.4958
3338.00,0.4960
3337.00,0.4963
3336.00,0.4965
3335.00,0.4968
3334.00,0.4971
3333.00,0.4973
3332.00,0.4974
3331.00,0.4975
3330.00,0.4975
3329.00,0.4975
3328.00,0.4975
3327.00,0.4974
3326.00,0.4973
3325.00,0.4971
3324.00,0.4970
3323.00,0.4969
3322.00,0.4967
3321.00,0.4965
3320.00,0.4963
3319.00,0.4960
3318.00,0.4957
3317.00,0.4955
3316.00,0.4952
3315.00,0.4949
3314.00,0.4946
3313.00,0.4943
3312.00,0.4939
3311.00,0.4935
3310.00,0.4932
3309.00,0.4928
3308.00,0.4925
3307.00,0.4922
3306.00,0.4919
3305.00,0.4915
3304.00,0.4912
3303.00,0.4908
3302.00,0.4905
3301.00,0.4903
3300.00,0.4900
3299.00,0.4898
3298.00,0.4895
3297.00,0.4894
3296.00,0.4892
3295.00,0.4890
3294.00,0.4888
3293.00,0.4886
3292.00,0.4884
3291.00,0.4883
3290.00,0.4883
3289.00,0.4883
3288.00,0.4883
3287.00,0.4883
3286.00,0.4883
3285.00,0.4883
3284.00,0.4883
3283.00,0.4884
3282.00,0.4884
3281.00,0.4884
3280.00,0.4884
3279.00,0.4885
3278.00,0.4885
3277.00,0.4886
3276.00,0.4887
3275.00,0.4888
3274.00,0.4889
3273.00,0.4890
3272.00,0.4892
3271.00,0.4893
3270.00,0.4895
3269.00,0.4896
3268.00,0.4898
3267.00,0.4899
3266.00,0.4900
3265.00,0.4902
3264.00,0.4903
3263.00,0.4904
3262.00,0.4905
3261.00,0.4906
3260.00,0.4908
3259.00,0.4909
3258.00,0.4910
3257.00,0.4912
3256.00,0.4912
3255.00,0.4913
3254.00,0.4913
3253.00,0.4913
3252.00,0.4913
3251.00,0.4912
3250.00,0.4913
3249.00,0.4914
3248.00,0.4914
3247.00,0.4914
3246.00,0.4912
3245.00,0.4911
3244.00,0.4910
3243.00,0.4909
3242.00,0.4909
3241.00,0.4908
3240.00,0.4907
3239.00,0.4906
3238.00,0.4904
3237.00,0.4902
3236.00,0.4900
3235.00,0.4899
3234.00,0.4897
3233.00,0.4895
3232.00,0.4893
3231.00,0.4889
3230.00,0.4886
3229.00,0.4883
3228.00,0.4881
3227.00,0.4879
3226.00,0.4877
3225.00,0.4875
3224.00,0.4872
3223.00,0.4869
3222.00,0.4866
3221.00,0.4864
3220.00,0.4863
3219.00,0.4861
3218.00,0.4859
3217.00,0.4858
3216.00,0.4856
3215.00,0.4854
3214.00,0.4852
3213.00,0.4851
3212.00,0.4849
3211.00,0.4847
3210.00,0.4845
3209.00,0.4844
3208.00,0.4842
3207.00,0.4841
3206.00,0.4840
3205.00,0.4839
3204.00,0.4838
3203.00,0.4837
3202.00,0.4836
3201.00,0.4835
3200.00,0.4833
3199.00,0.4831
3198.00,0.4830
3197.00,0.4829
3196.00,0.4827
3195.00,0.4825
3194.00,0.4824
3193.00,0.4822
3192.00,0.4820
3191.00,0.4818
3190.00,0.4815
3189.00,0.4812
3188.00,0.4809
3187.00,0.4806
3186.00,0.4803
3185.00,0.4800
3184.00,0.4797
3183.00,0.4792
3182.00,0.4787
3181.00,0.4782
3180.00,0.4777
3179.00,0.4772
3178.00,0.4767
3177.00,0.4762
3176.00,0.4756
3175.00,0.4750
3174.00,0.4744
3173.00,0.4739
3172.00,0.4734
3171.00,0.4729
3170.00,0.4722
3169.00,0.4715
3168.00,0.4709
3167.00,0.4702
3166.00,0.4696
3165.00,0.4689
3164.00,0.4681
3163.00,0.4673
3162.00,0.4666
3161.00,0.4659
3160.00,0.4652
3159.00,0.4646
3158.00,0.4641
3157.00,0.4635
3156.00,0.4628
3155.00,0.4621
3154.00,0.4614
3153.00,0.4607
3152.00,0.4601
3151.00,0.4594
3150.00,0.4587
3149.00,0.4581
3148.00,0.4575
3147.00,0.4569
3146.00,0.4562
3145.00,0.4556
3144.00,0.4550
3143.00,0.4544
3142.00,0.4539
3141.00,0.4534
3140.00,0.4529
3139.00,0.4524
3138.00,0.4520
3137.00,0.4516
3136.00,0.4512
3135.00,0.4508
3134.00,0.4505
3133.00,0.4502
3132.00,0.4500
3131.00,0.4498
3130.00,0.4497
3129.00,0.4496
3128.00,0.4495
3127.00,0.4495
3126.00,0.4494
3125.00,0.4495
3124.00,0.4497
3123.00,0.4499
3122.00,0.4500
3121.00,0.4502
3120.00,0.4505
3119.00,0.4508
3118.00,0.4510
3117.00,0.4513
3116.00,0.4516
3115.00,0.4520
3114.00,0.4525
3113.00,0.4530
3112.00,0.4536
3111.00,0.4541
3110.00,0.4548
3109.00,0.4555
3108.00,0.4563
3107.00,0.4571
3106.00,0.4581
3105.00,0.4590
3104.00,0.4599
3103.00,0.4608
3102.00,0.4617
3101.00,0.4626
3100.00,0.4636
3099.00,0.4646
3098.00,0.4657
3097.00,0.4669
3096.00,0.4683
3095.00,0.4699
3094.00,0.4716
3093.00,0.4735
3092.00,0.4756
3091.00,0.4779
3090.00,0.4802
3089.00,0.4827
3088.00,0.4853
3087.00,0.4881
3086.00,0.4909
3085.00,0.4938
3084.00,0.4968
3083.00,0.4998
3082.00,0.5029
3081.00,0.5063
3080.00,0.5099
3079.00,0.5137
3078.00,0.5177
3077.00,0.5219
3076.00,0.5262
3075.00,0.5307
3074.00,0.5353
3073.00,0.5399
3072.00,0.5445
3071.00,0.5490
3070.00,0.5535
3069.00,0.5580
3068.00,0.5625
3067.00,0.5669
3066.00,0.5713
3065.00,0.5756
3064.00,0.5796
3063.00,0.5833
3062.00,0.5866
3061.00,0.5896
3060.00,0.5924
3059.00,0.5951
3058.00,0.5977
3057.00,0.6004
3056.00,0.6032
3055.00,0.6062
3054.00,0.6093
3053.00,0.6128
3052.00,0.6165
3051.00,0.6204
3050.00,0.6246
3049.00,0.6290
3048.00,0.6336
3047.00,0.6382
3046.00,0.6431
3045.00,0.6479
3044.00,0.6528
3043.00,0.6576
3042.00,0.6624
3041.00,0.6671
3040.00,0.6719
3039.00,0.6767
3038.00,0.6817
3037.00,0.6869
3036.00,0.6924
3035.00,0.6983
3034.00,0.7047
3033.00,0.7117
3032.00,0.7192
3031.00,0.7271
3030.00,0.7355
3029.00,0.7442
3028.00,0.7533
3027.00,0.7627
3026.00,0.7725
3025.00,0.7827
3024.00,0.7931
3023.00,0.8038
3022.00,0.8148
3021.00,0.8261
3020.00,0.8375
3019.00,0.8491
3018.00,0.8608
3017.00,0.8726
3016.00,0.8845
3015.00,0.8965
3014.00,0.9086
3013.00,0.9210
3012.00,0.9337
3011.00,0.9469
3010.00,0.9608
3009.00,0.9753
3008.00,0.9904
3007.00,1.0060
3006.00,1.0223
3005.00,1.0390
3004.00,1.0563
3003.00,1.0742
3002.00,1.0927
3001.00,1.1120
3000.00,1.1323
2999.00,1.1537
2998.00,1.1766
2997.00,1.2014
2996.00,1.2287
2995.00,1.2592
2994.00,1.2933
2993.00,1.3313
2992.00,1.3738
2991.00,1.4215
2990.00,1.4752
2989.00,1.5353
2988.00,1.6021
2987.00,1.6762
2986.00,1.7583
2985.00,1.8491
2984.00,1.9492
2983.00,2.0596
2982.00,2.1810
2981.00,2.3125
2980.00,2.4522
2979.00,2.6013
2978.00,2.7660
2977.00,2.9501
2976.00,3.1439
2975.00,3.3193
2974.00,3.4496
2973.00,3.5380
2972.00,3.6201
2971.00,3.7518
2970.00,3.9876
2969.00,4.3038
2968.00,4.4500
2967.00,4.2913
2966.00,4.1667
2965.00,4.1325
2964.00,4.2245
2963.00,4.4852
2962.00,4.3918
2961.00,4.3349
2960.00,4.4329
2959.00,4.3409
2958.00,4.0703
2957.00,3.8616
2956.00,3.8478
2955.00,3.9288
2954.00,4.0616
2953.00,4.3535
2952.00,4.7334
2951.00,4.6974
2950.00,4.6879
2949.00,4.6053
2948.00,4.5092
2947.00,4.4558
2946.00,4.3890
2945.00,4.2725
2944.00,4.0763
2943.00,4.0140
2942.00,4.1417
2941.00,4.4096
2940.00,4.5155
2939.00,4.2745
2938.00,4.0916
2937.00,4.0864
2936.00,4.1537
2935.00,4.0292
2934.00,3.7781
2933.00,3.6365
2932.00,3.6597
2931.00,3.8974
2930.00,4.3003
2929.00,4.1617
2928.00,3.9212
2927.00,3.8120
2926.00,3.9378
2925.00,4.2745
2924.00,4.3427
2923.00,4.1283
2922.00,3.9431
2921.00,4.0115
2920.00,4.2626
2919.00,4.3585
2918.00,4.1717
2917.00,3.9283
2916.00,3.8310
2915.00,3.8799
2914.00,4.0896
2913.00,4.5450
2912.00,4.6234
2911.00,4.3439
2910.00,4.1725
2909.00,4.2517
2908.00,4.3468
2907.00,4.1024
2906.00,3.8271
2905.00,3.6532
2904.00,3.6215
2903.00,3.6864
2902.00,3.8153
2901.00,3.9914
2900.00,4.0806
2899.00,4.0000
2898.00,3.8783
2897.00,3.8250
2896.00,3.8757
2895.00,4.0280
2894.00,4.2663
2893.00,4.3997
2892.00,4.3054
2891.00,4.2040
2890.00,4.1833
2889.00,4.1987
2888.00,4.2127
2887.00,4.2899
2886.00,4.4072
2885.00,4.4258
2884.00,4.3190
2883.00,4.3974
2882.00,4.5820
2881.00,4.2831
2880.00,4.0001
2879.00,3.8857
2878.00,3.9225
2877.00,4.0365
2876.00,4.3089
2875.00,4.3791
2874.00,4.0418
2873.00,3.8293
2872.00,3.8199
2871.00,3.9577
2870.00,4.1245
2869.00,4.2213
2868.00,4.1366
2867.00,4.0384
2866.00,4.0006
2865.00,3.9921
2864.00,4.0363
2863.00,4.2627
2862.00,4.4936
2861.00,4.1706
2860.00,3.9485
2859.00,3.9478
2858.00,4.2223
2857.00,4.5276
2856.00,4.4121
2855.00,4.3762
2854.00,4.4662
2853.00,4.4966
2852.00,4.3266
2851.00,4.1431
2850.00,3.9872
2849.00,3.8544
2848.00,3.8239
2847.00,3.8862
2846.00,4.0044
2845.00,4.1259
2844.00,4.1169
2843.00,4.0572
2842.00,4.0380
2841.00,4.0496
2840.00,4.1029
2839.00,4.0899
2838.00,3.8018
2837.00,3.4271
2836.00,3.1226
2835.00,2.8843
2834.00,2.6801
2833.00,2.4971
2832.00,2.3327
2831.00,2.1872
2830.00,2.0594
2829.00,1.9465
2828.00,1.8464
2827.00,1.7577
2826.00,1.6786
2825.00,1.6072
2824.00,1.5420
2823.00,1.4825
2822.00,1.4281
2821.00,1.3784
2820.00,1.3327
2819.00,1.2905
2818.00,1.2511
2817.00,1.2141
2816.00,1.1793
2815.00,1.1468
2814.00,1.1164
2813.00,1.0879
2812.00,1.0612
2811.00,1.0360
2810.00,1.0123
2809.00,0.9898
2808.00,0.9684
2807.00,0.9480
2806.00,0.9285
2805.00,0.9101
2804.00,0.8925
2803.00,0.8759
2802.00,0.8602
2801.00,0.8453
2800.00,0.8311
2799.00,0.8175
2798.00,0.8044
2797.00,0.7917
2796.00,0.7796
2795.00,0.7679
2794.00,0.7565
2793.00,0.7455
2792.00,0.7349
2791.00,0.7244
2790.00,0.7142
2789.00,0.7041
2788.00,0.6942
2787.00,0.6846
2786.00,0.6752
2785.00,0.6661
2784.00,0.6573
2783.00,0.6486
2782.00,0.6401
2781.00,0.6320
2780.00,0.6243
2779.00,0.6170
2778.00,0.6101
2777.00,0.6035
2776.00,0.5971
2775.00,0.5911
2774.00,0.5854
2773.00,0.5802
2772.00,0.5753
2771.00,0.5706
2770.00,0.5664
2769.00,0.5625
2768.00,0.5590
2767.00,0.5558
2766.00,0.5531
2765.00,0.5506
2764.00,0.5485
2763.00,0.5466
2762.00,0.5449
2761.00,0.5434
2760.00,0.5420
2759.00,0.5407
2758.00,0.5394
2757.00,0.5382
2756.00,0.5370
2755.00,0.5359
2754.00,0.5349
2753.00,0.5342
2752.00,0.5336
2751.00,0.5332
2750.00,0.5330
2749.00,0.5331
2748.00,0.5333
2747.00,0.5337
2746.00,0.5344
2745.00,0.5354
2744.00,0.5367
2743.00,0.5383
2742.00,0.5402
2741.00,0.5426
2740.00,0.5454
2739.00,0.5487
2738.00,0.5525
2737.00,0.5569
2736.00,0.5617
2735.00,0.5667
2734.00,0.5719
2733.00,0.5770
2732.00,0.5818
2731.00,0.5858
2730.00,0.5889
2729.00,0.5909
2728.00,0.5917
2727.00,0.5916
2726.00,0.5907
2725.00,0.5891
2724.00,0.5870
2723.00,0.5846
2722.00,0.5818
2721.00,0.5787
2720.00,0.5753
2719.00,0.5716
2718.00,0.5676
2717.00,0.5634
2716.00,0.5589
2715.00,0.5542
2714.00,0.5495
2713.00,0.5450
2712.00,0.5408
2711.00,0.5370
2710.00,0.5335
2709.00,0.5306
2708.00,0.5281
2707.00,0.5260
2706.00,0.5242
2705.00,0.5228
2704.00,0.5216
2703.00,0.5208
2702.00,0.5203
2701.00,0.5200
2700.00,0.5200
2699.00,0.5201
2698.00,0.5204
2697.00,0.5209
2696.00,0.5215
2695.00,0.5222
2694.00,0.5231
2693.00,0.5241
2692.00,0.5251
2691.00,0.5262
2690.00,0.5272
2689.00,0.5282
2688.00,0.5291
2687.00,0.5299
2686.00,0.5306
2685.00,0.5312
2684.00,0.5318
2683.00,0.5323
2682.00,0.5327
2681.00,0.5332
2680.00,0.5336
2679.00,0.5339
2678.00,0.5343
2677.00,0.5347
2676.00,0.5353
2675.00,0.5359
2674.00,0.5364
2673.00,0.5368
2672.00,0.5370
2671.00,0.5370
2670.00,0.5368
2669.00,0.5363
2668.00,0.5354
2667.00,0.5343
2666.00,0.5329
2665.00,0.5313
2664.00,0.5295
2663.00,0.5275
2662.00,0.5254
2661.00,0.5233
2660.00,0.5212
2659.00,0.5191
2658.00,0.5168
2657.00,0.5146
2656.00,0.5124
2655.00,0.5103
2654.00,0.5083
2653.00,0.5064
2652.00,0.5046
2651.00,0.5029
2650.00,0.5014
2649.00,0.4998
2648.00,0.4982
2647.00,0.4967
2646.00,0.4953
2645.00,0.4940
2644.00,0.4929
2643.00,0.4917
2642.00,0.4906
2641.00,0.4894
2640.00,0.4883
2639.00,0.4872
2638.00,0.4863
2637.00,0.4853
2636.00,0.4845
2635.00,0.4835
2634.00,0.4826
2633.00,0.4817
2632.00,0.4809
2631.00,0.4800
2630.00,0.4792
2629.00,0.4784
2628.00,0.4775
2627.00,0.4765
2626.00,0.4756
2625.00,0.4746
2624.00,0.4737
2623.00,0.4727
2622.00,0.4718
2621.00,0.4708
2620.00,0.4698
2619.00,0.4688
2618.00,0.4678
2617.00,0.4667
2616.00,0.4657
2615.00,0.4647
2614.00,0.4638
2613.00,0.4628
2612.00,0.4617
2611.00,0.4606
2610.00,0.4596
2609.00,0.4585
2608.00,0.4575
2607.00,0.4565
2606.00,0.4555
2605.00,0.4545
2604.00,0.4534
2603.00,0.4523
2602.00,0.4512
2601.00,0.4500
2600.00,0.4487
2599.00,0.4475
2598.00,0.4461
2597.00,0.4448
2596.00,0.4433
2595.00,0.4418
2594.00,0.4402
2593.00,0.4386
2592.00,0.4370
2591.00,0.4353
2590.00,0.4337
2589.00,0.4321
2588.00,0.4305
2587.00,0.4288
2586.00,0.4272
2585.00,0.4255
2584.00,0.4238
2583.00,0.4220
2582.00,0.4202
2581.00,0.4184
2580.00,0.4165
2579.00,0.4147
2578.00,0.4130
2577.00,0.4112
2576.00,0.4095
2575.00,0.4078
2574.00,0.4062
2573.00,0.4046
2572.00,0.4030
2571.00,0.4014
2570.00,0.3999
2569.00,0.3984
2568.00,0.3969
2567.00,0.3955
2566.00,0.3940
2565.00,0.3926
2564.00,0.3912
2563.00,0.3898
2562.00,0.3884
2561.00,0.3871
2560.00,0.3857
2559.00,0.3844
2558.00,0.3831
2557.00,0.3819
2556.00,0.3806
2555.00,0.3794
2554.00,0.3782
2553.00,0.3771
2552.00,0.3760
2551.00,0.3749
2550.00,0.3739
2549.00,0.3729
2548.00,0.3719
2547.00,0.3709
2546.00,0.3699
2545.00,0.3690
2544.00,0.3681
2543.00,0.3672
2542.00,0.3664
2541.00,0.3656
2540.00,0.3649
2539.00,0.3642
2538.00,0.3634
2537.00,0.3627
2536.00,0.3621
2535.00,0.3614
2534.00,0.3608
2533.00,0.3601
2532.00,0.3594
2531.00,0.3586
2530.00,0.3577
2529.00,0.3568
2528.00,0.3559
2527.00,0.3550
2526.00,0.3541
2525.00,0.3531
2524.00,0.3521
2523.00,0.3510
2522.00,0.3500
2521.00,0.3491
2520.00,0.3481
2519.00,0.3472
2518.00,0.3462
2517.00,0.3453
2516.00,0.3445
2515.00,0.3436
2514.00,0.3427
2513.00,0.3419
2512.00,0.3410
2511.00,0.3402
2510.00,0.3394
2509.00,0.3387
2508.00,0.3381
2507.00,0.3375
2506.00,0.3368
2505.00,0.3363
2504.00,0.3357
2503.00,0.3352
2502.00,0.3346
2501.00,0.3341
2500.00,0.3337
2499.00,0.3332
2498.00,0.3326
2497.00,0.3321
2496.00,0.3317
2495.00,0.3312
2494.00,0.3308
2493.00,0.3304
2492.00,0.3300
2491.00,0.3296
2490.00,0.3291
2489.00,0.3286
2488.00,0.3282
2487.00,0.3277
2486.00,0.3273
2485.00,0.3269
2484.00,0.3264
2483.00,0.3260
2482.00,0.3257
2481.00,0.3253
2480.00,0.3250
2479.00,0.3246
2478.00,0.3243
2477.00,0.3239
2476.00,0.3236
2475.00,0.3232
2474.00,0.3229
2473.00,0.3226
2472.00,0.3223
2471.00,0.3220
2470.00,0.3217
2469.00,0.3214
2468.00,0.3212
2467.00,0.3209
2466.00,0.3206
2465.00,0.3203
2464.00,0.3200
2463.00,0.3197
2462.00,0.3194
2461.00,0.3191
2460.00,0.3188
2459.00,0.3186
2458.00,0.3184
2457.00,0.3182
2456.00,0.3181
2455.00,0.3179
2454.00,0.3177
2453.00,0.3175
2452.00,0.3174
2451.00,0.3173
2450.00,0.3172
2449.00,0.3172
2448.00,0.3171
2447.00,0.3169
2446.00,0.3168
2445.00,0.3168
2444.00,0.3169
2443.00,0.3169
2442.00,0.3170
2441.00,0.3170
2440.00,0.3170
2439.00,0.3170
2438.00,0.3170
2437.00,0.3171
2436.00,0.3171
2435.00,0.3172
2434.00,0.3172
2433.00,0.3173
2432.00,0.3173
2431.00,0.3174
2430.00,0.3174
2429.00,0.3174
2428.00,0.3174
2427.00,0.3175
2426.00,0.3175
2425.00,0.3175
2424.00,0.3176
2423.00,0.3176
2422.00,0.3176
2421.00,0.3176
2420.00,0.3177
2419.00,0.3177
2418.00,0.3177
2417.00,0.3178
2416.00,0.3178
2415.00,0.3178
2414.00,0.3178
2413.00,0.3178
2412.00,0.3178
2411.00,0.3178
2410.00,0.3178
2409.00,0.3178
2408.00,0.3177
2407.00,0.3176
2406.00,0.3176
2405.00,0.3175
2404.00,0.3175
2403.00,0.3175
2402.00,0.3174
2401.00,0.3173
2400.00,0.3172
2399.00,0.3170
2398.00,0.3168
2397.00,0.3167
2396.00,0.3166
2395.00,0.3164
2394.00,0.3162
2393.00,0.3160
2392.00,0.3158
2391.00,0.3156
2390.00,0.3155
2389.00,0.3154
2388.00,0.3153
2387.00,0.3153
2386.00,0.3153
2385.00,0.3153
2384.00,0.3154
2383.00,0.3154
2382.00,0.3155
2381.00,0.3157
2380.00,0.3158
2379.00,0.3159
2378.00,0.3159
2377.00,0.3160
2376.00,0.3160
2375.00,0.3160
2374.00,0.3159
2373.00,0.3158
2372.00,0.3158
2371.00,0.3157
2370.00,0.3157
2369.00,0.3156
2368.00,0.3155
2367.00,0.3155
2366.00,0.3155
2365.00,0.3155
2364.00,0.3155
2363.00,0.3154
2362.00,0.3154
2361.00,0.3155
2360.00,0.3155
2359.00,0.3154
2358.00,0.3153
2357.00,0.3152
2356.00,0.3151
2355.00,0.3150
2354.00,0.3150
2353.00,0.3149
2352.00,0.3148
2351.00,0.3147
2350.00,0.3146
2349.00,0.3145
2348.00,0.3144
2347.00,0.3144
2346.00,0.3145
2345.00,0.3144
2344.00,0.3142
2343.00,0.3140
2342.00,0.3138
2341.00,0.3136
2340.00,0.3134
2339.00,0.3133
2338.00,0.3132
2337.00,0.3131
2336.00,0.3130
2335.00,0.3129
2334.00,0.3127
2333.00,0.3126
2332.00,0.3124
2331.00,0.3123
2330.00,0.3120
2329.00,0.3117
2328.00,0.3114
2327.00,0.3111
2326.00,0.3109
2325.00,0.3107
2324.00,0.3105
2323.00,0.3104
2322.00,0.3102
2321.00,0.3099
2320.00,0.3096
2319.00,0.3093
2318.00,0.3089
2317.00,0.3086
2316.00,0.3083
2315.00,0.3081
2314.00,0.3078
2313.00,0.3076
2312.00,0.3073
2311.00,0.3070
2310.00,0.3066
2309.00,0.3062
2308.00,0.3058
2307.00,0.3054
2306.00,0.3050
2305.00,0.3047
2304.00,0.3044
2303.00,0.3041
2302.00,0.3039
2301.00,0.3036
2300.00,0.3033
2299.00,0.3030
2298.00,0.3027
2297.00,0.3024
2296.00,0.3021
2295.00,0.3018
2294.00,0.3015
2293.00,0.3012
2292.00,0.3009
2291.00,0.3006
2290.00,0.3002
2289.00,0.2999
2288.00,0.2996
2287.00,0.2993
2286.00,0.2989
2285.00,0.2986
2284.00,0.2983
2283.00,0.2980
2282.00,0.2977
2281.00,0.2974
2280.00,0.2971
2279.00,0.2968
2278.00,0.2965
2277.00,0.2962
2276.00,0.2959
2275.00,0.2956
2274.00,0.2953
2273.00,0.2951
2272.00,0.2948
2271.00,0.2946
2270.00,0.2944
2269.00,0.2943
2268.00,0.2941
2267.00,0.2939
2266.00,0.2937
2265.00,0.2936
2264.00,0.2934
2263.00,0.2932
2262.00,0.2930
2261.00,0.2928
2260.00,0.2925
2259.00,0.2923
2258.00,0.2920
2257.00,0.2917
2256.00,0.2914
2255.00,0.2911
2254.00,0.2908
2253.00,0.2905
2252.00,0.2903
2251.00,0.2900
2250.00,0.2897
2249.00,0.2895
2248.00,0.2893
2247.00,0.2891
2246.00,0.2889
2245.00,0.2887
2244.00,0.2886
2243.00,0.2884
2242.00,0.2883
2241.00,0.2881
2240.00,0.2880
2239.00,0.2879
2238.00,0.2877
2237.00,0.2876
2236.00,0.2875
2235.00,0.2874
2234.00,0.2873
2233.00,0.2872
2232.00,0.2871
2231.00,0.2870
2230.00,0.2868
2229.00,0.2867
2228.00,0.2866
2227.00,0.2864
2226.00,0.2863
2225.00,0.2861
2224.00,0.2860
2223.00,0.2858
2222.00,0.2857
2221.00,0.2856
2220.00,0.2855
2219.00,0.2854
2218.00,0.2853
2217.00,0.2851
2216.00,0.2850
2215.00,0.2849
2214.00,0.2848
2213.00,0.2848
2212.00,0.2848
2211.00,0.2848
2210.00,0.2848
2209.00,0.2848
2208.00,0.2848
2207.00,0.2848
2206.00,0.2848
2205.00,0.2848
2204.00,0.2848
2203.00,0.2849
2202.00,0.2849
2201.00,0.2849
2200.00,0.2849
2199.00,0.2849
2198.00,0.2849
2197.00,0.2849
2196.00,0.2849
2195.00,0.2850
2194.00,0.2849
2193.00,0.2850
2192.00,0.2850
2191.00,0.2850
2190.00,0.2850
2189.00,0.2849
2188.00,0.2849
2187.00,0.2849
2186.00,0.2848
2185.00,0.2847
2184.00,0.2847
2183.00,0.2846
2182.00,0.2844
2181.00,0.2844
2180.00,0.2843
2179.00,0.2843
2178.00,0.2842
2177.00,0.2840
2176.00,0.2839
2175.00,0.2838
2174.00,0.2837
2173.00,0.2836
2172.00,0.2835
2171.00,0.2834
2170.00,0.2833
2169.00,0.2832
2168.00,0.2831
2167.00,0.2830
2166.00,0.2828
2165.00,0.2827
2164.00,0.2826
2163.00,0.2825
2162.00,0.2823
2161.00,0.2821
2160.00,0.2820
2159.00,0.2818
2158.00,0.2816
2157.00,0.2814
2156.00,0.2812
2155.00,0.2810
2154.00,0.2809
2153.00,0.2807
2152.00,0.2805
2151.00,0.2802
2150.00,0.2800
2149.00,0.2797
2148.00,0.2794
2147.00,0.2790
2146.00,0.2786
2145.00,0.2783
2144.00,0.2779
2143.00,0.2775
2142.00,0.2770
2141.00,0.2766
2140.00,0.2762
2139.00,0.2759
2138.00,0.2756
2137.00,0.2753
2136.00,0.2751
2135.00,0.2749
2134.00,0.2746
2133.00,0.2744
2132.00,0.2742
2131.00,0.2741
2130.00,0.2739
2129.00,0.2738
2128.00,0.2736
2127.00,0.2734
2126.00,0.2732
2125.00,0.2731
2124.00,0.2729
2123.00,0.2728
2122.00,0.2726
2121.00,0.2724
2120.00,0.2723
2119.00,0.2722
2118.00,0.2720
2117.00,0.2719
2116.00,0.2718
2115.00,0.2716
2114.00,0.2715
2113.00,0.2714
2112.00,0.2713
2111.00,0.2712
2110.00,0.2711
2109.00,0.2710
2108.00,0.2709
2107.00,0.2708
2106.00,0.2708
2105.00,0.2707
2104.00,0.2707
2103.00,0.2707
2102.00,0.2708
2101.00,0.2708
2100.00,0.2708
2099.00,0.2707
2098.00,0.2707
2097.00,0.2707
2096.00,0.2706
2095.00,0.2706
2094.00,0.2705
2093.00,0.2705
2092.00,0.2705
2091.00,0.2705
2090.00,0.2705
2089.00,0.2704
2088.00,0.2704
2087.00,0.2703
2086.00,0.2702
2085.00,0.2701
2084.00,0.2701
2083.00,0.2701
2082.00,0.2700
2081.00,0.2700
2080.00,0.2700
2079.00,0.2699
2078.00,0.2699
2077.00,0.2699
2076.00,0.2700
2075.00,0.2700
2074.00,0.2701
2073.00,0.2702
2072.00,0.2703
2071.00,0.2704
2070.00,0.2705
2069.00,0.2707
2068.00,0.2708
2067.00,0.2710
2066.00,0.2711
2065.00,0.2713
2064.00,0.2714
2063.00,0.2715
2062.00,0.2716
2061.00,0.2718
2060.00,0.2719
2059.00,0.2719
2058.00,0.2720
2057.00,0.2722
2056.00,0.2723
2055.00,0.2723
2054.00,0.2724
2053.00,0.2725
2052.00,0.2727
2051.00,0.2728
2050.00,0.2730
2049.00,0.2731
2048.00,0.2733
2047.00,0.2734
2046.00,0.2735
2045.00,0.2737
2044.00,0.2738
2043.00,0.2739
2042.00,0.2740
2041.00,0.2742
2040.00,0.2743
2039.00,0.2744
2038.00,0.2745
2037.00,0.2746
2036.00,0.2747
2035.00,0.2748
2034.00,0.2749
2033.00,0.2750
2032.00,0.2751
2031.00,0.2751
2030.00,0.2751
2029.00,0.2752
2028.00,0.2752
2027.00,0.2752
2026.00,0.2751
2025.00,0.2750
2024.00,0.2749
2023.00,0.2746
2022.00,0.2743
2021.00,0.2740
2020.00,0.2737
2019.00,0.2732
2018.00,0.2726
2017.00,0.2720
2016.00,0.2714
2015.00,0.2707
2014.00,0.2700
2013.00,0.2695
2012.00,0.2689
2011.00,0.2684
2010.00,0.2679
2009.00,0.2675
2008.00,0.2671
2007.00,0.2667
2006.00,0.2664
2005.00,0.2661
2004.00,0.2659
2003.00,0.2657
2002.00,0.2655
2001.00,0.2653
2000.00,0.2652
1999.00,0.2651
1998.00,0.2650
1997.00,0.2649
1996.00,0.2649
1995.00,0.2649
1994.00,0.2649
1993.00,0.2650
1992.00,0.2651
1991.00,0.2651
1990.00,0.2651
1989.00,0.2649
1988.00,0.2648
1987.00,0.2647
1986.00,0.2646
1985.00,0.2645
1984.00,0.2645
1983.00,0.2645
1982.00,0.2644
1981.00,0.2643
1980.00,0.2643
1979.00,0.2642
1978.00,0.2642
1977.00,0.2642
1976.00,0.2641
1975.00,0.2640
1974.00,0.2639
1973.00,0.2639
1972.00,0.2638
1971.00,0.2638
1970.00,0.2638
1969.00,0.2639
1968.00,0.2640
1967.00,0.2642
1966.00,0.2642
1965.00,0.2642
1964.00,0.2642
1963.00,0.2642
1962.00,0.2642
1961.00,0.2644
1960.00,0.2646
1959.00,0.2648
1958.00,0.2649
1957.00,0.2651
1956.00,0.2654
1955.00,0.2657
1954.00,0.2659
1953.00,0.2661
1952.00,0.2662
1951.00,0.2663
1950.00,0.2663
1949.00,0.2664
1948.00,0.2665
1947.00,0.2667
1946.00,0.2670
1945.00,0.2674
1944.00,0.2679
1943.00,0.2685
1942.00,0.2690
1941.00,0.2695
1940.00,0.2699
1939.00,0.2701
1938.00,0.2701
1937.00,0.2701
1936.00,0.2700
1935.00,0.2699
1934.00,0.2697
1933.00,0.2696
1932.00,0.2695
1931.00,0.2694
1930.00,0.2694
1929.00,0.2695
1928.00,0.2696
1927.00,0.2697
1926.00,0.2699
1925.00,0.2702
1924.00,0.2706
1923.00,0.2711
1922.00,0.2715
1921.00,0.2721
1920.00,0.2726
1919.00,0.2731
1918.00,0.2736
1917.00,0.2740
1916.00,0.2743
1915.00,0.2744
1914.00,0.2744
1913.00,0.2744
1912.00,0.2744
1911.00,0.2745
1910.00,0.2746
1909.00,0.2747
1908.00,0.2748
1907.00,0.2749
1906.00,0.2749
1905.00,0.2748
1904.00,0.2748
1903.00,0.2748
1902.00,0.2748
1901.00,0.2748
1900.00,0.2749
1899.00,0.2749
1898.00,0.2750
1897.00,0.2751
1896.00,0.2753
1895.00,0.2755
1894.00,0.2756
1893.00,0.2758
1892.00,0.2760
1891.00,0.2762
1890.00,0.2764
1889.00,0.2766
1888.00,0.2768
1887.00,0.2768
1886.00,0.2767
1885.00,0.2767
1884.00,0.2767
1883.00,0.2767
1882.00,0.2768
1881.00,0.2769
1880.00,0.2769
1879.00,0.2769
1878.00,0.2768
1877.00,0.2767
1876.00,0.2766
1875.00,0.2764
1874.00,0.2762
1873.00,0.2761
1872.00,0.2760
1871.00,0.2760
1870.00,0.2759
1869.00,0.2758
1868.00,0.2757
1867.00,0.2754
1866.00,0.2750
1865.00,0.2746
1864.00,0.2742
1863.00,0.2738
1862.00,0.2735
1861.00,0.2732
1860.00,0.2729
1859.00,0.2726
1858.00,0.2723
1857.00,0.2721
1856.00,0.2719
1855.00,0.2717
1854.00,0.2715
1853.00,0.2714
1852.00,0.2714
1851.00,0.2713
1850.00,0.2713
1849.00,0.2714
1848.00,0.2716
1847.00,0.2718
1846.00,0.2718
1845.00,0.2719
1844.00,0.2719
1843.00,0.2718
1842.00,0.2716
1841.00,0.2713
1840.00,0.2710
1839.00,0.2707
1838.00,0.2705
1837.00,0.2705
1836.00,0.2704
1835.00,0.2703
1834.00,0.2702
1833.00,0.2702
1832.00,0.2702
1831.00,0.2701
1830.00,0.2701
1829.00,0.2701
1828.00,0.2701
1827.00,0.2700
1826.00,0.2699
1825.00,0.2698
1824.00,0.2698
1823.00,0.2695
1822.00,0.2692
1821.00,0.2690
1820.00,0.2690
1819.00,0.2691
1818.00,0.2692
1817.00,0.2693
1816.00,0.2695
1815.00,0.2696
1814.00,0.2698
1813.00,0.2701
1812.00,0.2704
1811.00,0.2707
1810.00,0.2710
1809.00,0.2713
1808.00,0.2716
1807.00,0.2719
1806.00,0.2721
1805.00,0.2725
1804.00,0.2732
1803.00,0.2738
1802.00,0.2745
1801.00,0.2751
1800.00,0.2756
1799.00,0.2760
1798.00,0.2763
1797.00,0.2767
1796.00,0.2770
1795.00,0.2774
1794.00,0.2776
1793.00,0.2780
1792.00,0.2784
1791.00,0.2787
1790.00,0.2788
1789.00,0.2788
1788.00,0.2789
1787.00,0.2792
1786.00,0.2795
1785.00,0.2800
1784.00,0.2805
1783.00,0.2809
1782.00,0.2811
1781.00,0.2815
1780.00,0.2819
1779.00,0.2823
1778.00,0.2826
1777.00,0.2831
1776.00,0.2837
1775.00,0.2842
1774.00,0.2848
1773.00,0.2854
1772.00,0.2863
1771.00,0.2872
1770.00,0.2881
1769.00,0.2888
1768.00,0.2894
1767.00,0.2899
1766.00,0.2903
1765.00,0.2909
1764.00,0.2916
1763.00,0.2925
1762.00,0.2935
1761.00,0.2946
1760.00,0.2957
1759.00,0.2967
1758.00,0.2977
1757.00,0.2987
1756.00,0.2999
1755.00,0.3010
1754.00,0.3021
1753.00,0.3033
1752.00,0.3048
1751.00,0.3063
1750.00,0.3078
1749.00,0.3092
1748.00,0.3105
1747.00,0.3117
1746.00,0.3129
1745.00,0.3143
1744.00,0.3156
1743.00,0.3169
1742.00,0.3179
1741.00,0.3190
1740.00,0.3201
1739.00,0.3212
1738.00,0.3222
1737.00,0.3231
1736.00,0.3241
1735.00,0.3250
1734.00,0.3262
1733.00,0.3276
1732.00,0.3288
1731.00,0.3298
1730.00,0.3306
1729.00,0.3318
1728.00,0.3333
1727.00,0.3351
1726.00,0.3372
1725.00,0.3399
1724.00,0.3433
1723.00,0.3472
1722.00,0.3517
1721.00,0.3568
1720.00,0.3629
1719.00,0.3707
1718.00,0.3806
1717.00,0.3927
1716.00,0.4061
1715.00,0.4203
1714.00,0.4355
1713.00,0.4514
1712.00,0.4672
1711.00,0.4825
1710.00,0.4966
1709.00,0.5080
1708.00,0.5157
1707.00,0.5192
1706.00,0.5187
1705.00,0.5142
1704.00,0.5069
1703.00,0.4981
1702.00,0.4870
1701.00,0.4717
1700.00,0.4544
1699.00,0.4395
1698.00,0.4279
1697.00,0.4167
1696.00,0.4049
1695.00,0.3939
1694.00,0.3853
1693.00,0.3787
1692.00,0.3729
1691.00,0.3676
1690.00,0.3630
1689.00,0.3592
1688.00,0.3560
1687.00,0.3532
1686.00,0.3506
1685.00,0.3479
1684.00,0.3454
1683.00,0.3435
1682.00,0.3419
1681.00,0.3403
1680.00,0.3387
1679.00,0.3374
1678.00,0.3364
1677.00,0.3357
1676.00,0.3350
1675.00,0.3345
1674.00,0.3342
1673.00,0.3339
1672.00,0.3337
1671.00,0.3334
1670.00,0.3332
1669.00,0.3332
1668.00,0.3333
1667.00,0.3332
1666.00,0.3331
1665.00,0.3330
1664.00,0.3331
1663.00,0.3332
1662.00,0.3335
1661.00,0.3338
1660.00,0.3341
1659.00,0.3342
1658.00,0.3345
1657.00,0.3351
1656.00,0.3359
1655.00,0.3367
1654.00,0.3374
1653.00,0.3382
1652.00,0.3393
1651.00,0.3401
1650.00,0.3407
1649.00,0.3415
1648.00,0.3425
1647.00,0.3436
1646.00,0.3450
1645.00,0.3464
1644.00,0.3476
1643.00,0.3487
1642.00,0.3499
1641.00,0.3514
1640.00,0.3530
1639.00,0.3547
1638.00,0.3565
1637.00,0.3584
1636.00,0.3607
1635.00,0.3631
1634.00,0.3653
1633.00,0.3673
1632.00,0.3691
1631.00,0.3709
1630.00,0.3730
1629.00,0.3754
1628.00,0.3781
1627.00,0.3808
1626.00,0.3836
1625.00,0.3868
1624.00,0.3905
1623.00,0.3948
1622.00,0.3995
1621.00,0.4047
1620.00,0.4103
1619.00,0.4165
1618.00,0.4240
1617.00,0.4335
1616.00,0.4444
1615.00,0.4550
1614.00,0.4648
1613.00,0.4746
1612.00,0.4848
1611.00,0.4952
1610.00,0.5055
1609.00,0.5157
1608.00,0.5255
1607.00,0.5343
1606.00,0.5417
1605.00,0.5485
1604.00,0.5549
1603.00,0.5607
1602.00,0.5662
1601.00,0.5723
1600.00,0.5791
1599.00,0.5866
1598.00,0.5950
1597.00,0.6057
1596.00,0.6193
1595.00,0.6362
1594.00,0.6570
1593.00,0.6830
1592.00,0.7157
1591.00,0.7559
1590.00,0.8053
1589.00,0.8679
1588.00,0.9486
1587.00,1.0511
1586.00,1.1804
1585.00,1.3446
1584.00,1.5542
1583.00,1.8115
1582.00,2.1007
1581.00,2.3962
1580.00,2.6451
1579.00,2.6119
1578.00,2.2758
1577.00,1.9294
1576.00,1.6473
1575.00,1.4315
1574.00,1.2731
1573.00,1.1560
1572.00,1.0649
1571.00,0.9907
1570.00,0.9333
1569.00,0.8972
1568.00,0.8834
1567.00,0.8897
1566.00,0.9155
1565.00,0.9628
1564.00,1.0300
1563.00,1.1086
1562.00,1.1864
1561.00,1.2502
1560.00,1.2690
1559.00,1.2068
1558.00,1.0992
1557.00,0.9999
1556.00,0.9153
1555.00,0.8374
1554.00,0.7678
1553.00,0.7120
1552.00,0.6700
1551.00,0.6371
1550.00,0.6097
1549.00,0.5876
1548.00,0.5706
1547.00,0.5574
1546.00,0.5464
1545.00,0.5372
1544.00,0.5298
1543.00,0.5235
1542.00,0.5177
1541.00,0.5120
1540.00,0.5063
1539.00,0.5010
1538.00,0.4966
1537.00,0.4934
1536.00,0.4910
1535.00,0.4888
1534.00,0.4870
1533.00,0.4864
1532.00,0.4869
1531.00,0.4883
1530.00,0.4903
1529.00,0.4930
1528.00,0.4960
1527.00,0.4984
1526.00,0.4998
1525.00,0.5007
1524.00,0.5016
1523.00,0.5027
1522.00,0.5047
1521.00,0.5082
1520.00,0.5127
1519.00,0.5173
1518.00,0.5221
1517.00,0.5274
1516.00,0.5326
1515.00,0.5365
1514.00,0.5391
1513.00,0.5413
1512.00,0.5436
1511.00,0.5462
1510.00,0.5496
1509.00,0.5544
1508.00,0.5610
1507.00,0.5697
1506.00,0.5799
1505.00,0.5900
1504.00,0.5988
1503.00,0.6065
1502.00,0.6135
1501.00,0.6205
1500.00,0.6271
1499.00,0.6334
1498.00,0.6400
1497.00,0.6482
1496.00,0.6578
1495.00,0.6675
1494.00,0.6770
1493.00,0.6873
1492.00,0.6990
1491.00,0.7122
1490.00,0.7270
1489.00,0.7436
1488.00,0.7613
1487.00,0.7804
1486.00,0.8020
1485.00,0.8278
1484.00,0.8579
1483.00,0.8928
1482.00,0.9344
1481.00,0.9839
1480.00,1.0404
1479.00,1.1031
1478.00,1.1749
1477.00,1.2602
1476.00,1.3600
1475.00,1.4746
1474.00,1.6129
1473.00,1.7922
1472.00,2.0221
1471.00,2.2932
1470.00,2.5966
1469.00,2.9482
1468.00,3.3416
1467.00,3.6208
1466.00,3.8001
1465.00,4.0759
1464.00,4.0854
1463.00,3.8497
1462.00,3.7457
1461.00,3.8383
1460.00,3.7681
1459.00,3.6513
1458.00,3.7418
1457.00,3.6921
1456.00,3.5657
1455.00,3.8228
1454.00,4.5842
1453.00,4.2135
1452.00,3.9735
1451.00,3.6985
1450.00,3.5350
1449.00,3.4848
1448.00,3.3690
1447.00,3.1772
1446.00,3.0039
1445.00,2.8626
1444.00,2.7087
1443.00,2.5485
1442.00,2.4085
1441.00,2.2856
1440.00,2.1650
1439.00,2.0426
1438.00,1.9202
1437.00,1.7973
1436.00,1.6784
1435.00,1.5711
1434.00,1.4752
1433.00,1.3845
1432.00,1.2959
1431.00,1.2123
1430.00,1.1378
1429.00,1.0744
1428.00,1.0225
1427.00,0.9812
1426.00,0.9481
1425.00,0.9210
1424.00,0.8991
1423.00,0.8827
1422.00,0.8707
1421.00,0.8611
1420.00,0.8526
1419.00,0.8454
1418.00,0.8396
1417.00,0.8349
1416.00,0.8315
1415.00,0.8297
1414.00,0.8297
1413.00,0.8312
1412.00,0.8338
1411.00,0.8372
1410.00,0.8400
1409.00,0.8409
1408.00,0.8389
1407.00,0.8335
1406.00,0.8242
1405.00,0.8108
1404.00,0.7949
1403.00,0.7787
1402.00,0.7635
1401.00,0.7494
1400.00,0.7370
1399.00,0.7271
1398.00,0.7200
1397.00,0.7158
1396.00,0.7145
1395.00,0.7168
1394.00,0.7232
1393.00,0.7344
1392.00,0.7519
1391.00,0.7778
1390.00,0.8143
1389.00,0.8641
1388.00,0.9306
1387.00,1.0145
1386.00,1.1115
1385.00,1.2161
1384.00,1.3266
1383.00,1.4462
1382.00,1.5784
1381.00,1.7272
1380.00,1.8946
1379.00,2.0681
1378.00,2.2051
1377.00,2.2513
1376.00,2.1915
1375.00,2.0551
1374.00,1.8877
1373.00,1.7287
1372.00,1.5959
1371.00,1.4915
1370.00,1.4138
1369.00,1.3611
1368.00,1.3279
1367.00,1.3029
1366.00,1.2712
1365.00,1.2231
1364.00,1.1598
1363.00,1.0912
1362.00,1.0285
1361.00,0.9776
1360.00,0.9388
1359.00,0.9100
1358.00,0.8890
1357.00,0.8742
1356.00,0.8644
1355.00,0.8585
1354.00,0.8551
1353.00,0.8528
1352.00,0.8508
1351.00,0.8482
1350.00,0.8447
1349.00,0.8403
1348.00,0.8357
1347.00,0.8314
1346.00,0.8277
1345.00,0.8247
1344.00,0.8222
1343.00,0.8199
1342.00,0.8170
1341.00,0.8128
1340.00,0.8064
1339.00,0.7976
1338.00,0.7864
1337.00,0.7735
1336.00,0.7594
1335.00,0.7453
1334.00,0.7319
1333.00,0.7198
1332.00,0.7092
1331.00,0.7004
1330.00,0.6933
1329.00,0.6880
1328.00,0.6841
1327.00,0.6815
1326.00,0.6800
1325.00,0.6792
1324.00,0.6789
1323.00,0.6792
1322.00,0.6797
1321.00,0.6805
1320.00,0.6815
1319.00,0.6831
1318.00,0.6851
1317.00,0.6877
1316.00,0.6907
1315.00,0.6942
1314.00,0.6983
1313.00,0.7026
1312.00,0.7070
1311.00,0.7111
1310.00,0.7148
1309.00,0.7180
1308.00,0.7204
1307.00,0.7220
1306.00,0.7226
1305.00,0.7222
1304.00,0.7206
1303.00,0.7180
1302.00,0.7145
1301.00,0.7103
1300.00,0.7054
1299.00,0.7001
1298.00,0.6945
1297.00,0.6887
1296.00,0.6830
1295.00,0.6777
1294.00,0.6729
1293.00,0.6686
1292.00,0.6646
1291.00,0.6608
1290.00,0.6571
1289.00,0.6532
1288.00,0.6494
1287.00,0.6454
1286.00,0.6412
1285.00,0.6369
1284.00,0.6325
1283.00,0.6283
1282.00,0.6246
1281.00,0.6215
1280.00,0.6189
1279.00,0.6167
1278.00,0.6147
1277.00,0.6126
1276.00,0.6102
1275.00,0.6079
1274.00,0.6059
1273.00,0.6041
1272.00,0.6027
1271.00,0.6016
1270.00,0.6006
1269.00,0.5992
1268.00,0.5968
1267.00,0.5934
1266.00,0.5892
1265.00,0.5846
1264.00,0.5802
1263.00,0.5767
1262.00,0.5740
1261.00,0.5719
1260.00,0.5701
1259.00,0.5684
1258.00,0.5667
1257.00,0.5647
1256.00,0.5625
1255.00,0.5603
1254.00,0.5582
1253.00,0.5564
1252.00,0.5549
1251.00,0.5537
1250.00,0.5525
1249.00,0.5509
1248.00,0.5489
1247.00,0.5464
1246.00,0.5438
1245.00,0.5410
1244.00,0.5380
1243.00,0.5348
1242.00,0.5316
1241.00,0.5284
1240.00,0.5252
1239.00,0.5225
1238.00,0.5202
1237.00,0.5183
1236.00,0.5170
1235.00,0.5162
1234.00,0.5158
1233.00,0.5158
1232.00,0.5161
1231.00,0.5169
1230.00,0.5176
1229.00,0.5178
1228.00,0.5170
1227.00,0.5152
1226.00,0.5128
1225.00,0.5099
1224.00,0.5068
1223.00,0.5039
1222.00,0.5014
1221.00,0.4992
1220.00,0.4975
1219.00,0.4963
1218.00,0.4958
1217.00,0.4958
1216.00,0.4961
1215.00,0.4965
1214.00,0.4967
1213.00,0.4966
1212.00,0.4960
1211.00,0.4950
1210.00,0.4939
1209.00,0.4926
1208.00,0.4913
1207.00,0.4900
1206.00,0.4887
1205.00,0.4873
1204.00,0.4857
1203.00,0.4842
1202.00,0.4829
1201.00,0.4817
1200.00,0.4808
1199.00,0.4802
1198.00,0.4797
1197.00,0.4791
1196.00,0.4783
1195.00,0.4775
1194.00,0.4766
1193.00,0.4759
1192.00,0.4753
1191.00,0.4748
1190.00,0.4742
1189.00,0.4735
1188.00,0.4726
1187.00,0.4716
1186.00,0.4707
1185.00,0.4697
1184.00,0.4687
1183.00,0.4680
1182.00,0.4675
1181.00,0.4671
1180.00,0.4668
1179.00,0.4668
1178.00,0.4672
1177.00,0.4680
1176.00,0.4694
1175.00,0.4717
1174.00,0.4748
1173.00,0.4787
1172.00,0.4831
1171.00,0.4871
1170.00,0.4900
1169.00,0.4912
1168.00,0.4907
1167.00,0.4892
1166.00,0.4874
1165.00,0.4858
1164.00,0.4850
1163.00,0.4850
1162.00,0.4858
1161.00,0.4870
1160.00,0.4885
1159.00,0.4903
1158.00,0.4921
1157.00,0.4935
1156.00,0.4944
1155.00,0.4947
1154.00,0.4943
1153.00,0.4932
1152.00,0.4917
1151.00,0.4897
1150.00,0.4876
1149.00,0.4855
1148.00,0.4836
1147.00,0.4820
1146.00,0.4808
1145.00,0.4800
1144.00,0.4796
1143.00,0.4801
1142.00,0.4816
1141.00,0.4839
1140.00,0.4872
1139.00,0.4915
1138.00,0.4968
1137.00,0.5028
1136.00,0.5089
1135.00,0.5146
1134.00,0.5186
1133.00,0.5200
1132.00,0.5183
1131.00,0.5139
1130.00,0.5079
1129.00,0.5015
1128.00,0.4959
1127.00,0.4917
1126.00,0.4890
1125.00,0.4874
1124.00,0.4868
1123.00,0.4868
1122.00,0.4872
1121.00,0.4879
1120.00,0.4891
1119.00,0.4910
1118.00,0.4939
1117.00,0.4979
1116.00,0.5027
1115.00,0.5070
1114.00,0.5094
1113.00,0.5083
1112.00,0.5036
1111.00,0.4964
1110.00,0.4885
1109.00,0.4812
1108.00,0.4754
1107.00,0.4711
1106.00,0.4682
1105.00,0.4663
1104.00,0.4650
1103.00,0.4640
1102.00,0.4630
1101.00,0.4618
1100.00,0.4605
1099.00,0.4590
1098.00,0.4577
1097.00,0.4567
1096.00,0.4559
1095.00,0.4556
1094.00,0.4557
1093.00,0.4561
1092.00,0.4569
1091.00,0.4583
1090.00,0.4603
1089.00,0.4629
1088.00,0.4660
1087.00,0.4698
1086.00,0.4744
1085.00,0.4797
1084.00,0.4855
1083.00,0.4917
1082.00,0.4983
1081.00,0.5048
1080.00,0.5109
1079.00,0.5161
1078.00,0.5197
1077.00,0.5215
1076.00,0.5212
1075.00,0.5192
1074.00,0.5158
1073.00,0.5116
1072.00,0.5071
1071.00,0.5030
1070.00,0.4998
1069.00,0.4973
1068.00,0.4957
1067.00,0.4946
1066.00,0.4941
1065.00,0.4940
1064.00,0.4945
1063.00,0.4954
1062.00,0.4966
1061.00,0.4978
1060.00,0.4988
1059.00,0.4997
1058.00,0.5004
1057.00,0.5010
1056.00,0.5013
1055.00,0.5015
1054.00,0.5016
1053.00,0.5020
1052.00,0.5028
1051.00,0.5042
1050.00,0.5059
1049.00,0.5075
1048.00,0.5090
1047.00,0.5103
1046.00,0.5113
1045.00,0.5119
1044.00,0.5120
1043.00,0.5117
1042.00,0.5112
1041.00,0.5106
1040.00,0.5097
1039.00,0.5087
1038.00,0.5075
1037.00,0.5065
1036.00,0.5056
1035.00,0.5052
1034.00,0.5054
1033.00,0.5061
1032.00,0.5071
1031.00,0.5081
1030.00,0.5085
1029.00,0.5077
1028.00,0.5054
1027.00,0.5017
1026.00,0.4966
1025.00,0.4906
1024.00,0.4842
1023.00,0.4780
1022.00,0.4722
1021.00,0.4667
1020.00,0.4617
1019.00,0.4572
1018.00,0.4532
1017.00,0.4497
1016.00,0.4466
1015.00,0.4439
1014.00,0.4416
1013.00,0.4397
1012.00,0.4383
1011.00,0.4372
1010.00,0.4366
1009.00,0.4364
1008.00,0.4365
1007.00,0.4372
1006.00,0.4385
1005.00,0.4404
1004.00,0.4426
1003.00,0.4450
1002.00,0.4474
1001.00,0.4495
1000.00,0.4511
999.00,0.4522
998.00,0.4525
997.00,0.4521
996.00,0.4509
995.00,0.4493
994.00,0.4475
993.00,0.4455
992.00,0.4433
991.00,0.4410
990.00,0.4387
989.00,0.4365
988.00,0.4345
987.00,0.4333
986.00,0.4328
985.00,0.4331
984.00,0.4342
983.00,0.4359
982.00,0.4380
981.00,0.4403
980.00,0.4427
979.00,0.4452
978.00,0.4474
977.00,0.4494
976.00,0.4511
975.00,0.4526
974.00,0.4538
973.00,0.4546
972.00,0.4548
971.00,0.4546
970.00,0.4543
969.00,0.4540
968.00,0.4538
967.00,0.4536
966.00,0.4531
965.00,0.4522
964.00,0.4512
963.00,0.4501
962.00,0.4490
961.00,0.4478
960.00,0.4467
959.00,0.4458
958.00,0.4451
957.00,0.4446
956.00,0.4442
955.00,0.4438
954.00,0.4432
953.00,0.4423
952.00,0.4412
951.00,0.4402
950.00,0.4396
949.00,0.4393
948.00,0.4393
947.00,0.4396
946.00,0.4404
945.00,0.4414
944.00,0.4428
943.00,0.4443
942.00,0.4459
941.00,0.4475
940.00,0.4490
939.00,0.4503
938.00,0.4511
937.00,0.4512
936.00,0.4506
935.00,0.4495
934.00,0.4478
933.00,0.4458
932.00,0.4435
931.00,0.4412
930.00,0.4392
929.00,0.4375
928.00,0.4363
927.00,0.4360
926.00,0.4367
925.00,0.4385
924.00,0.4416
923.00,0.4458
922.00,0.4504
921.00,0.4541
920.00,0.4558
919.00,0.4547
918.00,0.4505
917.00,0.4440
916.00,0.4364
915.00,0.4287
914.00,0.4218
913.00,0.4159
912.00,0.4112
911.00,0.4074
910.00,0.4045
909.00,0.4023
908.00,0.4006
907.00,0.3995
906.00,0.3987
905.00,0.3982
904.00,0.3980
903.00,0.3983
902.00,0.3995
901.00,0.4013
900.00,0.4037
899.00,0.4066
898.00,0.4099
897.00,0.4134
896.00,0.4170
895.00,0.4209
894.00,0.4250
893.00,0.4292
892.00,0.4333
891.00,0.4370
890.00,0.4399
889.00,0.4417
888.00,0.4418
887.00,0.4404
886.00,0.4382
885.00,0.4358
884.00,0.4338
883.00,0.4324
882.00,0.4317
881.00,0.4319
880.00,0.4327
879.00,0.4340
878.00,0.4354
877.00,0.4366
876.00,0.4376
875.00,0.4383
874.00,0.4389
873.00,0.4395
872.00,0.4401
871.00,0.4410
870.00,0.4422
869.00,0.4433
868.00,0.4448
867.00,0.4468
866.00,0.4495
865.00,0.4526
864.00,0.4557
863.00,0.4580
862.00,0.4588
861.00,0.4575
860.00,0.4541
859.00,0.4492
858.00,0.4438
857.00,0.4385
856.00,0.4340
855.00,0.4304
854.00,0.4279
853.00,0.4260
852.00,0.4247
851.00,0.4235
850.00,0.4223
849.00,0.4206
848.00,0.4184
847.00,0.4157
846.00,0.4126
845.00,0.4097
844.00,0.4070
843.00,0.4053
842.00,0.4047
841.00,0.4056
840.00,0.4085
839.00,0.4133
838.00,0.4194
837.00,0.4252
836.00,0.4292
835.00,0.4303
834.00,0.4285
833.00,0.4249
832.00,0.4208
831.00,0.4179
830.00,0.4169
829.00,0.4178
828.00,0.4202
827.00,0.4240
826.00,0.4289
825.00,0.4347
824.00,0.4412
823.00,0.4482
822.00,0.4556
821.00,0.4628
820.00,0.4696
819.00,0.4759
818.00,0.4814
817.00,0.4859
816.00,0.4888
815.00,0.4898
814.00,0.4887
813.00,0.4855
812.00,0.4807
811.00,0.4750
810.00,0.4690
809.00,0.4632
808.00,0.4577
807.00,0.4528
806.00,0.4484
805.00,0.4441
804.00,0.4393
803.00,0.4339
802.00,0.4279
801.00,0.4219
800.00,0.4164
799.00,0.4121
798.00,0.4090
797.00,0.4069
796.00,0.4055
795.00,0.4045
794.00,0.4040
793.00,0.4040
792.00,0.4046
791.00,0.4059
790.00,0.4079
789.00,0.4104
788.00,0.4132
787.00,0.4166
786.00,0.4207
785.00,0.4255
784.00,0.4305
783.00,0.4353
782.00,0.4394
781.00,0.4423
780.00,0.4443
779.00,0.4458
778.00,0.4472
777.00,0.4486
776.00,0.4500
775.00,0.4514
774.00,0.4531
773.00,0.4549
772.00,0.4571
771.00,0.4595
770.00,0.4621
769.00,0.4650
768.00,0.4683
767.00,0.4719
766.00,0.4755
765.00,0.4788
764.00,0.4816
763.00,0.4844
762.00,0.4877
761.00,0.4915
760.00,0.4954
759.00,0.4989
758.00,0.5018
757.00,0.5042
756.00,0.5065
755.00,0.5093
754.00,0.5130
753.00,0.5174
752.00,0.5224
751.00,0.5279
750.00,0.5337
749.00,0.5393
748.00,0.5444
747.00,0.5489
746.00,0.5533
745.00,0.5580
744.00,0.5629
743.00,0.5681
742.00,0.5734
741.00,0.5784
740.00,0.5830
739.00,0.5872
738.00,0.5913
737.00,0.5953
736.00,0.5990
735.00,0.6028
734.00,0.6072
733.00,0.6126
732.00,0.6197
731.00,0.6294
730.00,0.6424
729.00,0.6592
728.00,0.6799
727.00,0.7047
726.00,0.7337
725.00,0.7652
724.00,0.7950
723.00,0.8166
722.00,0.8226
721.00,0.8080
720.00,0.7743
719.00,0.7295
718.00,0.6827
717.00,0.6399
716.00,0.6036
715.00,0.5744
714.00,0.5515
713.00,0.5332
712.00,0.5180
711.00,0.5054
710.00,0.4949
709.00,0.4862
708.00,0.4790
707.00,0.4730
706.00,0.4681
705.00,0.4640
704.00,0.4605
703.00,0.4582
702.00,0.4575
701.00,0.4578
700.00,0.4568
699.00,0.4515
698.00,0.4405
697.00,0.4247
696.00,0.4071
695.00,0.3908
694.00,0.3777
693.00,0.3677
692.00,0.3601
691.00,0.3545
690.00,0.3502
689.00,0.3468
688.00,0.3442
687.00,0.3422
686.00,0.3407
685.00,0.3396
684.00,0.3388
683.00,0.3384
682.00,0.3381
681.00,0.3380
680.00,0.3379
679.00,0.3378
678.00,0.3379
677.00,0.3380
676.00,0.3382
675.00,0.3385
674.00,0.3390
673.00,0.3396
672.00,0.3403
671.00,0.3410
670.00,0.3416
669.00,0.3422
668.00,0.3425
667.00,0.3424
666.00,0.3425
665.00,0.3426
664.00,0.3428
663.00,0.3433
662.00,0.3445
661.00,0.3460
660.00,0.3473
659.00,0.3482
658.00,0.3490
657.00,0.3498
656.00,0.3507
655.00,0.3515
654.00,0.3522
653.00,0.3531
652.00,0.3542
651.00,0.3552
650.00,0.3560
649.00,0.3565
648.00,0.3568
647.00,0.3575
646.00,0.3587
645.00,0.3600
644.00,0.3613
643.00,0.3625
642.00,0.3638
641.00,0.3651
640.00,0.3665
639.00,0.3677
638.00,0.3688
637.00,0.3696
636.00,0.3702
635.00,0.3707
634.00,0.3713
633.00,0.3720
632.00,0.3728
631.00,0.3740
630.00,0.3752
629.00,0.3764
628.00,0.3780
627.00,0.3799
626.00,0.3822
625.00,0.3846
624.00,0.3869
623.00,0.3892
622.00,0.3914
621.00,0.3931
620.00,0.3944
619.00,0.3956
618.00,0.3965
617.00,0.3968
616.00,0.3967
615.00,0.3962
614.00,0.3955
613.00,0.3947
612.00,0.3936
611.00,0.3925
610.00,0.3915
609.00,0.3906
608.00,0.3899
607.00,0.3893
606.00,0.3888
605.00,0.3882
604.00,0.3877
603.00,0.3877
602.00,0.3881
601.00,0.3888
600.00,0.3897
599.00,0.3912
598.00,0.3931
597.00,0.3951
596.00,0.3973
595.00,0.3999
594.00,0.4031
593.00,0.4065
592.00,0.4094
591.00,0.4116
590.00,0.4135
589.00,0.4155
588.00,0.4178
587.00,0.4208
586.00,0.4238
585.00,0.4264
584.00,0.4284
583.00,0.4303
582.00,0.4328
581.00,0.4356
580.00,0.4386
579.00,0.4415
578.00,0.4441
577.00,0.4463
576.00,0.4478
575.00,0.4489
574.00,0.4500
573.00,0.4513
572.00,0.4526
571.00,0.4540
570.00,0.4556
569.00,0.4573
568.00,0.4590
567.00,0.4604
566.00,0.4614
565.00,0.4621
564.00,0.4630
563.00,0.4644
562.00,0.4663
561.00,0.4682
560.00,0.4698
559.00,0.4710
558.00,0.4716
557.00,0.4717
556.00,0.4717
555.00,0.4724
554.00,0.4740
553.00,0.4758
552.00,0.4772
551.00,0.4782
550.00,0.4795
