Created as New Dataset,
cm-1,A
4000.00,0.3449
3999.00,0.3446
3998.00,0.3443
3997.00,0.3441
3996.00,0.3438
3995.00,0.3436
3994.00,0.3434
3993.00,0.3431
3992.00,0.3428
3991.00,0.3424
3990.00,0.3420
3989.00,0.3416
3988.00,0.3412
3987.00,0.3407
3986.00,0.3403
3985.00,0.3399
3984.00,0.3395
3983.00,0.3391
3982.00,0.3386
3981.00,0.3382
3980.00,0.3377
3979.00,0.3373
3978.00,0.3369
3977.00,0.3365
3976.00,0.3361
3975.00,0.3358
3974.00,0.3355
3973.00,0.3352
3972.00,0.3349
3971.00,0.3347
3970.00,0.3345
3969.00,0.3342
3968.00,0.3340
3967.00,0.3338
3966.00,0.3336
3965.00,0.3335
3964.00,0.3333
3963.00,0.3331
3962.00,0.3329
3961.00,0.3327
3960.00,0.3325
3959.00,0.3322
3958.00,0.3320
3957.00,0.3317
3956.00,0.3315
3955.00,0.3314
3954.00,0.3313
3953.00,0.3311
3952.00,0.3309
3951.00,0.3306
3950.00,0.3303
3949.00,0.3301
3948.00,0.3298
3947.00,0.3295
3946.00,0.3292
3945.00,0.3290
3944.00,0.3288
3943.00,0.3286
3942.00,0.3285
3941.00,0.3283
3940.00,0.3282
3939.00,0.3280
3938.00,0.3280
3937.00,0.3280
3936.00,0.3280
3935.00,0.3280
3934.00,0.3279
3933.00,0.3278
3932.00,0.3278
3931.00,0.3277
3930.00,0.3277
3929.00,0.3277
3928.00,0.3277
3927.00,0.3278
3926.00,0.3279
3925.00,0.3279
3924.00,0.3279
3923.00,0.3279
3922.00,0.3279
3921.00,0.3278
3920.00,0.3277
3919.00,0.3276
3918.00,0.3276
3917.00,0.3275
3916.00,0.3275
3915.00,0.3275
3914.00,0.3274
3913.00,0.3273
3912.00,0.3271
3911.00,0.3270
3910.00,0.3269
3909.00,0.3267
3908.00,0.3265
3907.00,0.3262
3906.00,0.3259
3905.00,0.3257
3904.00,0.3256
3903.00,0.3254
3902.00,0.3252
3901.00,0.3252
3900.00,0.3252
3899.00,0.3254
3898.00,0.3256
3897.00,0.3257
3896.00,0.3258
3895.00,0.3258
3894.00,0.3257
3893.00,0.3256
3892.00,0.3255
3891.00,0.3255
3890.00,0.3254
3889.00,0.3251
3888.00,0.3249
3887.00,0.3248
3886.00,0.3248
3885.00,0.3248
3884.00,0.3246
3883.00,0.3244
3882.00,0.3242
3881.00,0.3242
3880.00,0.3242
3879.00,0.3242
3878.00,0.3241
3877.00,0.3239
3876.00,0.3238
3875.00,0.3237
3874.00,0.3236
3873.00,0.3233
3872.00,0.3230
3871.00,0.3228
3870.00,0.3227
3869.00,0.3226
3868.00,0.3224
3867.00,0.3221
3866.00,0.3220
3865.00,0.3220
3864.00,0.3221
3863.00,0.3221
3862.00,0.3221
3861.00,0.3221
3860.00,0.3220
3859.00,0.3218
3858.00,0.3215
3857.00,0.3211
3856.00,0.3206
3855.00,0.3202
3854.00,0.3201
3853.00,0.3202
3852.00,0.3203
3851.00,0.3203
3850.00,0.3204
3849.00,0.3206
3848.00,0.3209
3847.00,0.3211
3846.00,0.3211
3845.00,0.3210
3844.00,0.3208
3843.00,0.3205
3842.00,0.3202
3841.00,0.3198
3840.00,0.3195
3839.00,0.3193
3838.00,0.3194
3837.00,0.3194
3836.00,0.3193
3835.00,0.3192
3834.00,0.3192
3833.00,0.3192
3832.00,0.3194
3831.00,0.3195
3830.00,0.3195
3829.00,0.3194
3828.00,0.3194
3827.00,0.3193
3826.00,0.3192
3825.00,0.3191
3824.00,0.3189
3823.00,0.3187
3822.00,0.3186
3821.00,0.3185
3820.00,0.3183
3819.00,0.3179
3818.00,0.3176
3817.00,0.3175
3816.00,0.3176
3815.00,0.3178
3814.00,0.3178
3813.00,0.3177
3812.00,0.3175
3811.00,0.3172
3810.00,0.3170
3809.00,0.3167
3808.00,0.3164
3807.00,0.3162
3806.00,0.3159
3805.00,0.3155
3804.00,0.3152
3803.00,0.3149
3802.00,0.3149
3801.00,0.3150
3800.00,0.3149
3799.00,0.3147
3798.00,0.3145
3797.00,0.3145
3796.00,0.3147
3795.00,0.3148
3794.00,0.3149
3793.00,0.3148
3792.00,0.3147
3791.00,0.3146
3790.00,0.3145
3789.00,0.3143
3788.00,0.3141
3787.00,0.3139
3786.00,0.3137
3785.00,0.3136
3784.00,0.3134
3783.00,0.3132
3782.00,0.3130
3781.00,0.3128
3780.00,0.3126
3779.00,0.3124
3778.00,0.3123
3777.00,0.3121
3776.00,0.3119
3775.00,0.3117
3774.00,0.3115
3773.00,0.3113
3772.00,0.3111
3771.00,0.3108
3770.00,0.3107
3769.00,0.3105
3768.00,0.3103
3767.00,0.3101
3766.00,0.3100
3765.00,0.3100
3764.00,0.3100
3763.00,0.3099
3762.00,0.3097
3761.00,0.3096
3760.00,0.3096
3759.00,0.3095
3758.00,0.3093
3757.00,0.3091
3756.00,0.3087
3755.00,0.3083
3754.00,0.3078
3753.00,0.3074
3752.00,0.3071
3751.00,0.3070
3750.00,0.3069
3749.00,0.3067
3748.00,0.3063
3747.00,0.3059
3746.00,0.3056
3745.00,0.3058
3744.00,0.3060
3743.00,0.3061
3742.00,0.3059
3741.00,0.3058
3740.00,0.3057
3739.00,0.3057
3738.00,0.3055
3737.00,0.3053
3736.00,0.3050
3735.00,0.3048
3734.00,0.3046
3733.00,0.3046
3732.00,0.3048
3731.00,0.3049
3730.00,0.3049
3729.00,0.3048
3728.00,0.3048
3727.00,0.3048
3726.00,0.3048
3725.00,0.3048
3724.00,0.3047
3723.00,0.3046
3722.00,0.3046
3721.00,0.3046
3720.00,0.3046
3719.00,0.3045
3718.00,0.3044
3717.00,0.3043
3716.00,0.3041
3715.00,0.3038
3714.00,0.3036
3713.00,0.3035
3712.00,0.3034
3711.00,0.3033
3710.00,0.3033
3709.00,0.3033
3708.00,0.3034
3707.00,0.3035
3706.00,0.3036
3705.00,0.3036
3704.00,0.3036
3703.00,0.3037
3702.00,0.3037
3701.00,0.3037
3700.00,0.3037
3699.00,0.3036
3698.00,0.3036
3697.00,0.3038
3696.00,0.3039
3695.00,0.3040
3694.00,0.3039
3693.00,0.3037
3692.00,0.3034
3691.00,0.3032
3690.00,0.3032
3689.00,0.3033
3688.00,0.3036
3687.00,0.3038
3686.00,0.3040
3685.00,0.3041
3684.00,0.3043
3683.00,0.3045
3682.00,0.3045
3681.00,0.3043
3680.00,0.3041
3679.00,0.3037
3678.00,0.3032
3677.00,0.3029
3676.00,0.3028
3675.00,0.3028
3674.00,0.3027
3673.00,0.3026
3672.00,0.3025
3671.00,0.3027
3670.00,0.3031
3669.00,0.3037
3668.00,0.3041
3667.00,0.3044
3666.00,0.3049
3665.00,0.3054
3664.00,0.3062
3663.00,0.3070
3662.00,0.3079
3661.00,0.3089
3660.00,0.3100
3659.00,0.3113
3658.00,0.3131
3657.00,0.3155
3656.00,0.3182
3655.00,0.3209
3654.00,0.3234
3653.00,0.3255
3652.00,0.3275
3651.00,0.3292
3650.00,0.3304
3649.00,0.3309
3648.00,0.3305
3647.00,0.3295
3646.00,0.3281
3645.00,0.3264
3644.00,0.3248
3643.00,0.3231
3642.00,0.3215
3641.00,0.3199
3640.00,0.3184
3639.00,0.3171
3638.00,0.3159
3637.00,0.3148
3636.00,0.3140
3635.00,0.3132
3634.00,0.3125
3633.00,0.3119
3632.00,0.3112
3631.00,0.3105
3630.00,0.3101
3629.00,0.3100
3628.00,0.3100
3627.00,0.3101
3626.00,0.3102
3625.00,0.3103
3624.00,0.3105
3623.00,0.3105
3622.00,0.3103
3621.00,0.3100
3620.00,0.3095
3619.00,0.3091
3618.00,0.3087
3617.00,0.3083
3616.00,0.3079
3615.00,0.3077
3614.00,0.3075
3613.00,0.3074
3612.00,0.3073
3611.00,0.3072
3610.00,0.3071
3609.00,0.3071
3608.00,0.3072
3607.00,0.3073
3606.00,0.3072
3605.00,0.3070
3604.00,0.3067
3603.00,0.3062
3602.00,0.3057
3601.00,0.3050
3600.00,0.3041
3599.00,0.3032
3598.00,0.3023
3597.00,0.3013
3596.00,0.3003
3595.00,0.2994
3594.00,0.2986
3593.00,0.2978
3592.00,0.2971
3591.00,0.2965
3590.00,0.2959
3589.00,0.2953
3588.00,0.2949
3587.00,0.2946
3586.00,0.2944
3585.00,0.2943
3584.00,0.2942
3583.00,0.2941
3582.00,0.2941
3581.00,0.2940
3580.00,0.2940
3579.00,0.2939
3578.00,0.2937
3577.00,0.2936
3576.00,0.2936
3575.00,0.2936
3574.00,0.2936
3573.00,0.2935
3572.00,0.2934
3571.00,0.2931
3570.00,0.2928
3569.00,0.2926
3568.00,0.2924
3567.00,0.2924
3566.00,0.2924
3565.00,0.2924
3564.00,0.2924
3563.00,0.2925
3562.00,0.2926
3561.00,0.2927
3560.00,0.2928
3559.00,0.2929
3558.00,0.2930
3557.00,0.2930
3556.00,0.2931
3555.00,0.2932
3554.00,0.2934
3553.00,0.2936
3552.00,0.2938
3551.00,0.2940
3550.00,0.2942
3549.00,0.2944
3548.00,0.2946
3547.00,0.2948
3546.00,0.2950
3545.00,0.2952
3544.00,0.2955
3543.00,0.2957
3542.00,0.2961
3541.00,0.2964
3540.00,0.2967
3539.00,0.2970
3538.00,0.2973
3537.00,0.2975
3536.00,0.2977
3535.00,0.2979
3534.00,0.2981
3533.00,0.2982
3532.00,0.2984
3531.00,0.2986
3530.00,0.2987
3529.00,0.2989
3528.00,0.2990
3527.00,0.2992
3526.00,0.2995
3525.00,0.2997
3524.00,0.3000
3523.00,0.3003
3522.00,0.3006
3521.00,0.3009
3520.00,0.3012
3519.00,0.3016
3518.00,0.3020
3517.00,0.3024
3516.00,0.3028
3515.00,0.3032
3514.00,0.3036
3513.00,0.3040
3512.00,0.3043
3511.00,0.3047
3510.00,0.3051
3509.00,0.3055
3508.00,0.3059
3507.00,0.3064
3506.00,0.3068
3505.00,0.3072
3504.00,0.3077
3503.00,0.3082
3502.00,0.3086
3501.00,0.3091
3500.00,0.3096
3499.00,0.3101
3498.00,0.3105
3497.00,0.3110
3496.00,0.3114
3495.00,0.3120
3494.00,0.3127
3493.00,0.3133
3492.00,0.3139
3491.00,0.3145
3490.00,0.3151
3489.00,0.3157
3488.00,0.3162
3487.00,0.3167
3486.00,0.3173
3485.00,0.3178
3484.00,0.3184
3483.00,0.3190
3482.00,0.3196
3481.00,0.3201
3480.00,0.3207
3479.00,0.3212
3478.00,0.3216
3477.00,0.3221
3476.00,0.3226
3475.00,0.3231
3474.00,0.3236
3473.00,0.3242
3472.00,0.3248
3471.00,0.3254
3470.00,0.3260
3469.00,0.3266
3468.00,0.3272
3467.00,0.3277
3466.00,0.3282
3465.00,0.3288
3464.00,0.3294
3463.00,0.3300
3462.00,0.3306
3461.00,0.3312
3460.00,0.3319
3459.00,0.3327
3458.00,0.3334
3457.00,0.3340
3456.00,0.3347
3455.00,0.3354
3454.00,0.3362
3453.00,0.3370
3452.00,0.3379
3451.00,0.3388
3450.00,0.3397
3449.00,0.3407
3448.00,0.3417
3447.00,0.3429
3446.00,0.3442
3445.00,0.3455
3444.00,0.3469
3443.00,0.3483
3442.00,0.3497
3441.00,0.3511
3440.00,0.3524
3439.00,0.3537
3438.00,0.3549
3437.00,0.3560
3436.00,0.3571
3435.00,0.3580
3434.00,0.3588
3433.00,0.3595
3432.00,0.3602
3431.00,0.3608
3430.00,0.3615
3429.00,0.3622
3428.00,0.3629
3427.00,0.3635
3426.00,0.3642
3425.00,0.3648
3424.00,0.3655
3423.00,0.3662
3422.00,0.3670
3421.00,0.3677
3420.00,0.3686
3419.00,0.3694
3418.00,0.3702
3417.00,0.3711
3416.00,0.3721
3415.00,0.3731
3414.00,0.3741
3413.00,0.3752
3412.00,0.3762
3411.00,0.3773
3410.00,0.3783
3409.00,0.3794
3408.00,0.3805
3407.00,0.3817
3406.00,0.3830
3405.00,0.3842
3404.00,0.3855
3403.00,0.3867
3402.00,0.3879
3401.00,0.3892
3400.00,0.3904
3399.00,0.3917
3398.00,0.3929
3397.00,0.3941
3396.00,0.3953
3395.00,0.3966
3394.00,0.3979
3393.00,0.3992
3392.00,0.4004
3391.00,0.4016
3390.00,0.4028
3389.00,0.4041
3388.00,0.4054
3387.00,0.4066
3386.00,0.4079
3385.00,0.4092
3384.00,0.4105
3383.00,0.4118
3382.00,0.4132
3381.00,0.4146
3380.00,0.4160
3379.00,0.4175
3378.00,0.4191
3377.00,0.4206
3376.00,0.4222
3375.00,0.4237
3374.00,0.4253
3373.00,0.4269
3372.00,0.4286
3371.00,0.4303
3370.00,0.4320
3369.00,0.4337
3368.00,0.4354
3367.00,0.4371
3366.00,0.4389
3365.00,0.4408
3364.00,0.4426
3363.00,0.4445
3362.00,0.4465
3361.00,0.4484
3360.00,0.4503
3359.00,0.4522
3358.00,0.4541
3357.00,0.4561
3356.00,0.4581
3355.00,0.4601
3354.00,0.4620
3353.00,0.4639
3352.00,0.4657
3351.00,0.4676
3350.00,0.4694
3349.00,0.4712
3348.00,0.4730
3347.00,0.4746
3346.00,0.4762
3345.00,0.4779
3344.00,0.4795
3343.00,0.4810
3342.00,0.4824
3341.00,0.4837
3340.00,0.4850
3339.00,0.4862
3338.00,0.4872
3337.00,0.4882
3336.00,0.4890
3335.00,0.4897
3334.00,0.4904
3333.00,0.4911
3332.00,0.4917
3331.00,0.4922
3330.00,0.4925
3329.00,0.4926
3328.00,0.4926
3327.00,0.4925
3326.00,0.4923
3325.00,0.4921
3324.00,0.4919
3323.00,0.4915
3322.00,0.4911
3321.00,0.4906
3320.00,0.4900
3319.00,0.4893
3318.00,0.4886
3317.00,0.4878
3316.00,0.4870
3315.00,0.4861
3314.00,0.4852
3313.00,0.4843
3312.00,0.4834
3311.00,0.4825
3310.00,0.4816
3309.00,0.4806
3308.00,0.4796
3307.00,0.4785
3306.00,0.4775
3305.00,0.4765
3304.00,0.4755
3303.00,0.4746
3302.00,0.4737
3301.00,0.4729
3300.00,0.4720
3299.00,0.4712
3298.00,0.4705
3297.00,0.4698
3296.00,0.4691
3295.00,0.4685
3294.00,0.4678
3293.00,0.4673
3292.00,0.4668
3291.00,0.4665
3290.00,0.4662
3289.00,0.4658
3288.00,0.4655
3287.00,0.4653
3286.00,0.4651
3285.00,0.4649
3284.00,0.4649
3283.00,0.4648
3282.00,0.4648
3281.00,0.4649
3280.00,0.4650
3279.00,0.4652
3278.00,0.4653
3277.00,0.4655
3276.00,0.4658
3275.00,0.4660
3274.00,0.4664
3273.00,0.4667
3272.00,0.4671
3271.00,0.4674
3270.00,0.4678
3269.00,0.4682
3268.00,0.4686
3267.00,0.4691
3266.00,0.4696
3265.00,0.4700
3264.00,0.4705
3263.00,0.4710
3262.00,0.4714
3261.00,0.4718
3260.00,0.4722
3259.00,0.4726
3258.00,0.4730
3257.00,0.4734
3256.00,0.4738
3255.00,0.4742
3254.00,0.4746
3253.00,0.4750
3252.00,0.4753
3251.00,0.4756
3250.00,0.4759
3249.00,0.4762
3248.00,0.4765
3247.00,0.4768
3246.00,0.4769
3245.00,0.4771
3244.00,0.4772
3243.00,0.4774
3242.00,0.4774
3241.00,0.4774
3240.00,0.4774
3239.00,0.4774
3238.00,0.4774
3237.00,0.4773
3236.00,0.4772
3235.00,0.4770
3234.00,0.4768
3233.00,0.4765
3232.00,0.4763
3231.00,0.4759
3230.00,0.4756
3229.00,0.4752
3228.00,0.4749
3227.00,0.4745
3226.00,0.4741
3225.00,0.4737
3224.00,0.4733
3223.00,0.4728
3222.00,0.4724
3221.00,0.4719
3220.00,0.4714
3219.00,0.4709
3218.00,0.4704
3217.00,0.4699
3216.00,0.4694
3215.00,0.4689
3214.00,0.4683
3213.00,0.4677
3212.00,0.4672
3211.00,0.4666
3210.00,0.4661
3209.00,0.4657
3208.00,0.4652
3207.00,0.4648
3206.00,0.4644
3205.00,0.4638
3204.00,0.4633
3203.00,0.4627
3202.00,0.4622
3201.00,0.4616
3200.00,0.4611
3199.00,0.4605
3198.00,0.4598
3197.00,0.4592
3196.00,0.4586
3195.00,0.4580
3194.00,0.4575
3193.00,0.4568
3192.00,0.4561
3191.00,0.4554
3190.00,0.4546
3189.00,0.4540
3188.00,0.4533
3187.00,0.4527
3186.00,0.4520
3185.00,0.4513
3184.00,0.4506
3183.00,0.4498
3182.00,0.4491
3181.00,0.4484
3180.00,0.4477
3179.00,0.4469
3178.00,0.4460
3177.00,0.4451
3176.00,0.4442
3175.00,0.4433
3174.00,0.4425
3173.00,0.4417
3172.00,0.4410
3171.00,0.4402
3170.00,0.4394
3169.00,0.4385
3168.00,0.4376
3167.00,0.4366
3166.00,0.4357
3165.00,0.4348
3164.00,0.4339
3163.00,0.4330
3162.00,0.4321
3161.00,0.4312
3160.00,0.4304
3159.00,0.4296
3158.00,0.4289
3157.00,0.4281
3156.00,0.4274
3155.00,0.4266
3154.00,0.4259
3153.00,0.4252
3152.00,0.4245
3151.00,0.4239
3150.00,0.4232
3149.00,0.4226
3148.00,0.4220
3147.00,0.4214
3146.00,0.4208
3145.00,0.4202
3144.00,0.4196
3143.00,0.4190
3142.00,0.4185
3141.00,0.4181
3140.00,0.4177
3139.00,0.4172
3138.00,0.4168
3137.00,0.4164
3136.00,0.4161
3135.00,0.4157
3134.00,0.4153
3133.00,0.4150
3132.00,0.4146
3131.00,0.4143
3130.00,0.4141
3129.00,0.4138
3128.00,0.4137
3127.00,0.4135
3126.00,0.4134
3125.00,0.4134
3124.00,0.4133
3123.00,0.4132
3122.00,0.4133
3121.00,0.4134
3120.00,0.4136
3119.00,0.4139
3118.00,0.4141
3117.00,0.4144
3116.00,0.4148
3115.00,0.4151
3114.00,0.4156
3113.00,0.4160
3112.00,0.4165
3111.00,0.4171
3110.00,0.4177
3109.00,0.4184
3108.00,0.4192
3107.00,0.4200
3106.00,0.4208
3105.00,0.4218
3104.00,0.4227
3103.00,0.4237
3102.00,0.4246
3101.00,0.4256
3100.00,0.4265
3099.00,0.4275
3098.00,0.4285
3097.00,0.4296
3096.00,0.4307
3095.00,0.4319
3094.00,0.4332
3093.00,0.4346
3092.00,0.4361
3091.00,0.4377
3090.00,0.4394
3089.00,0.4412
3088.00,0.4431
3087.00,0.4452
3086.00,0.4473
3085.00,0.4496
3084.00,0.4520
3083.00,0.4546
3082.00,0.4572
3081.00,0.4599
3080.00,0.4628
3079.00,0.4659
3078.00,0.4691
3077.00,0.4724
3076.00,0.4759
3075.00,0.4795
3074.00,0.4832
3073.00,0.4869
3072.00,0.4906
3071.00,0.4944
3070.00,0.4981
3069.00,0.5020
3068.00,0.5058
3067.00,0.5097
3066.00,0.5135
3065.00,0.5172
3064.00,0.5208
3063.00,0.5244
3062.00,0.5278
3061.00,0.5311
3060.00,0.5343
3059.00,0.5374
3058.00,0.5406
3057.00,0.5438
3056.00,0.5470
3055.00,0.5503
3054.00,0.5536
3053.00,0.5569
3052.00,0.5603
3051.00,0.5638
3050.00,0.5674
3049.00,0.5711
3048.00,0.5750
3047.00,0.5789
3046.00,0.5829
3045.00,0.5870
3044.00,0.5912
3043.00,0.5956
3042.00,0.6000
3041.00,0.6046
3040.00,0.6092
3039.00,0.6139
3038.00,0.6189
3037.00,0.6242
3036.00,0.6297
3035.00,0.6355
3034.00,0.6416
3033.00,0.6479
3032.00,0.6547
3031.00,0.6617
3030.00,0.6689
3029.00,0.6763
3028.00,0.6839
3027.00,0.6919
3026.00,0.7002
3025.00,0.7089
3024.00,0.7177
3023.00,0.7266
3022.00,0.7357
3021.00,0.7451
3020.00,0.7549
3019.00,0.7650
3018.00,0.7754
3017.00,0.7860
3016.00,0.7968
3015.00,0.8080
3014.00,0.8195
3013.00,0.8317
3012.00,0.8444
3011.00,0.8578
3010.00,0.8720
3009.00,0.8869
3008.00,0.9026
3007.00,0.9191
3006.00,0.9363
3005.00,0.9542
3004.00,0.9727
3003.00,0.9917
3002.00,1.0114
3001.00,1.0318
3000.00,1.0532
2999.00,1.0760
2998.00,1.1003
2997.00,1.1265
2996.00,1.1549
2995.00,1.1859
2994.00,1.2198
2993.00,1.2571
2992.00,1.2981
2991.00,1.3432
2990.00,1.3931
2989.00,1.4483
2988.00,1.5094
2987.00,1.5767
2986.00,1.6506
2985.00,1.7323
2984.00,1.8232
2983.00,1.9251
2982.00,2.0388
2981.00,2.1633
2980.00,2.2966
2979.00,2.4391
2978.00,2.5942
2977.00,2.7662
2976.00,2.9562
2975.00,3.1583
2974.00,3.3515
2973.00,3.4963
2972.00,3.5790
2971.00,3.6629
2970.00,3.8270
2969.00,4.1303
2968.00,4.7002
2967.00,4.6762
2966.00,4.3341
2965.00,4.0801
2964.00,3.9803
2963.00,3.9573
2962.00,4.0163
2961.00,4.2109
2960.00,4.5979
2959.00,5.0762
2958.00,5.2996
2957.00,4.9389
2956.00,4.5364
2955.00,4.2789
2954.00,4.1411
2953.00,4.1731
2952.00,4.2819
2951.00,4.3305
2950.00,4.1853
2949.00,3.9573
2948.00,3.7987
2947.00,3.7563
2946.00,3.8632
2945.00,4.1884
2944.00,4.3433
2943.00,4.1732
2942.00,4.0653
2941.00,4.3140
2940.00,4.5161
2939.00,4.2199
2938.00,4.0098
2937.00,3.9584
2936.00,4.0048
2935.00,4.0078
2934.00,4.0293
2933.00,4.1367
2932.00,4.3050
2931.00,4.3756
2930.00,4.2940
2929.00,4.3486
2928.00,4.7613
2927.00,4.3760
2926.00,4.0937
2925.00,3.8727
2924.00,3.7997
2923.00,3.7269
2922.00,3.7072
2921.00,3.7710
2920.00,3.8669
2919.00,3.9872
2918.00,4.1297
2917.00,4.1193
2916.00,4.0751
2915.00,4.0847
2914.00,4.1847
2913.00,4.1236
2912.00,4.0026
2911.00,3.9729
2910.00,4.0110
2909.00,4.1066
2908.00,4.2877
2907.00,4.4540
2906.00,4.4587
2905.00,4.3911
2904.00,4.3245
2903.00,4.1597
2902.00,3.9821
2901.00,3.8942
2900.00,3.8800
2899.00,3.8645
2898.00,3.8232
2897.00,3.8253
2896.00,3.9366
2895.00,4.1504
2894.00,4.2398
2893.00,4.0894
2892.00,3.9305
2891.00,3.8534
2890.00,3.8601
2889.00,3.9854
2888.00,4.2300
2887.00,4.2005
2886.00,4.1061
2885.00,4.1113
2884.00,4.3537
2883.00,4.5984
2882.00,4.6227
2881.00,4.4632
2880.00,4.2959
2879.00,4.2008
2878.00,4.1896
2877.00,4.1855
2876.00,4.1618
2875.00,3.9647
2874.00,3.7640
2873.00,3.6683
2872.00,3.6927
2871.00,3.7716
2870.00,3.8269
2869.00,3.8398
2868.00,3.8530
2867.00,3.9091
2866.00,4.0087
2865.00,4.1240
2864.00,4.2180
2863.00,4.2554
2862.00,4.2321
2861.00,4.1928
2860.00,4.1449
2859.00,4.1287
2858.00,4.1892
2857.00,4.1380
2856.00,3.9294
2855.00,3.7770
2854.00,3.7878
2853.00,3.9925
2852.00,4.2232
2851.00,4.2700
2850.00,4.2703
2849.00,4.4726
2848.00,4.5234
2847.00,4.1264
2846.00,3.8584
2845.00,3.7359
2844.00,3.7435
2843.00,3.8740
2842.00,4.0849
2841.00,4.2155
2840.00,4.1696
2839.00,4.0401
2838.00,3.7362
2837.00,3.3658
2836.00,3.0477
2835.00,2.7962
2834.00,2.5920
2833.00,2.4175
2832.00,2.2642
2831.00,2.1287
2830.00,2.0094
2829.00,1.9042
2828.00,1.8108
2827.00,1.7273
2826.00,1.6521
2825.00,1.5839
2824.00,1.5220
2823.00,1.4657
2822.00,1.4141
2821.00,1.3664
2820.00,1.3221
2819.00,1.2813
2818.00,1.2434
2817.00,1.2082
2816.00,1.1752
2815.00,1.1443
2814.00,1.1155
2813.00,1.0885
2812.00,1.0629
2811.00,1.0386
2810.00,1.0154
2809.00,0.9933
2808.00,0.9721
2807.00,0.9521
2806.00,0.9331
2805.00,0.9150
2804.00,0.8977
2803.00,0.8810
2802.00,0.8648
2801.00,0.8492
2800.00,0.8344
2799.00,0.8203
2798.00,0.8069
2797.00,0.7940
2796.00,0.7815
2795.00,0.7694
2794.00,0.7577
2793.00,0.7463
2792.00,0.7352
2791.00,0.7244
2790.00,0.7140
2789.00,0.7038
2788.00,0.6939
2787.00,0.6841
2786.00,0.6745
2785.00,0.6650
2784.00,0.6557
2783.00,0.6468
2782.00,0.6382
2781.00,0.6300
2780.00,0.6220
2779.00,0.6144
2778.00,0.6070
2777.00,0.6001
2776.00,0.5935
2775.00,0.5874
2774.00,0.5816
2773.00,0.5762
2772.00,0.5712
2771.00,0.5667
2770.00,0.5625
2769.00,0.5587
2768.00,0.5553
2767.00,0.5522
2766.00,0.5494
2765.00,0.5470
2764.00,0.5449
2763.00,0.5431
2762.00,0.5415
2761.00,0.5401
2760.00,0.5388
2759.00,0.5376
2758.00,0.5366
2757.00,0.5356
2756.00,0.5346
2755.00,0.5337
2754.00,0.5330
2753.00,0.5324
2752.00,0.5320
2751.00,0.5319
2750.00,0.5320
2749.00,0.5323
2748.00,0.5328
2747.00,0.5335
2746.00,0.5343
2745.00,0.5353
2744.00,0.5365
2743.00,0.5380
2742.00,0.5399
2741.00,0.5422
2740.00,0.5448
2739.00,0.5479
2738.00,0.5515
2737.00,0.5556
2736.00,0.5600
2735.00,0.5647
2734.00,0.5695
2733.00,0.5743
2732.00,0.5785
2731.00,0.5819
2730.00,0.5841
2729.00,0.5851
2728.00,0.5850
2727.00,0.5839
2726.00,0.5822
2725.00,0.5799
2724.00,0.5774
2723.00,0.5747
2722.00,0.5719
2721.00,0.5690
2720.00,0.5660
2719.00,0.5627
2718.00,0.5592
2717.00,0.5555
2716.00,0.5516
2715.00,0.5477
2714.00,0.5436
2713.00,0.5397
2712.00,0.5360
2711.00,0.5325
2710.00,0.5294
2709.00,0.5267
2708.00,0.5243
2707.00,0.5223
2706.00,0.5205
2705.00,0.5190
2704.00,0.5179
2703.00,0.5170
2702.00,0.5165
2701.00,0.5162
2700.00,0.5161
2699.00,0.5162
2698.00,0.5166
2697.00,0.5173
2696.00,0.5180
2695.00,0.5189
2694.00,0.5200
2693.00,0.5213
2692.00,0.5226
2691.00,0.5240
2690.00,0.5253
2689.00,0.5266
2688.00,0.5278
2687.00,0.5288
2686.00,0.5297
2685.00,0.5304
2684.00,0.5310
2683.00,0.5315
2682.00,0.5319
2681.00,0.5322
2680.00,0.5325
2679.00,0.5327
2678.00,0.5329
2677.00,0.5332
2676.00,0.5335
2675.00,0.5338
2674.00,0.5341
2673.00,0.5343
2672.00,0.5342
2671.00,0.5339
2670.00,0.5332
2669.00,0.5322
2668.00,0.5310
2667.00,0.5294
2666.00,0.5275
2665.00,0.5253
2664.00,0.5231
2663.00,0.5207
2662.00,0.5183
2661.00,0.5159
2660.00,0.5134
2659.00,0.5109
2658.00,0.5085
2657.00,0.5062
2656.00,0.5039
2655.00,0.5018
2654.00,0.4998
2653.00,0.4979
2652.00,0.4961
2651.00,0.4944
2650.00,0.4928
2649.00,0.4911
2648.00,0.4894
2647.00,0.4878
2646.00,0.4863
2645.00,0.4849
2644.00,0.4834
2643.00,0.4821
2642.00,0.4807
2641.00,0.4794
2640.00,0.4782
2639.00,0.4770
2638.00,0.4760
2637.00,0.4750
2636.00,0.4740
2635.00,0.4730
2634.00,0.4721
2633.00,0.4711
2632.00,0.4700
2631.00,0.4690
2630.00,0.4680
2629.00,0.4671
2628.00,0.4662
2627.00,0.4652
2626.00,0.4641
2625.00,0.4631
2624.00,0.4620
2623.00,0.4610
2622.00,0.4600
2621.00,0.4589
2620.00,0.4578
2619.00,0.4567
2618.00,0.4557
2617.00,0.4547
2616.00,0.4537
2615.00,0.4527
2614.00,0.4517
2613.00,0.4506
2612.00,0.4496
2611.00,0.4486
2610.00,0.4477
2609.00,0.4467
2608.00,0.4458
2607.00,0.4449
2606.00,0.4440
2605.00,0.4430
2604.00,0.4420
2603.00,0.4409
2602.00,0.4398
2601.00,0.4386
2600.00,0.4374
2599.00,0.4360
2598.00,0.4346
2597.00,0.4332
2596.00,0.4316
2595.00,0.4300
2594.00,0.4283
2593.00,0.4266
2592.00,0.4250
2591.00,0.4234
2590.00,0.4218
2589.00,0.4201
2588.00,0.4185
2587.00,0.4169
2586.00,0.4152
2585.00,0.4135
2584.00,0.4118
2583.00,0.4101
2582.00,0.4084
2581.00,0.4067
2580.00,0.4050
2579.00,0.4033
2578.00,0.4017
2577.00,0.4002
2576.00,0.3985
2575.00,0.3969
2574.00,0.3953
2573.00,0.3938
2572.00,0.3924
2571.00,0.3910
2570.00,0.3897
2569.00,0.3884
2568.00,0.3871
2567.00,0.3858
2566.00,0.3845
2565.00,0.3832
2564.00,0.3818
2563.00,0.3805
2562.00,0.3792
2561.00,0.3779
2560.00,0.3766
2559.00,0.3752
2558.00,0.3740
2557.00,0.3727
2556.00,0.3715
2555.00,0.3703
2554.00,0.3691
2553.00,0.3679
2552.00,0.3669
2551.00,0.3659
2550.00,0.3649
2549.00,0.3640
2548.00,0.3632
2547.00,0.3623
2546.00,0.3615
2545.00,0.3607
2544.00,0.3598
2543.00,0.3590
2542.00,0.3582
2541.00,0.3574
2540.00,0.3567
2539.00,0.3561
2538.00,0.3555
2537.00,0.3549
2536.00,0.3543
2535.00,0.3537
2534.00,0.3531
2533.00,0.3525
2532.00,0.3517
2531.00,0.3509
2530.00,0.3500
2529.00,0.3491
2528.00,0.3481
2527.00,0.3471
2526.00,0.3460
2525.00,0.3449
2524.00,0.3438
2523.00,0.3426
2522.00,0.3414
2521.00,0.3403
2520.00,0.3393
2519.00,0.3383
2518.00,0.3374
2517.00,0.3365
2516.00,0.3356
2515.00,0.3348
2514.00,0.3339
2513.00,0.3330
2512.00,0.3322
2511.00,0.3314
2510.00,0.3307
2509.00,0.3301
2508.00,0.3296
2507.00,0.3291
2506.00,0.3285
2505.00,0.3280
2504.00,0.3276
2503.00,0.3273
2502.00,0.3270
2501.00,0.3268
2500.00,0.3266
2499.00,0.3263
2498.00,0.3261
2497.00,0.3258
2496.00,0.3255
2495.00,0.3252
2494.00,0.3249
2493.00,0.3245
2492.00,0.3241
2491.00,0.3236
2490.00,0.3231
2489.00,0.3226
2488.00,0.3220
2487.00,0.3215
2486.00,0.3209
2485.00,0.3204
2484.00,0.3198
2483.00,0.3192
2482.00,0.3187
2481.00,0.3182
2480.00,0.3176
2479.00,0.3171
2478.00,0.3167
2477.00,0.3162
2476.00,0.3157
2475.00,0.3153
2474.00,0.3148
2473.00,0.3144
2472.00,0.3141
2471.00,0.3138
2470.00,0.3135
2469.00,0.3132
2468.00,0.3130
2467.00,0.3127
2466.00,0.3125
2465.00,0.3123
2464.00,0.3121
2463.00,0.3118
2462.00,0.3116
2461.00,0.3113
2460.00,0.3111
2459.00,0.3109
2458.00,0.3108
2457.00,0.3106
2456.00,0.3105
2455.00,0.3103
2454.00,0.3101
2453.00,0.3099
2452.00,0.3098
2451.00,0.3097
2450.00,0.3097
2449.00,0.3096
2448.00,0.3095
2447.00,0.3094
2446.00,0.3094
2445.00,0.3093
2444.00,0.3094
2443.00,0.3094
2442.00,0.3094
2441.00,0.3095
2440.00,0.3096
2439.00,0.3097
2438.00,0.3098
2437.00,0.3099
2436.00,0.3100
2435.00,0.3100
2434.00,0.3101
2433.00,0.3102
2432.00,0.3103
2431.00,0.3104
2430.00,0.3105
2429.00,0.3106
2428.00,0.3108
2427.00,0.3109
2426.00,0.3110
2425.00,0.3111
2424.00,0.3112
2423.00,0.3113
2422.00,0.3114
2421.00,0.3115
2420.00,0.3116
2419.00,0.3117
2418.00,0.3118
2417.00,0.3119
2416.00,0.3119
2415.00,0.3120
2414.00,0.3120
2413.00,0.3121
2412.00,0.3121
2411.00,0.3122
2410.00,0.3122
2409.00,0.3123
2408.00,0.3124
2407.00,0.3123
2406.00,0.3123
2405.00,0.3123
2404.00,0.3124
2403.00,0.3124
2402.00,0.3125
2401.00,0.3125
2400.00,0.3125
2399.00,0.3125
2398.00,0.3125
2397.00,0.3125
2396.00,0.3125
2395.00,0.3125
2394.00,0.3125
2393.00,0.3125
2392.00,0.3126
2391.00,0.3126
2390.00,0.3126
2389.00,0.3127
2388.00,0.3127
2387.00,0.3128
2386.00,0.3129
2385.00,0.3130
2384.00,0.3132
2383.00,0.3133
2382.00,0.3134
2381.00,0.3136
2380.00,0.3138
2379.00,0.3140
2378.00,0.3141
2377.00,0.3142
2376.00,0.3142
2375.00,0.3142
2374.00,0.3140
2373.00,0.3138
2372.00,0.3135
2371.00,0.3133
2370.00,0.3132
2369.00,0.3132
2368.00,0.3132
2367.00,0.3132
2366.00,0.3132
2365.00,0.3132
2364.00,0.3133
2363.00,0.3132
2362.00,0.3131
2361.00,0.3130
2360.00,0.3129
2359.00,0.3128
2358.00,0.3126
2357.00,0.3125
2356.00,0.3123
2355.00,0.3123
2354.00,0.3124
2353.00,0.3125
2352.00,0.3126
2351.00,0.3126
2350.00,0.3123
2349.00,0.3120
2348.00,0.3116
2347.00,0.3112
2346.00,0.3112
2345.00,0.3113
2344.00,0.3113
2343.00,0.3112
2342.00,0.3110
2341.00,0.3108
2340.00,0.3106
2339.00,0.3105
2338.00,0.3104
2337.00,0.3104
2336.00,0.3103
2335.00,0.3101
2334.00,0.3098
2333.00,0.3096
2332.00,0.3094
2331.00,0.3092
2330.00,0.3089
2329.00,0.3087
2328.00,0.3084
2327.00,0.3080
2326.00,0.3077
2325.00,0.3075
2324.00,0.3073
2323.00,0.3071
2322.00,0.3070
2321.00,0.3068
2320.00,0.3065
2319.00,0.3062
2318.00,0.3058
2317.00,0.3054
2316.00,0.3050
2315.00,0.3048
2314.00,0.3045
2313.00,0.3043
2312.00,0.3040
2311.00,0.3037
2310.00,0.3033
2309.00,0.3029
2308.00,0.3025
2307.00,0.3021
2306.00,0.3018
2305.00,0.3014
2304.00,0.3010
2303.00,0.3007
2302.00,0.3005
2301.00,0.3003
2300.00,0.3000
2299.00,0.2998
2298.00,0.2996
2297.00,0.2993
2296.00,0.2991
2295.00,0.2988
2294.00,0.2985
2293.00,0.2981
2292.00,0.2977
2291.00,0.2974
2290.00,0.2970
2289.00,0.2966
2288.00,0.2963
2287.00,0.2959
2286.00,0.2955
2285.00,0.2952
2284.00,0.2948
2283.00,0.2945
2282.00,0.2941
2281.00,0.2937
2280.00,0.2933
2279.00,0.2929
2278.00,0.2925
2277.00,0.2922
2276.00,0.2918
2275.00,0.2916
2274.00,0.2913
2273.00,0.2910
2272.00,0.2908
2271.00,0.2906
2270.00,0.2904
2269.00,0.2903
2268.00,0.2901
2267.00,0.2900
2266.00,0.2899
2265.00,0.2898
2264.00,0.2897
2263.00,0.2896
2262.00,0.2894
2261.00,0.2891
2260.00,0.2889
2259.00,0.2886
2258.00,0.2884
2257.00,0.2881
2256.00,0.2877
2255.00,0.2874
2254.00,0.2870
2253.00,0.2867
2252.00,0.2865
2251.00,0.2862
2250.00,0.2860
2249.00,0.2857
2248.00,0.2855
2247.00,0.2852
2246.00,0.2850
2245.00,0.2847
2244.00,0.2845
2243.00,0.2843
2242.00,0.2841
2241.00,0.2840
2240.00,0.2838
2239.00,0.2836
2238.00,0.2834
2237.00,0.2832
2236.00,0.2831
2235.00,0.2829
2234.00,0.2828
2233.00,0.2827
2232.00,0.2826
2231.00,0.2825
2230.00,0.2824
2229.00,0.2823
2228.00,0.2823
2227.00,0.2821
2226.00,0.2820
2225.00,0.2818
2224.00,0.2817
2223.00,0.2815
2222.00,0.2814
2221.00,0.2813
2220.00,0.2812
2219.00,0.2811
2218.00,0.2809
2217.00,0.2808
2216.00,0.2806
2215.00,0.2805
2214.00,0.2805
2213.00,0.2804
2212.00,0.2804
2211.00,0.2804
2210.00,0.2804
2209.00,0.2804
2208.00,0.2804
2207.00,0.2804
2206.00,0.2804
2205.00,0.2805
2204.00,0.2805
2203.00,0.2805
2202.00,0.2805
2201.00,0.2806
2200.00,0.2807
2199.00,0.2808
2198.00,0.2809
2197.00,0.2810
2196.00,0.2811
2195.00,0.2811
2194.00,0.2812
2193.00,0.2813
2192.00,0.2814
2191.00,0.2815
2190.00,0.2815
2189.00,0.2815
2188.00,0.2816
2187.00,0.2816
2186.00,0.2816
2185.00,0.2816
2184.00,0.2815
2183.00,0.2814
2182.00,0.2814
2181.00,0.2813
2180.00,0.2812
2179.00,0.2811
2178.00,0.2810
2177.00,0.2810
2176.00,0.2809
2175.00,0.2808
2174.00,0.2808
2173.00,0.2808
2172.00,0.2808
2171.00,0.2808
2170.00,0.2807
2169.00,0.2807
2168.00,0.2807
2167.00,0.2806
2166.00,0.2806
2165.00,0.2806
2164.00,0.2806
2163.00,0.2805
2162.00,0.2804
2161.00,0.2802
2160.00,0.2801
2159.00,0.2800
2158.00,0.2798
2157.00,0.2797
2156.00,0.2796
2155.00,0.2795
2154.00,0.2793
2153.00,0.2791
2152.00,0.2790
2151.00,0.2788
2150.00,0.2785
2149.00,0.2782
2148.00,0.2779
2147.00,0.2774
2146.00,0.2770
2145.00,0.2765
2144.00,0.2759
2143.00,0.2753
2142.00,0.2747
2141.00,0.2741
2140.00,0.2736
2139.00,0.2732
2138.00,0.2728
2137.00,0.2725
2136.00,0.2722
2135.00,0.2720
2134.00,0.2717
2133.00,0.2715
2132.00,0.2713
2131.00,0.2711
2130.00,0.2709
2129.00,0.2708
2128.00,0.2706
2127.00,0.2705
2126.00,0.2704
2125.00,0.2702
2124.00,0.2701
2123.00,0.2700
2122.00,0.2698
2121.00,0.2697
2120.00,0.2696
2119.00,0.2695
2118.00,0.2693
2117.00,0.2692
2116.00,0.2691
2115.00,0.2690
2114.00,0.2689
2113.00,0.2687
2112.00,0.2686
2111.00,0.2685
2110.00,0.2683
2109.00,0.2682
2108.00,0.2680
2107.00,0.2679
2106.00,0.2678
2105.00,0.2677
2104.00,0.2677
2103.00,0.2677
2102.00,0.2677
2101.00,0.2676
2100.00,0.2676
2099.00,0.2676
2098.00,0.2676
2097.00,0.2675
2096.00,0.2675
2095.00,0.2674
2094.00,0.2674
2093.00,0.2674
2092.00,0.2674
2091.00,0.2674
2090.00,0.2674
2089.00,0.2674
2088.00,0.2673
2087.00,0.2673
2086.00,0.2672
2085.00,0.2672
2084.00,0.2672
2083.00,0.2672
2082.00,0.2672
2081.00,0.2672
2080.00,0.2672
2079.00,0.2671
2078.00,0.2671
2077.00,0.2671
2076.00,0.2671
2075.00,0.2671
2074.00,0.2671
2073.00,0.2671
2072.00,0.2671
2071.00,0.2672
2070.00,0.2673
2069.00,0.2674
2068.00,0.2676
2067.00,0.2678
2066.00,0.2680
2065.00,0.2682
2064.00,0.2685
2063.00,0.2687
2062.00,0.2689
2061.00,0.2691
2060.00,0.2692
2059.00,0.2694
2058.00,0.2696
2057.00,0.2697
2056.00,0.2699
2055.00,0.2700
2054.00,0.2702
2053.00,0.2704
2052.00,0.2706
2051.00,0.2708
2050.00,0.2710
2049.00,0.2712
2048.00,0.2715
2047.00,0.2717
2046.00,0.2719
2045.00,0.2721
2044.00,0.2723
2043.00,0.2725
2042.00,0.2727
2041.00,0.2729
2040.00,0.2731
2039.00,0.2732
2038.00,0.2732
2037.00,0.2733
2036.00,0.2735
2035.00,0.2736
2034.00,0.2737
2033.00,0.2738
2032.00,0.2739
2031.00,0.2739
2030.00,0.2740
2029.00,0.2741
2028.00,0.2743
2027.00,0.2743
2026.00,0.2743
2025.00,0.2743
2024.00,0.2742
2023.00,0.2740
2022.00,0.2738
2021.00,0.2734
2020.00,0.2730
2019.00,0.2724
2018.00,0.2718
2017.00,0.2711
2016.00,0.2703
2015.00,0.2695
2014.00,0.2687
2013.00,0.2679
2012.00,0.2672
2011.00,0.2665
2010.00,0.2658
2009.00,0.2651
2008.00,0.2646
2007.00,0.2641
2006.00,0.2637
2005.00,0.2633
2004.00,0.2629
2003.00,0.2626
2002.00,0.2623
2001.00,0.2621
2000.00,0.2620
1999.00,0.2619
1998.00,0.2617
1997.00,0.2616
1996.00,0.2616
1995.00,0.2614
1994.00,0.2613
1993.00,0.2613
1992.00,0.2613
1991.00,0.2612
1990.00,0.2612
1989.00,0.2611
1988.00,0.2611
1987.00,0.2610
1986.00,0.2610
1985.00,0.2610
1984.00,0.2610
1983.00,0.2610
1982.00,0.2609
1981.00,0.2609
1980.00,0.2608
1979.00,0.2608
1978.00,0.2607
1977.00,0.2607
1976.00,0.2607
1975.00,0.2606
1974.00,0.2605
1973.00,0.2605
1972.00,0.2604
1971.00,0.2603
1970.00,0.2603
1969.00,0.2602
1968.00,0.2603
1967.00,0.2603
1966.00,0.2604
1965.00,0.2605
1964.00,0.2606
1963.00,0.2606
1962.00,0.2606
1961.00,0.2607
1960.00,0.2609
1959.00,0.2610
1958.00,0.2611
1957.00,0.2613
1956.00,0.2614
1955.00,0.2616
1954.00,0.2618
1953.00,0.2621
1952.00,0.2623
1951.00,0.2625
1950.00,0.2625
1949.00,0.2626
1948.00,0.2627
1947.00,0.2628
1946.00,0.2629
1945.00,0.2632
1944.00,0.2635
1943.00,0.2638
1942.00,0.2641
1941.00,0.2646
1940.00,0.2650
1939.00,0.2653
1938.00,0.2655
1937.00,0.2656
1936.00,0.2657
1935.00,0.2657
1934.00,0.2657
1933.00,0.2657
1932.00,0.2657
1931.00,0.2657
1930.00,0.2656
1929.00,0.2656
1928.00,0.2656
1927.00,0.2656
1926.00,0.2656
1925.00,0.2656
1924.00,0.2657
1923.00,0.2659
1922.00,0.2662
1921.00,0.2666
1920.00,0.2669
1919.00,0.2671
1918.00,0.2673
1917.00,0.2675
1916.00,0.2678
1915.00,0.2680
1914.00,0.2681
1913.00,0.2683
1912.00,0.2684
1911.00,0.2685
1910.00,0.2687
1909.00,0.2689
1908.00,0.2690
1907.00,0.2691
1906.00,0.2691
1905.00,0.2691
1904.00,0.2691
1903.00,0.2690
1902.00,0.2690
1901.00,0.2689
1900.00,0.2689
1899.00,0.2688
1898.00,0.2688
1897.00,0.2688
1896.00,0.2689
1895.00,0.2690
1894.00,0.2691
1893.00,0.2692
1892.00,0.2693
1891.00,0.2693
1890.00,0.2693
1889.00,0.2694
1888.00,0.2696
1887.00,0.2698
1886.00,0.2700
1885.00,0.2702
1884.00,0.2703
1883.00,0.2704
1882.00,0.2704
1881.00,0.2705
1880.00,0.2705
1879.00,0.2704
1878.00,0.2704
1877.00,0.2703
1876.00,0.2702
1875.00,0.2701
1874.00,0.2699
1873.00,0.2697
1872.00,0.2695
1871.00,0.2691
1870.00,0.2687
1869.00,0.2683
1868.00,0.2680
1867.00,0.2678
1866.00,0.2677
1865.00,0.2675
1864.00,0.2673
1863.00,0.2670
1862.00,0.2667
1861.00,0.2664
1860.00,0.2661
1859.00,0.2658
1858.00,0.2655
1857.00,0.2652
1856.00,0.2649
1855.00,0.2646
1854.00,0.2643
1853.00,0.2641
1852.00,0.2640
1851.00,0.2639
1850.00,0.2637
1849.00,0.2637
1848.00,0.2636
1847.00,0.2634
1846.00,0.2632
1845.00,0.2632
1844.00,0.2632
1843.00,0.2633
1842.00,0.2635
1841.00,0.2636
1840.00,0.2635
1839.00,0.2633
1838.00,0.2631
1837.00,0.2630
1836.00,0.2631
1835.00,0.2631
1834.00,0.2630
1833.00,0.2630
1832.00,0.2629
1831.00,0.2627
1830.00,0.2623
1829.00,0.2621
1828.00,0.2621
1827.00,0.2622
1826.00,0.2623
1825.00,0.2624
1824.00,0.2625
1823.00,0.2627
1822.00,0.2628
1821.00,0.2630
1820.00,0.2631
1819.00,0.2631
1818.00,0.2631
1817.00,0.2633
1816.00,0.2634
1815.00,0.2635
1814.00,0.2636
1813.00,0.2638
1812.00,0.2641
1811.00,0.2644
1810.00,0.2647
1809.00,0.2651
1808.00,0.2656
1807.00,0.2662
1806.00,0.2669
1805.00,0.2677
1804.00,0.2685
1803.00,0.2694
1802.00,0.2702
1801.00,0.2710
1800.00,0.2717
1799.00,0.2722
1798.00,0.2727
1797.00,0.2732
1796.00,0.2738
1795.00,0.2742
1794.00,0.2744
1793.00,0.2747
1792.00,0.2751
1791.00,0.2755
1790.00,0.2760
1789.00,0.2765
1788.00,0.2768
1787.00,0.2770
1786.00,0.2772
1785.00,0.2776
1784.00,0.2780
1783.00,0.2784
1782.00,0.2786
1781.00,0.2789
1780.00,0.2792
1779.00,0.2796
1778.00,0.2801
1777.00,0.2806
1776.00,0.2809
1775.00,0.2812
1774.00,0.2816
1773.00,0.2824
1772.00,0.2832
1771.00,0.2839
1770.00,0.2843
1769.00,0.2848
1768.00,0.2856
1767.00,0.2865
1766.00,0.2873
1765.00,0.2879
1764.00,0.2884
1763.00,0.2888
1762.00,0.2894
1761.00,0.2902
1760.00,0.2913
1759.00,0.2923
1758.00,0.2933
1757.00,0.2945
1756.00,0.2959
1755.00,0.2975
1754.00,0.2993
1753.00,0.3018
1752.00,0.3051
1751.00,0.3094
1750.00,0.3144
1749.00,0.3199
1748.00,0.3259
1747.00,0.3325
1746.00,0.3399
1745.00,0.3477
1744.00,0.3554
1743.00,0.3620
1742.00,0.3667
1741.00,0.3695
1740.00,0.3701
1739.00,0.3686
1738.00,0.3658
1737.00,0.3622
1736.00,0.3578
1735.00,0.3524
1734.00,0.3465
1733.00,0.3416
1732.00,0.3379
1731.00,0.3343
1730.00,0.3305
1729.00,0.3271
1728.00,0.3247
1727.00,0.3233
1726.00,0.3225
1725.00,0.3221
1724.00,0.3221
1723.00,0.3223
1722.00,0.3226
1721.00,0.3229
1720.00,0.3232
1719.00,0.3237
1718.00,0.3248
1717.00,0.3268
1716.00,0.3291
1715.00,0.3307
1714.00,0.3315
1713.00,0.3321
1712.00,0.3331
1711.00,0.3344
1710.00,0.3359
1709.00,0.3373
1708.00,0.3384
1707.00,0.3390
1706.00,0.3391
1705.00,0.3389
1704.00,0.3383
1703.00,0.3375
1702.00,0.3362
1701.00,0.3345
1700.00,0.3322
1699.00,0.3301
1698.00,0.3293
1697.00,0.3291
1696.00,0.3288
1695.00,0.3284
1694.00,0.3278
1693.00,0.3267
1692.00,0.3251
1691.00,0.3237
1690.00,0.3229
1689.00,0.3228
1688.00,0.3229
1687.00,0.3231
1686.00,0.3236
1685.00,0.3244
1684.00,0.3248
1683.00,0.3245
1682.00,0.3239
1681.00,0.3235
1680.00,0.3233
1679.00,0.3234
1678.00,0.3237
1677.00,0.3241
1676.00,0.3246
1675.00,0.3252
1674.00,0.3260
1673.00,0.3271
1672.00,0.3281
1671.00,0.3288
1670.00,0.3295
1669.00,0.3308
1668.00,0.3326
1667.00,0.3345
1666.00,0.3362
1665.00,0.3379
1664.00,0.3395
1663.00,0.3412
1662.00,0.3431
1661.00,0.3455
1660.00,0.3483
1659.00,0.3511
1658.00,0.3537
1657.00,0.3562
1656.00,0.3586
1655.00,0.3616
1654.00,0.3659
1653.00,0.3717
1652.00,0.3773
1651.00,0.3818
1650.00,0.3843
1649.00,0.3849
1648.00,0.3859
1647.00,0.3889
1646.00,0.3936
1645.00,0.3989
1644.00,0.4038
1643.00,0.4079
1642.00,0.4113
1641.00,0.4148
1640.00,0.4185
1639.00,0.4220
1638.00,0.4253
1637.00,0.4292
1636.00,0.4339
1635.00,0.4387
1634.00,0.4431
1633.00,0.4474
1632.00,0.4515
1631.00,0.4553
1630.00,0.4593
1629.00,0.4640
1628.00,0.4691
1627.00,0.4743
1626.00,0.4798
1625.00,0.4862
1624.00,0.4935
1623.00,0.5014
1622.00,0.5100
1621.00,0.5191
1620.00,0.5288
1619.00,0.5392
1618.00,0.5518
1617.00,0.5680
1616.00,0.5864
1615.00,0.6045
1614.00,0.6219
1613.00,0.6406
1612.00,0.6623
1611.00,0.6865
1610.00,0.7116
1609.00,0.7364
1608.00,0.7595
1607.00,0.7793
1606.00,0.7960
1605.00,0.8122
1604.00,0.8300
1603.00,0.8504
1602.00,0.8746
1601.00,0.9047
1600.00,0.9420
1599.00,0.9865
1598.00,1.0393
1597.00,1.1044
1596.00,1.1855
1595.00,1.2841
1594.00,1.4019
1593.00,1.5460
1592.00,1.7253
1591.00,1.9401
1590.00,2.1818
1589.00,2.4616
1588.00,2.8267
1587.00,3.2524
1586.00,3.4203
1585.00,3.5105
1584.00,3.8559
1583.00,3.9363
1582.00,3.8065
1581.00,3.6597
1580.00,4.0514
1579.00,3.5250
1578.00,2.8485
1577.00,2.4398
1576.00,2.1515
1575.00,1.9329
1574.00,1.7728
1573.00,1.6606
1572.00,1.5825
1571.00,1.5305
1570.00,1.5082
1569.00,1.5245
1568.00,1.5819
1567.00,1.6763
1566.00,1.8075
1565.00,1.9866
1564.00,2.2217
1563.00,2.4806
1562.00,2.6710
1561.00,2.7432
1560.00,2.6245
1559.00,2.2884
1558.00,1.9748
1557.00,1.7512
1556.00,1.5715
1555.00,1.4077
1554.00,1.2664
1553.00,1.1583
1552.00,1.0801
1551.00,1.0212
1550.00,0.9762
1549.00,0.9453
1548.00,0.9280
1547.00,0.9210
1546.00,0.9217
1545.00,0.9294
1544.00,0.9429
1543.00,0.9588
1542.00,0.9732
1541.00,0.9825
1540.00,0.9821
1539.00,0.9696
1538.00,0.9492
1537.00,0.9260
1536.00,0.9001
1535.00,0.8696
1534.00,0.8357
1533.00,0.8040
1532.00,0.7788
1531.00,0.7598
1530.00,0.7450
1529.00,0.7334
1528.00,0.7240
1527.00,0.7156
1526.00,0.7083
1525.00,0.7027
1524.00,0.6997
1523.00,0.6993
1522.00,0.7027
1521.00,0.7108
1520.00,0.7216
1519.00,0.7320
1518.00,0.7410
1517.00,0.7485
1516.00,0.7522
1515.00,0.7490
1514.00,0.7380
1513.00,0.7205
1512.00,0.6992
1511.00,0.6773
1510.00,0.6576
1509.00,0.6415
1508.00,0.6292
1507.00,0.6203
1506.00,0.6153
1505.00,0.6142
1504.00,0.6156
1503.00,0.6178
1502.00,0.6200
1501.00,0.6234
1500.00,0.6284
1499.00,0.6345
1498.00,0.6421
1497.00,0.6523
1496.00,0.6651
1495.00,0.6786
1494.00,0.6917
1493.00,0.7054
1492.00,0.7209
1491.00,0.7381
1490.00,0.7562
1489.00,0.7747
1488.00,0.7935
1487.00,0.8130
1486.00,0.8351
1485.00,0.8612
1484.00,0.8915
1483.00,0.9258
1482.00,0.9654
1481.00,1.0119
1480.00,1.0653
1479.00,1.1255
1478.00,1.1957
1477.00,1.2809
1476.00,1.3832
1475.00,1.5036
1474.00,1.6511
1473.00,1.8455
1472.00,2.1020
1471.00,2.4141
1470.00,2.7661
1469.00,3.1800
1468.00,3.6601
1467.00,3.8479
1466.00,3.9946
1465.00,3.9943
1464.00,3.8881
1463.00,4.1032
1462.00,4.2877
1461.00,3.8936
1460.00,3.7780
1459.00,4.1402
1458.00,4.1784
1457.00,3.9778
1456.00,3.9797
1455.00,3.9453
1454.00,3.9493
1453.00,3.9401
1452.00,3.9333
1451.00,3.9326
1450.00,3.8993
1449.00,4.0507
1448.00,4.1134
1447.00,3.9020
1446.00,3.7278
1445.00,3.7306
1444.00,3.7217
1443.00,3.5126
1442.00,3.3066
1441.00,3.1797
1440.00,3.0460
1439.00,2.8633
1438.00,2.6644
1437.00,2.4686
1436.00,2.2787
1435.00,2.1070
1434.00,1.9584
1433.00,1.8243
1432.00,1.6975
1431.00,1.5792
1430.00,1.4740
1429.00,1.3846
1428.00,1.3106
1427.00,1.2507
1426.00,1.2022
1425.00,1.1628
1424.00,1.1317
1423.00,1.1086
1422.00,1.0922
1421.00,1.0806
1420.00,1.0733
1419.00,1.0706
1418.00,1.0733
1417.00,1.0814
1416.00,1.0947
1415.00,1.1125
1414.00,1.1332
1413.00,1.1542
1412.00,1.1719
1411.00,1.1828
1410.00,1.1844
1409.00,1.1763
1408.00,1.1590
1407.00,1.1329
1406.00,1.0991
1405.00,1.0593
1404.00,1.0171
1403.00,0.9764
1402.00,0.9394
1401.00,0.9061
1400.00,0.8766
1399.00,0.8519
1398.00,0.8332
1397.00,0.8198
1396.00,0.8104
1395.00,0.8037
1394.00,0.7991
1393.00,0.7974
1392.00,0.8006
1391.00,0.8105
1390.00,0.8294
1389.00,0.8604
1388.00,0.9073
1387.00,0.9716
1386.00,1.0502
1385.00,1.1383
1384.00,1.2352
1383.00,1.3444
1382.00,1.4700
1381.00,1.6153
1380.00,1.7803
1379.00,1.9484
1378.00,2.0726
1377.00,2.1020
1376.00,2.0355
1375.00,1.9104
1374.00,1.7667
1373.00,1.6344
1372.00,1.5264
1371.00,1.4436
1370.00,1.3842
1369.00,1.3464
1368.00,1.3256
1367.00,1.3112
1366.00,1.2894
1365.00,1.2502
1364.00,1.1933
1363.00,1.1278
1362.00,1.0654
1361.00,1.0133
1360.00,0.9730
1359.00,0.9425
1358.00,0.9201
1357.00,0.9048
1356.00,0.8959
1355.00,0.8924
1354.00,0.8928
1353.00,0.8957
1352.00,0.9001
1351.00,0.9059
1350.00,0.9137
1349.00,0.9252
1348.00,0.9422
1347.00,0.9647
1346.00,0.9892
1345.00,1.0082
1344.00,1.0135
1343.00,1.0014
1342.00,0.9750
1341.00,0.9413
1340.00,0.9065
1339.00,0.8736
1338.00,0.8434
1337.00,0.8159
1336.00,0.7911
1335.00,0.7691
1334.00,0.7501
1333.00,0.7344
1332.00,0.7222
1331.00,0.7134
1330.00,0.7077
1329.00,0.7051
1328.00,0.7051
1327.00,0.7069
1326.00,0.7095
1325.00,0.7120
1324.00,0.7142
1323.00,0.7162
1322.00,0.7182
1321.00,0.7206
1320.00,0.7237
1319.00,0.7275
1318.00,0.7322
1317.00,0.7375
1316.00,0.7432
1315.00,0.7495
1314.00,0.7564
1313.00,0.7640
1312.00,0.7722
1311.00,0.7805
1310.00,0.7885
1309.00,0.7957
1308.00,0.8013
1307.00,0.8048
1306.00,0.8055
1305.00,0.8037
1304.00,0.8002
1303.00,0.7961
1302.00,0.7923
1301.00,0.7895
1300.00,0.7875
1299.00,0.7855
1298.00,0.7823
1297.00,0.7773
1296.00,0.7708
1295.00,0.7637
1294.00,0.7565
1293.00,0.7492
1292.00,0.7411
1291.00,0.7316
1290.00,0.7208
1289.00,0.7093
1288.00,0.6982
1287.00,0.6883
1286.00,0.6799
1285.00,0.6730
1284.00,0.6683
1283.00,0.6664
1282.00,0.6680
1281.00,0.6732
1280.00,0.6809
1279.00,0.6883
1278.00,0.6913
1277.00,0.6874
1276.00,0.6768
1275.00,0.6626
1274.00,0.6483
1273.00,0.6360
1272.00,0.6267
1271.00,0.6202
1270.00,0.6157
1269.00,0.6121
1268.00,0.6086
1267.00,0.6047
1266.00,0.6003
1265.00,0.5957
1264.00,0.5915
1263.00,0.5882
1262.00,0.5857
1261.00,0.5842
1260.00,0.5835
1259.00,0.5838
1258.00,0.5850
1257.00,0.5868
1256.00,0.5891
1255.00,0.5918
1254.00,0.5948
1253.00,0.5977
1252.00,0.5997
1251.00,0.6004
1250.00,0.5996
1249.00,0.5973
1248.00,0.5942
1247.00,0.5907
1246.00,0.5871
1245.00,0.5834
1244.00,0.5799
1243.00,0.5767
1242.00,0.5737
1241.00,0.5705
1240.00,0.5669
1239.00,0.5637
1238.00,0.5617
1237.00,0.5619
1236.00,0.5648
1235.00,0.5701
1234.00,0.5770
1233.00,0.5844
1232.00,0.5910
1231.00,0.5957
1230.00,0.5972
1229.00,0.5945
1228.00,0.5876
1227.00,0.5774
1226.00,0.5652
1225.00,0.5527
1224.00,0.5409
1223.00,0.5307
1222.00,0.5223
1221.00,0.5156
1220.00,0.5106
1219.00,0.5072
1218.00,0.5053
1217.00,0.5045
1216.00,0.5049
1215.00,0.5060
1214.00,0.5075
1213.00,0.5087
1212.00,0.5093
1211.00,0.5091
1210.00,0.5078
1209.00,0.5054
1208.00,0.5021
1207.00,0.4987
1206.00,0.4957
1205.00,0.4939
1204.00,0.4941
1203.00,0.4969
1202.00,0.5021
1201.00,0.5088
1200.00,0.5152
1199.00,0.5191
1198.00,0.5198
1197.00,0.5182
1196.00,0.5164
1195.00,0.5164
1194.00,0.5189
1193.00,0.5235
1192.00,0.5290
1191.00,0.5341
1190.00,0.5373
1189.00,0.5375
1188.00,0.5348
1187.00,0.5302
1186.00,0.5249
1185.00,0.5198
1184.00,0.5152
1183.00,0.5111
1182.00,0.5076
1181.00,0.5044
1180.00,0.5016
1179.00,0.4994
1178.00,0.4980
1177.00,0.4974
1176.00,0.4978
1175.00,0.4994
1174.00,0.5020
1173.00,0.5055
1172.00,0.5095
1171.00,0.5134
1170.00,0.5167
1169.00,0.5190
1168.00,0.5206
1167.00,0.5217
1166.00,0.5226
1165.00,0.5235
1164.00,0.5246
1163.00,0.5261
1162.00,0.5278
1161.00,0.5296
1160.00,0.5310
1159.00,0.5317
1158.00,0.5317
1157.00,0.5312
1156.00,0.5306
1155.00,0.5301
1154.00,0.5295
1153.00,0.5286
1152.00,0.5275
1151.00,0.5262
1150.00,0.5247
1149.00,0.5231
1148.00,0.5213
1147.00,0.5196
1146.00,0.5179
1145.00,0.5164
1144.00,0.5154
1143.00,0.5154
1142.00,0.5165
1141.00,0.5187
1140.00,0.5222
1139.00,0.5271
1138.00,0.5334
1137.00,0.5408
1136.00,0.5494
1135.00,0.5582
1134.00,0.5653
1133.00,0.5686
1132.00,0.5666
1131.00,0.5602
1130.00,0.5518
1129.00,0.5443
1128.00,0.5400
1127.00,0.5392
1126.00,0.5406
1125.00,0.5418
1124.00,0.5407
1123.00,0.5371
1122.00,0.5318
1121.00,0.5265
1120.00,0.5224
1119.00,0.5205
1118.00,0.5208
1117.00,0.5230
1116.00,0.5261
1115.00,0.5284
1114.00,0.5282
1113.00,0.5242
1112.00,0.5168
1111.00,0.5074
1110.00,0.4979
1109.00,0.4897
1108.00,0.4836
1107.00,0.4802
1106.00,0.4793
1105.00,0.4810
1104.00,0.4850
1103.00,0.4908
1102.00,0.4977
1101.00,0.5046
1100.00,0.5102
1099.00,0.5130
1098.00,0.5122
1097.00,0.5082
1096.00,0.5026
1095.00,0.4973
1094.00,0.4931
1093.00,0.4899
1092.00,0.4872
1091.00,0.4849
1090.00,0.4829
1089.00,0.4814
1088.00,0.4807
1087.00,0.4812
1086.00,0.4829
1085.00,0.4860
1084.00,0.4908
1083.00,0.4971
1082.00,0.5047
1081.00,0.5127
1080.00,0.5205
1079.00,0.5272
1078.00,0.5316
1077.00,0.5328
1076.00,0.5305
1075.00,0.5252
1074.00,0.5177
1073.00,0.5092
1072.00,0.5008
1071.00,0.4933
1070.00,0.4869
1069.00,0.4815
1068.00,0.4769
1067.00,0.4731
1066.00,0.4698
1065.00,0.4671
1064.00,0.4649
1063.00,0.4631
1062.00,0.4616
1061.00,0.4601
1060.00,0.4586
1059.00,0.4569
1058.00,0.4548
1057.00,0.4522
1056.00,0.4494
1055.00,0.4465
1054.00,0.4438
1053.00,0.4411
1052.00,0.4385
1051.00,0.4365
1050.00,0.4351
1049.00,0.4344
1048.00,0.4343
1047.00,0.4346
1046.00,0.4350
1045.00,0.4350
1044.00,0.4348
1043.00,0.4344
1042.00,0.4343
1041.00,0.4344
1040.00,0.4349
1039.00,0.4357
1038.00,0.4365
1037.00,0.4374
1036.00,0.4387
1035.00,0.4407
1034.00,0.4436
1033.00,0.4474
1032.00,0.4520
1031.00,0.4571
1030.00,0.4622
1029.00,0.4664
1028.00,0.4689
1027.00,0.4692
1026.00,0.4668
1025.00,0.4621
1024.00,0.4556
1023.00,0.4485
1022.00,0.4416
1021.00,0.4358
1020.00,0.4313
1019.00,0.4281
1018.00,0.4261
1017.00,0.4249
1016.00,0.4242
1015.00,0.4239
1014.00,0.4238
1013.00,0.4234
1012.00,0.4226
1011.00,0.4219
1010.00,0.4216
1009.00,0.4222
1008.00,0.4233
1007.00,0.4247
1006.00,0.4259
1005.00,0.4269
1004.00,0.4277
1003.00,0.4285
1002.00,0.4292
1001.00,0.4301
1000.00,0.4309
999.00,0.4314
998.00,0.4312
997.00,0.4304
996.00,0.4293
995.00,0.4279
994.00,0.4266
993.00,0.4252
992.00,0.4239
991.00,0.4229
990.00,0.4220
989.00,0.4210
988.00,0.4196
987.00,0.4179
986.00,0.4163
985.00,0.4154
984.00,0.4158
983.00,0.4177
982.00,0.4209
981.00,0.4254
980.00,0.4310
979.00,0.4380
978.00,0.4472
977.00,0.4599
976.00,0.4781
975.00,0.5039
974.00,0.5392
973.00,0.5857
972.00,0.6444
971.00,0.7136
970.00,0.7860
969.00,0.8468
968.00,0.8761
967.00,0.8623
966.00,0.8119
965.00,0.7436
964.00,0.6743
963.00,0.6137
962.00,0.5661
961.00,0.5329
960.00,0.5138
959.00,0.5068
958.00,0.5085
957.00,0.5138
956.00,0.5176
955.00,0.5163
954.00,0.5089
953.00,0.4969
952.00,0.4828
951.00,0.4690
950.00,0.4571
949.00,0.4480
948.00,0.4419
947.00,0.4389
946.00,0.4387
945.00,0.4406
944.00,0.4441
943.00,0.4484
942.00,0.4529
941.00,0.4568
940.00,0.4598
939.00,0.4615
938.00,0.4619
937.00,0.4611
936.00,0.4593
935.00,0.4569
934.00,0.4540
933.00,0.4506
932.00,0.4467
931.00,0.4425
930.00,0.4382
929.00,0.4341
928.00,0.4307
927.00,0.4288
926.00,0.4289
925.00,0.4312
924.00,0.4354
923.00,0.4408
922.00,0.4460
921.00,0.4492
920.00,0.4488
919.00,0.4442
918.00,0.4363
917.00,0.4269
916.00,0.4175
915.00,0.4095
914.00,0.4032
913.00,0.3985
912.00,0.3954
911.00,0.3936
910.00,0.3928
909.00,0.3931
908.00,0.3947
907.00,0.3979
906.00,0.4030
905.00,0.4088
904.00,0.4136
903.00,0.4156
902.00,0.4142
901.00,0.4108
900.00,0.4074
899.00,0.4056
898.00,0.4055
897.00,0.4067
896.00,0.4089
895.00,0.4120
894.00,0.4160
893.00,0.4205
892.00,0.4253
891.00,0.4299
890.00,0.4337
889.00,0.4357
888.00,0.4358
887.00,0.4338
886.00,0.4304
885.00,0.4262
884.00,0.4221
883.00,0.4188
882.00,0.4165
881.00,0.4151
880.00,0.4142
879.00,0.4139
878.00,0.4139
877.00,0.4142
876.00,0.4148
875.00,0.4156
874.00,0.4164
873.00,0.4169
872.00,0.4172
871.00,0.4174
870.00,0.4177
869.00,0.4184
868.00,0.4197
867.00,0.4222
866.00,0.4259
865.00,0.4307
864.00,0.4359
863.00,0.4404
862.00,0.4426
861.00,0.4412
860.00,0.4361
859.00,0.4284
858.00,0.4200
857.00,0.4124
856.00,0.4065
855.00,0.4024
854.00,0.3997
853.00,0.3977
852.00,0.3963
851.00,0.3952
850.00,0.3944
849.00,0.3936
848.00,0.3928
847.00,0.3919
846.00,0.3911
845.00,0.3907
844.00,0.3907
843.00,0.3916
842.00,0.3937
841.00,0.3978
840.00,0.4046
839.00,0.4139
838.00,0.4247
837.00,0.4342
836.00,0.4400
835.00,0.4404
834.00,0.4361
833.00,0.4294
832.00,0.4232
831.00,0.4196
830.00,0.4194
829.00,0.4225
828.00,0.4278
827.00,0.4344
826.00,0.4415
825.00,0.4491
824.00,0.4571
823.00,0.4651
822.00,0.4717
821.00,0.4757
820.00,0.4765
819.00,0.4745
818.00,0.4705
817.00,0.4654
816.00,0.4602
815.00,0.4553
814.00,0.4508
813.00,0.4465
812.00,0.4423
811.00,0.4381
810.00,0.4340
809.00,0.4299
808.00,0.4259
807.00,0.4219
806.00,0.4179
805.00,0.4137
804.00,0.4094
803.00,0.4053
802.00,0.4015
801.00,0.3983
800.00,0.3959
799.00,0.3944
798.00,0.3934
797.00,0.3927
796.00,0.3922
795.00,0.3919
794.00,0.3919
793.00,0.3925
792.00,0.3935
791.00,0.3950
790.00,0.3966
789.00,0.3980
788.00,0.3994
787.00,0.4015
786.00,0.4047
785.00,0.4092
784.00,0.4150
783.00,0.4222
782.00,0.4311
781.00,0.4418
780.00,0.4539
779.00,0.4657
778.00,0.4743
777.00,0.4771
776.00,0.4738
775.00,0.4665
774.00,0.4586
773.00,0.4527
772.00,0.4497
771.00,0.4495
770.00,0.4511
769.00,0.4536
768.00,0.4561
767.00,0.4584
766.00,0.4603
765.00,0.4617
764.00,0.4632
763.00,0.4653
762.00,0.4684
761.00,0.4724
760.00,0.4767
759.00,0.4806
758.00,0.4835
757.00,0.4855
756.00,0.4871
755.00,0.4890
754.00,0.4920
753.00,0.4961
752.00,0.5010
751.00,0.5064
750.00,0.5119
749.00,0.5174
748.00,0.5230
747.00,0.5291
746.00,0.5358
745.00,0.5434
744.00,0.5516
743.00,0.5606
742.00,0.5701
741.00,0.5803
740.00,0.5910
739.00,0.6023
738.00,0.6140
737.00,0.6263
736.00,0.6392
735.00,0.6527
734.00,0.6669
733.00,0.6818
732.00,0.6978
731.00,0.7160
730.00,0.7375
729.00,0.7635
728.00,0.7951
727.00,0.8339
726.00,0.8816
725.00,0.9378
724.00,0.9984
723.00,1.0533
722.00,1.0862
721.00,1.0824
720.00,1.0412
719.00,0.9781
718.00,0.9112
717.00,0.8510
716.00,0.8015
715.00,0.7630
714.00,0.7338
713.00,0.7110
712.00,0.6919
711.00,0.6746
710.00,0.6575
709.00,0.6398
708.00,0.6216
707.00,0.6037
706.00,0.5865
705.00,0.5704
704.00,0.5551
703.00,0.5411
702.00,0.5284
701.00,0.5169
700.00,0.5060
699.00,0.4948
698.00,0.4827
697.00,0.4697
696.00,0.4566
695.00,0.4447
694.00,0.4349
693.00,0.4271
692.00,0.4210
691.00,0.4161
690.00,0.4122
689.00,0.4089
688.00,0.4055
687.00,0.4020
686.00,0.3983
685.00,0.3947
684.00,0.3916
683.00,0.3892
682.00,0.3875
681.00,0.3862
680.00,0.3853
679.00,0.3845
678.00,0.3840
677.00,0.3835
676.00,0.3831
675.00,0.3828
674.00,0.3828
673.00,0.3829
672.00,0.3832
671.00,0.3835
670.00,0.3838
669.00,0.3845
668.00,0.3855
667.00,0.3862
666.00,0.3870
665.00,0.3881
664.00,0.3890
663.00,0.3898
662.00,0.3908
661.00,0.3921
660.00,0.3932
659.00,0.3943
658.00,0.3952
657.00,0.3959
656.00,0.3965
655.00,0.3973
654.00,0.3983
653.00,0.3991
652.00,0.3996
651.00,0.4001
650.00,0.4008
649.00,0.4017
648.00,0.4028
647.00,0.4042
646.00,0.4059
645.00,0.4077
644.00,0.4096
643.00,0.4115
642.00,0.4135
641.00,0.4156
640.00,0.4176
639.00,0.4196
638.00,0.4215
637.00,0.4231
636.00,0.4244
635.00,0.4254
634.00,0.4263
633.00,0.4273
632.00,0.4287
631.00,0.4307
630.00,0.4330
629.00,0.4353
628.00,0.4376
627.00,0.4400
626.00,0.4427
625.00,0.4455
624.00,0.4485
623.00,0.4514
622.00,0.4540
621.00,0.4561
620.00,0.4577
619.00,0.4590
618.00,0.4598
617.00,0.4600
616.00,0.4601
615.00,0.4602
614.00,0.4605
613.00,0.4603
612.00,0.4594
611.00,0.4580
610.00,0.4565
609.00,0.4556
608.00,0.4553
607.00,0.4554
606.00,0.4555
605.00,0.4556
604.00,0.4555
603.00,0.4551
602.00,0.4542
601.00,0.4528
600.00,0.4513
599.00,0.4501
598.00,0.4494
597.00,0.4491
596.00,0.4492
595.00,0.4497
594.00,0.4507
593.00,0.4521
592.00,0.4538
591.00,0.4553
590.00,0.4563
589.00,0.4571
588.00,0.4584
587.00,0.4607
586.00,0.4638
585.00,0.4671
584.00,0.4704
583.00,0.4735
582.00,0.4759
581.00,0.4779
580.00,0.4801
579.00,0.4828
578.00,0.4859
577.00,0.4887
576.00,0.4911
575.00,0.4931
574.00,0.4950
573.00,0.4969
572.00,0.4990
571.00,0.5017
570.00,0.5049
569.00,0.5082
568.00,0.5116
567.00,0.5150
566.00,0.5181
565.00,0.5207
564.00,0.5230
563.00,0.5258
562.00,0.5293
561.00,0.5329
560.00,0.5363
559.00,0.5397
558.00,0.5430
557.00,0.5463
556.00,0.5499
555.00,0.5543
554.00,0.5595
553.00,0.5650
552.00,0.5703
551.00,0.5754
550.00,0.5803
