Created as New Dataset,
cm-1,A
4000.00,0.3467
3999.00,0.3464
3998.00,0.3461
3997.00,0.3459
3996.00,0.3456
3995.00,0.3453
3994.00,0.3450
3993.00,0.3447
3992.00,0.3444
3991.00,0.3441
3990.00,0.3437
3989.00,0.3433
3988.00,0.3429
3987.00,0.3424
3986.00,0.3420
3985.00,0.3415
3984.00,0.3411
3983.00,0.3407
3982.00,0.3403
3981.00,0.3399
3980.00,0.3396
3979.00,0.3392
3978.00,0.3389
3977.00,0.3385
3976.00,0.3382
3975.00,0.3378
3974.00,0.3375
3973.00,0.3373
3972.00,0.3370
3971.00,0.3368
3970.00,0.3366
3969.00,0.3364
3968.00,0.3361
3967.00,0.3359
3966.00,0.3356
3965.00,0.3352
3964.00,0.3350
3963.00,0.3347
3962.00,0.3345
3961.00,0.3343
3960.00,0.3340
3959.00,0.3338
3958.00,0.3335
3957.00,0.3333
3956.00,0.3330
3955.00,0.3328
3954.00,0.3326
3953.00,0.3323
3952.00,0.3320
3951.00,0.3318
3950.00,0.3316
3949.00,0.3315
3948.00,0.3314
3947.00,0.3313
3946.00,0.3310
3945.00,0.3308
3944.00,0.3306
3943.00,0.3304
3942.00,0.3304
3941.00,0.3303
3940.00,0.3302
3939.00,0.3301
3938.00,0.3301
3937.00,0.3301
3936.00,0.3300
3935.00,0.3299
3934.00,0.3298
3933.00,0.3297
3932.00,0.3296
3931.00,0.3296
3930.00,0.3296
3929.00,0.3296
3928.00,0.3296
3927.00,0.3296
3926.00,0.3296
3925.00,0.3296
3924.00,0.3295
3923.00,0.3294
3922.00,0.3292
3921.00,0.3291
3920.00,0.3290
3919.00,0.3290
3918.00,0.3291
3917.00,0.3291
3916.00,0.3291
3915.00,0.3291
3914.00,0.3291
3913.00,0.3291
3912.00,0.3290
3911.00,0.3290
3910.00,0.3288
3909.00,0.3285
3908.00,0.3283
3907.00,0.3280
3906.00,0.3277
3905.00,0.3275
3904.00,0.3273
3903.00,0.3272
3902.00,0.3271
3901.00,0.3270
3900.00,0.3272
3899.00,0.3274
3898.00,0.3275
3897.00,0.3276
3896.00,0.3275
3895.00,0.3274
3894.00,0.3272
3893.00,0.3271
3892.00,0.3271
3891.00,0.3270
3890.00,0.3269
3889.00,0.3266
3888.00,0.3262
3887.00,0.3260
3886.00,0.3261
3885.00,0.3262
3884.00,0.3261
3883.00,0.3259
3882.00,0.3258
3881.00,0.3258
3880.00,0.3259
3879.00,0.3259
3878.00,0.3258
3877.00,0.3256
3876.00,0.3255
3875.00,0.3255
3874.00,0.3255
3873.00,0.3252
3872.00,0.3249
3871.00,0.3247
3870.00,0.3246
3869.00,0.3245
3868.00,0.3243
3867.00,0.3239
3866.00,0.3237
3865.00,0.3237
3864.00,0.3238
3863.00,0.3238
3862.00,0.3237
3861.00,0.3236
3860.00,0.3235
3859.00,0.3233
3858.00,0.3230
3857.00,0.3224
3856.00,0.3217
3855.00,0.3213
3854.00,0.3211
3853.00,0.3213
3852.00,0.3214
3851.00,0.3214
3850.00,0.3216
3849.00,0.3219
3848.00,0.3223
3847.00,0.3225
3846.00,0.3225
3845.00,0.3225
3844.00,0.3223
3843.00,0.3221
3842.00,0.3218
3841.00,0.3214
3840.00,0.3211
3839.00,0.3209
3838.00,0.3208
3837.00,0.3207
3836.00,0.3206
3835.00,0.3205
3834.00,0.3206
3833.00,0.3207
3832.00,0.3209
3831.00,0.3211
3830.00,0.3211
3829.00,0.3211
3828.00,0.3211
3827.00,0.3211
3826.00,0.3210
3825.00,0.3207
3824.00,0.3203
3823.00,0.3199
3822.00,0.3197
3821.00,0.3197
3820.00,0.3195
3819.00,0.3191
3818.00,0.3188
3817.00,0.3187
3816.00,0.3189
3815.00,0.3191
3814.00,0.3191
3813.00,0.3189
3812.00,0.3188
3811.00,0.3187
3810.00,0.3186
3809.00,0.3184
3808.00,0.3182
3807.00,0.3181
3806.00,0.3178
3805.00,0.3173
3804.00,0.3168
3803.00,0.3165
3802.00,0.3165
3801.00,0.3165
3800.00,0.3163
3799.00,0.3160
3798.00,0.3158
3797.00,0.3159
3796.00,0.3161
3795.00,0.3163
3794.00,0.3162
3793.00,0.3161
3792.00,0.3160
3791.00,0.3159
3790.00,0.3158
3789.00,0.3157
3788.00,0.3155
3787.00,0.3153
3786.00,0.3152
3785.00,0.3150
3784.00,0.3148
3783.00,0.3145
3782.00,0.3141
3781.00,0.3139
3780.00,0.3137
3779.00,0.3137
3778.00,0.3137
3777.00,0.3136
3776.00,0.3135
3775.00,0.3134
3774.00,0.3133
3773.00,0.3131
3772.00,0.3128
3771.00,0.3125
3770.00,0.3123
3769.00,0.3121
3768.00,0.3119
3767.00,0.3117
3766.00,0.3116
3765.00,0.3116
3764.00,0.3115
3763.00,0.3113
3762.00,0.3111
3761.00,0.3110
3760.00,0.3109
3759.00,0.3108
3758.00,0.3105
3757.00,0.3101
3756.00,0.3097
3755.00,0.3093
3754.00,0.3088
3753.00,0.3084
3752.00,0.3080
3751.00,0.3078
3750.00,0.3075
3749.00,0.3073
3748.00,0.3069
3747.00,0.3065
3746.00,0.3063
3745.00,0.3066
3744.00,0.3070
3743.00,0.3072
3742.00,0.3071
3741.00,0.3070
3740.00,0.3070
3739.00,0.3069
3738.00,0.3068
3737.00,0.3066
3736.00,0.3064
3735.00,0.3062
3734.00,0.3061
3733.00,0.3061
3732.00,0.3062
3731.00,0.3063
3730.00,0.3063
3729.00,0.3063
3728.00,0.3063
3727.00,0.3063
3726.00,0.3064
3725.00,0.3062
3724.00,0.3060
3723.00,0.3058
3722.00,0.3056
3721.00,0.3056
3720.00,0.3056
3719.00,0.3056
3718.00,0.3055
3717.00,0.3054
3716.00,0.3051
3715.00,0.3048
3714.00,0.3045
3713.00,0.3042
3712.00,0.3041
3711.00,0.3041
3710.00,0.3041
3709.00,0.3042
3708.00,0.3043
3707.00,0.3046
3706.00,0.3048
3705.00,0.3049
3704.00,0.3050
3703.00,0.3051
3702.00,0.3051
3701.00,0.3051
3700.00,0.3051
3699.00,0.3051
3698.00,0.3052
3697.00,0.3054
3696.00,0.3055
3695.00,0.3054
3694.00,0.3052
3693.00,0.3048
3692.00,0.3045
3691.00,0.3042
3690.00,0.3041
3689.00,0.3042
3688.00,0.3044
3687.00,0.3045
3686.00,0.3047
3685.00,0.3049
3684.00,0.3051
3683.00,0.3052
3682.00,0.3051
3681.00,0.3049
3680.00,0.3046
3679.00,0.3041
3678.00,0.3036
3677.00,0.3033
3676.00,0.3033
3675.00,0.3033
3674.00,0.3033
3673.00,0.3030
3672.00,0.3030
3671.00,0.3033
3670.00,0.3040
3669.00,0.3046
3668.00,0.3051
3667.00,0.3056
3666.00,0.3062
3665.00,0.3070
3664.00,0.3078
3663.00,0.3086
3662.00,0.3094
3661.00,0.3103
3660.00,0.3114
3659.00,0.3128
3658.00,0.3146
3657.00,0.3169
3656.00,0.3196
3655.00,0.3223
3654.00,0.3247
3653.00,0.3268
3652.00,0.3287
3651.00,0.3304
3650.00,0.3315
3649.00,0.3318
3648.00,0.3313
3647.00,0.3302
3646.00,0.3287
3645.00,0.3272
3644.00,0.3255
3643.00,0.3238
3642.00,0.3221
3641.00,0.3205
3640.00,0.3190
3639.00,0.3177
3638.00,0.3165
3637.00,0.3156
3636.00,0.3147
3635.00,0.3140
3634.00,0.3134
3633.00,0.3127
3632.00,0.3119
3631.00,0.3113
3630.00,0.3110
3629.00,0.3109
3628.00,0.3110
3627.00,0.3110
3626.00,0.3111
3625.00,0.3113
3624.00,0.3115
3623.00,0.3116
3622.00,0.3113
3621.00,0.3108
3620.00,0.3102
3619.00,0.3097
3618.00,0.3092
3617.00,0.3087
3616.00,0.3083
3615.00,0.3080
3614.00,0.3078
3613.00,0.3076
3612.00,0.3074
3611.00,0.3073
3610.00,0.3072
3609.00,0.3072
3608.00,0.3073
3607.00,0.3073
3606.00,0.3071
3605.00,0.3069
3604.00,0.3066
3603.00,0.3063
3602.00,0.3058
3601.00,0.3052
3600.00,0.3044
3599.00,0.3035
3598.00,0.3025
3597.00,0.3015
3596.00,0.3005
3595.00,0.2997
3594.00,0.2989
3593.00,0.2982
3592.00,0.2976
3591.00,0.2969
3590.00,0.2963
3589.00,0.2958
3588.00,0.2954
3587.00,0.2951
3586.00,0.2949
3585.00,0.2947
3584.00,0.2945
3583.00,0.2945
3582.00,0.2944
3581.00,0.2943
3580.00,0.2941
3579.00,0.2939
3578.00,0.2937
3577.00,0.2936
3576.00,0.2935
3575.00,0.2935
3574.00,0.2934
3573.00,0.2933
3572.00,0.2932
3571.00,0.2930
3570.00,0.2927
3569.00,0.2924
3568.00,0.2923
3567.00,0.2923
3566.00,0.2924
3565.00,0.2924
3564.00,0.2925
3563.00,0.2926
3562.00,0.2927
3561.00,0.2929
3560.00,0.2930
3559.00,0.2930
3558.00,0.2931
3557.00,0.2932
3556.00,0.2933
3555.00,0.2935
3554.00,0.2936
3553.00,0.2938
3552.00,0.2939
3551.00,0.2941
3550.00,0.2943
3549.00,0.2945
3548.00,0.2946
3547.00,0.2948
3546.00,0.2950
3545.00,0.2952
3544.00,0.2954
3543.00,0.2957
3542.00,0.2960
3541.00,0.2964
3540.00,0.2967
3539.00,0.2969
3538.00,0.2971
3537.00,0.2973
3536.00,0.2976
3535.00,0.2978
3534.00,0.2980
3533.00,0.2982
3532.00,0.2985
3531.00,0.2987
3530.00,0.2988
3529.00,0.2990
3528.00,0.2993
3527.00,0.2995
3526.00,0.2998
3525.00,0.3001
3524.00,0.3004
3523.00,0.3008
3522.00,0.3011
3521.00,0.3014
3520.00,0.3017
3519.00,0.3020
3518.00,0.3023
3517.00,0.3027
3516.00,0.3030
3515.00,0.3034
3514.00,0.3037
3513.00,0.3041
3512.00,0.3045
3511.00,0.3049
3510.00,0.3053
3509.00,0.3057
3508.00,0.3060
3507.00,0.3064
3506.00,0.3067
3505.00,0.3071
3504.00,0.3075
3503.00,0.3080
3502.00,0.3085
3501.00,0.3091
3500.00,0.3096
3499.00,0.3101
3498.00,0.3106
3497.00,0.3112
3496.00,0.3117
3495.00,0.3123
3494.00,0.3129
3493.00,0.3134
3492.00,0.3140
3491.00,0.3146
3490.00,0.3152
3489.00,0.3159
3488.00,0.3165
3487.00,0.3171
3486.00,0.3177
3485.00,0.3183
3484.00,0.3189
3483.00,0.3195
3482.00,0.3200
3481.00,0.3206
3480.00,0.3212
3479.00,0.3217
3478.00,0.3221
3477.00,0.3226
3476.00,0.3230
3475.00,0.3235
3474.00,0.3239
3473.00,0.3245
3472.00,0.3251
3471.00,0.3257
3470.00,0.3263
3469.00,0.3269
3468.00,0.3274
3467.00,0.3280
3466.00,0.3285
3465.00,0.3291
3464.00,0.3298
3463.00,0.3305
3462.00,0.3312
3461.00,0.3319
3460.00,0.3326
3459.00,0.3334
3458.00,0.3342
3457.00,0.3350
3456.00,0.3358
3455.00,0.3365
3454.00,0.3373
3453.00,0.3381
3452.00,0.3390
3451.00,0.3400
3450.00,0.3410
3449.00,0.3421
3448.00,0.3432
3447.00,0.3443
3446.00,0.3455
3445.00,0.3468
3444.00,0.3483
3443.00,0.3498
3442.00,0.3512
3441.00,0.3526
3440.00,0.3538
3439.00,0.3550
3438.00,0.3562
3437.00,0.3572
3436.00,0.3583
3435.00,0.3592
3434.00,0.3600
3433.00,0.3607
3432.00,0.3614
3431.00,0.3621
3430.00,0.3628
3429.00,0.3635
3428.00,0.3643
3427.00,0.3651
3426.00,0.3658
3425.00,0.3664
3424.00,0.3671
3423.00,0.3677
3422.00,0.3684
3421.00,0.3692
3420.00,0.3701
3419.00,0.3711
3418.00,0.3720
3417.00,0.3730
3416.00,0.3740
3415.00,0.3749
3414.00,0.3760
3413.00,0.3770
3412.00,0.3781
3411.00,0.3791
3410.00,0.3802
3409.00,0.3814
3408.00,0.3825
3407.00,0.3837
3406.00,0.3849
3405.00,0.3861
3404.00,0.3874
3403.00,0.3886
3402.00,0.3899
3401.00,0.3911
3400.00,0.3924
3399.00,0.3936
3398.00,0.3949
3397.00,0.3961
3396.00,0.3974
3395.00,0.3987
3394.00,0.4001
3393.00,0.4014
3392.00,0.4027
3391.00,0.4040
3390.00,0.4053
3389.00,0.4066
3388.00,0.4079
3387.00,0.4092
3386.00,0.4105
3385.00,0.4118
3384.00,0.4132
3383.00,0.4145
3382.00,0.4159
3381.00,0.4174
3380.00,0.4189
3379.00,0.4205
3378.00,0.4221
3377.00,0.4236
3376.00,0.4250
3375.00,0.4266
3374.00,0.4282
3373.00,0.4299
3372.00,0.4316
3371.00,0.4333
3370.00,0.4351
3369.00,0.4369
3368.00,0.4387
3367.00,0.4405
3366.00,0.4424
3365.00,0.4442
3364.00,0.4461
3363.00,0.4480
3362.00,0.4500
3361.00,0.4519
3360.00,0.4539
3359.00,0.4559
3358.00,0.4579
3357.00,0.4598
3356.00,0.4617
3355.00,0.4637
3354.00,0.4656
3353.00,0.4675
3352.00,0.4693
3351.00,0.4710
3350.00,0.4727
3349.00,0.4744
3348.00,0.4761
3347.00,0.4778
3346.00,0.4793
3345.00,0.4809
3344.00,0.4824
3343.00,0.4839
3342.00,0.4853
3341.00,0.4866
3340.00,0.4878
3339.00,0.4889
3338.00,0.4899
3337.00,0.4907
3336.00,0.4915
3335.00,0.4922
3334.00,0.4928
3333.00,0.4933
3332.00,0.4936
3331.00,0.4937
3330.00,0.4938
3329.00,0.4939
3328.00,0.4939
3327.00,0.4938
3326.00,0.4935
3325.00,0.4932
3324.00,0.4927
3323.00,0.4923
3322.00,0.4917
3321.00,0.4911
3320.00,0.4905
3319.00,0.4899
3318.00,0.4892
3317.00,0.4885
3316.00,0.4877
3315.00,0.4867
3314.00,0.4858
3313.00,0.4848
3312.00,0.4839
3311.00,0.4830
3310.00,0.4821
3309.00,0.4812
3308.00,0.4802
3307.00,0.4791
3306.00,0.4781
3305.00,0.4772
3304.00,0.4763
3303.00,0.4754
3302.00,0.4746
3301.00,0.4738
3300.00,0.4731
3299.00,0.4724
3298.00,0.4718
3297.00,0.4712
3296.00,0.4705
3295.00,0.4700
3294.00,0.4694
3293.00,0.4689
3292.00,0.4685
3291.00,0.4681
3290.00,0.4678
3289.00,0.4676
3288.00,0.4673
3287.00,0.4671
3286.00,0.4670
3285.00,0.4669
3284.00,0.4670
3283.00,0.4671
3282.00,0.4671
3281.00,0.4672
3280.00,0.4673
3279.00,0.4675
3278.00,0.4676
3277.00,0.4677
3276.00,0.4679
3275.00,0.4681
3274.00,0.4684
3273.00,0.4688
3272.00,0.4692
3271.00,0.4697
3270.00,0.4701
3269.00,0.4706
3268.00,0.4711
3267.00,0.4716
3266.00,0.4720
3265.00,0.4725
3264.00,0.4729
3263.00,0.4732
3262.00,0.4736
3261.00,0.4740
3260.00,0.4744
3259.00,0.4748
3258.00,0.4753
3257.00,0.4758
3256.00,0.4763
3255.00,0.4767
3254.00,0.4770
3253.00,0.4772
3252.00,0.4775
3251.00,0.4777
3250.00,0.4780
3249.00,0.4782
3248.00,0.4784
3247.00,0.4785
3246.00,0.4786
3245.00,0.4787
3244.00,0.4788
3243.00,0.4789
3242.00,0.4789
3241.00,0.4788
3240.00,0.4787
3239.00,0.4785
3238.00,0.4784
3237.00,0.4782
3236.00,0.4781
3235.00,0.4779
3234.00,0.4777
3233.00,0.4774
3232.00,0.4771
3231.00,0.4766
3230.00,0.4762
3229.00,0.4758
3228.00,0.4754
3227.00,0.4750
3226.00,0.4747
3225.00,0.4743
3224.00,0.4739
3223.00,0.4734
3222.00,0.4729
3221.00,0.4724
3220.00,0.4719
3219.00,0.4713
3218.00,0.4708
3217.00,0.4702
3216.00,0.4697
3215.00,0.4693
3214.00,0.4688
3213.00,0.4682
3212.00,0.4676
3211.00,0.4671
3210.00,0.4666
3209.00,0.4661
3208.00,0.4656
3207.00,0.4651
3206.00,0.4646
3205.00,0.4640
3204.00,0.4634
3203.00,0.4629
3202.00,0.4625
3201.00,0.4620
3200.00,0.4615
3199.00,0.4610
3198.00,0.4604
3197.00,0.4598
3196.00,0.4592
3195.00,0.4586
3194.00,0.4580
3193.00,0.4574
3192.00,0.4569
3191.00,0.4563
3190.00,0.4557
3189.00,0.4551
3188.00,0.4544
3187.00,0.4537
3186.00,0.4530
3185.00,0.4524
3184.00,0.4517
3183.00,0.4509
3182.00,0.4501
3181.00,0.4494
3180.00,0.4486
3179.00,0.4478
3178.00,0.4470
3177.00,0.4462
3176.00,0.4453
3175.00,0.4445
3174.00,0.4436
3173.00,0.4428
3172.00,0.4419
3171.00,0.4412
3170.00,0.4404
3169.00,0.4396
3168.00,0.4388
3167.00,0.4379
3166.00,0.4371
3165.00,0.4362
3164.00,0.4353
3163.00,0.4345
3162.00,0.4336
3161.00,0.4328
3160.00,0.4320
3159.00,0.4313
3158.00,0.4305
3157.00,0.4298
3156.00,0.4290
3155.00,0.4283
3154.00,0.4276
3153.00,0.4269
3152.00,0.4263
3151.00,0.4256
3150.00,0.4250
3149.00,0.4243
3148.00,0.4236
3147.00,0.4229
3146.00,0.4222
3145.00,0.4216
3144.00,0.4210
3143.00,0.4205
3142.00,0.4200
3141.00,0.4195
3140.00,0.4191
3139.00,0.4186
3138.00,0.4182
3137.00,0.4178
3136.00,0.4175
3135.00,0.4171
3134.00,0.4168
3133.00,0.4164
3132.00,0.4162
3131.00,0.4159
3130.00,0.4157
3129.00,0.4154
3128.00,0.4153
3127.00,0.4151
3126.00,0.4151
3125.00,0.4150
3124.00,0.4150
3123.00,0.4150
3122.00,0.4150
3121.00,0.4151
3120.00,0.4152
3119.00,0.4154
3118.00,0.4155
3117.00,0.4158
3116.00,0.4160
3115.00,0.4163
3114.00,0.4167
3113.00,0.4172
3112.00,0.4177
3111.00,0.4183
3110.00,0.4189
3109.00,0.4196
3108.00,0.4204
3107.00,0.4212
3106.00,0.4221
3105.00,0.4230
3104.00,0.4240
3103.00,0.4250
3102.00,0.4259
3101.00,0.4269
3100.00,0.4279
3099.00,0.4289
3098.00,0.4300
3097.00,0.4310
3096.00,0.4321
3095.00,0.4333
3094.00,0.4345
3093.00,0.4359
3092.00,0.4373
3091.00,0.4388
3090.00,0.4405
3089.00,0.4423
3088.00,0.4443
3087.00,0.4463
3086.00,0.4484
3085.00,0.4506
3084.00,0.4529
3083.00,0.4553
3082.00,0.4579
3081.00,0.4607
3080.00,0.4636
3079.00,0.4667
3078.00,0.4699
3077.00,0.4733
3076.00,0.4768
3075.00,0.4804
3074.00,0.4840
3073.00,0.4877
3072.00,0.4914
3071.00,0.4952
3070.00,0.4989
3069.00,0.5028
3068.00,0.5066
3067.00,0.5105
3066.00,0.5142
3065.00,0.5180
3064.00,0.5216
3063.00,0.5251
3062.00,0.5284
3061.00,0.5317
3060.00,0.5349
3059.00,0.5379
3058.00,0.5409
3057.00,0.5440
3056.00,0.5471
3055.00,0.5504
3054.00,0.5537
3053.00,0.5570
3052.00,0.5604
3051.00,0.5640
3050.00,0.5676
3049.00,0.5714
3048.00,0.5754
3047.00,0.5794
3046.00,0.5837
3045.00,0.5880
3044.00,0.5923
3043.00,0.5967
3042.00,0.6010
3041.00,0.6055
3040.00,0.6101
3039.00,0.6149
3038.00,0.6201
3037.00,0.6254
3036.00,0.6310
3035.00,0.6368
3034.00,0.6429
3033.00,0.6493
3032.00,0.6560
3031.00,0.6630
3030.00,0.6703
3029.00,0.6780
3028.00,0.6858
3027.00,0.6940
3026.00,0.7023
3025.00,0.7109
3024.00,0.7198
3023.00,0.7288
3022.00,0.7381
3021.00,0.7478
3020.00,0.7578
3019.00,0.7682
3018.00,0.7788
3017.00,0.7897
3016.00,0.8008
3015.00,0.8122
3014.00,0.8242
3013.00,0.8367
3012.00,0.8499
3011.00,0.8640
3010.00,0.8788
3009.00,0.8944
3008.00,0.9107
3007.00,0.9278
3006.00,0.9457
3005.00,0.9644
3004.00,0.9837
3003.00,1.0037
3002.00,1.0247
3001.00,1.0465
3000.00,1.0691
2999.00,1.0929
2998.00,1.1183
2997.00,1.1459
2996.00,1.1760
2995.00,1.2087
2994.00,1.2443
2993.00,1.2830
2992.00,1.3254
2991.00,1.3720
2990.00,1.4235
2989.00,1.4804
2988.00,1.5432
2987.00,1.6123
2986.00,1.6881
2985.00,1.7715
2984.00,1.8640
2983.00,1.9682
2982.00,2.0855
2981.00,2.2148
2980.00,2.3528
2979.00,2.4982
2978.00,2.6544
2977.00,2.8292
2976.00,3.0332
2975.00,3.2761
2974.00,3.5346
2973.00,3.6915
2972.00,3.6935
2971.00,3.6522
2970.00,3.6564
2969.00,3.6989
2968.00,3.7868
2967.00,3.9542
2966.00,4.2299
2965.00,4.5347
2964.00,4.4487
2963.00,4.2456
2962.00,4.2285
2961.00,4.4773
2960.00,4.6131
2959.00,4.3714
2958.00,4.2789
2957.00,4.4812
2956.00,4.2410
2955.00,4.0259
2954.00,3.9937
2953.00,4.1597
2952.00,4.0823
2951.00,3.9827
2950.00,3.9868
2949.00,3.9483
2948.00,3.8178
2947.00,3.7880
2946.00,3.9686
2945.00,4.3796
2944.00,4.3570
2943.00,4.1296
2942.00,3.9826
2941.00,4.0428
2940.00,4.1312
2939.00,4.1776
2938.00,4.2458
2937.00,4.3414
2936.00,4.2545
2935.00,4.0142
2934.00,3.8352
2933.00,3.7620
2932.00,3.7417
2931.00,3.7320
2930.00,3.7670
2929.00,3.8719
2928.00,4.0010
2927.00,4.0249
2926.00,3.9428
2925.00,3.8799
2924.00,3.9341
2923.00,4.2448
2922.00,4.2824
2921.00,4.0955
2920.00,3.9628
2919.00,4.1002
2918.00,4.3041
2917.00,4.2605
2916.00,4.2227
2915.00,4.3049
2914.00,4.5701
2913.00,4.7392
2912.00,4.4476
2911.00,4.1526
2910.00,4.0068
2909.00,3.9593
2908.00,3.9664
2907.00,3.9643
2906.00,3.9129
2905.00,3.8628
2904.00,3.8835
2903.00,4.0481
2902.00,4.5234
2901.00,4.4196
2900.00,4.3207
2899.00,4.0470
2898.00,3.9551
2897.00,3.8611
2896.00,3.8815
2895.00,3.9490
2894.00,3.9694
2893.00,4.0068
2892.00,4.0662
2891.00,4.1566
2890.00,4.2737
2889.00,4.2353
2888.00,4.1092
2887.00,3.9975
2886.00,3.9895
2885.00,4.0617
2884.00,4.3326
2883.00,4.7419
2882.00,4.6550
2881.00,4.3001
2880.00,4.0248
2879.00,3.8755
2878.00,3.8192
2877.00,3.8688
2876.00,3.9338
2875.00,4.0179
2874.00,4.1867
2873.00,4.3514
2872.00,4.2277
2871.00,4.0667
2870.00,4.0234
2869.00,4.1416
2868.00,4.1079
2867.00,3.9563
2866.00,3.8547
2865.00,3.8673
2864.00,3.9375
2863.00,4.0140
2862.00,4.0904
2861.00,4.0125
2860.00,3.8420
2859.00,3.7554
2858.00,3.8332
2857.00,4.1048
2856.00,4.3968
2855.00,4.2028
2854.00,3.9498
2853.00,3.8647
2852.00,3.8735
2851.00,3.8708
2850.00,3.8391
2849.00,3.8110
2848.00,3.8116
2847.00,3.8378
2846.00,3.8836
2845.00,3.9104
2844.00,3.9073
2843.00,3.9071
2842.00,3.9720
2841.00,4.2189
2840.00,4.4625
2839.00,3.9607
2838.00,3.5440
2837.00,3.2474
2836.00,3.0084
2835.00,2.8016
2834.00,2.6236
2833.00,2.4595
2832.00,2.3055
2831.00,2.1643
2830.00,2.0382
2829.00,1.9279
2828.00,1.8318
2827.00,1.7472
2826.00,1.6713
2825.00,1.6022
2824.00,1.5393
2823.00,1.4819
2822.00,1.4294
2821.00,1.3809
2820.00,1.3359
2819.00,1.2944
2818.00,1.2560
2817.00,1.2203
2816.00,1.1871
2815.00,1.1559
2814.00,1.1265
2813.00,1.0988
2812.00,1.0728
2811.00,1.0483
2810.00,1.0252
2809.00,1.0030
2808.00,0.9816
2807.00,0.9611
2806.00,0.9415
2805.00,0.9228
2804.00,0.9050
2803.00,0.8879
2802.00,0.8717
2801.00,0.8563
2800.00,0.8415
2799.00,0.8273
2798.00,0.8136
2797.00,0.8004
2796.00,0.7876
2795.00,0.7753
2794.00,0.7635
2793.00,0.7521
2792.00,0.7409
2791.00,0.7301
2790.00,0.7194
2789.00,0.7091
2788.00,0.6990
2787.00,0.6891
2786.00,0.6795
2785.00,0.6701
2784.00,0.6608
2783.00,0.6517
2782.00,0.6429
2781.00,0.6345
2780.00,0.6264
2779.00,0.6187
2778.00,0.6114
2777.00,0.6043
2776.00,0.5975
2775.00,0.5912
2774.00,0.5853
2773.00,0.5799
2772.00,0.5749
2771.00,0.5702
2770.00,0.5658
2769.00,0.5619
2768.00,0.5584
2767.00,0.5553
2766.00,0.5525
2765.00,0.5501
2764.00,0.5480
2763.00,0.5462
2762.00,0.5447
2761.00,0.5433
2760.00,0.5421
2759.00,0.5409
2758.00,0.5398
2757.00,0.5388
2756.00,0.5378
2755.00,0.5369
2754.00,0.5361
2753.00,0.5355
2752.00,0.5351
2751.00,0.5349
2750.00,0.5350
2749.00,0.5353
2748.00,0.5358
2747.00,0.5365
2746.00,0.5373
2745.00,0.5383
2744.00,0.5396
2743.00,0.5412
2742.00,0.5431
2741.00,0.5455
2740.00,0.5482
2739.00,0.5514
2738.00,0.5550
2737.00,0.5590
2736.00,0.5634
2735.00,0.5681
2734.00,0.5730
2733.00,0.5778
2732.00,0.5821
2731.00,0.5856
2730.00,0.5880
2729.00,0.5892
2728.00,0.5892
2727.00,0.5882
2726.00,0.5865
2725.00,0.5843
2724.00,0.5819
2723.00,0.5793
2722.00,0.5766
2721.00,0.5737
2720.00,0.5706
2719.00,0.5673
2718.00,0.5638
2717.00,0.5601
2716.00,0.5561
2715.00,0.5519
2714.00,0.5478
2713.00,0.5437
2712.00,0.5398
2711.00,0.5363
2710.00,0.5331
2709.00,0.5303
2708.00,0.5279
2707.00,0.5259
2706.00,0.5242
2705.00,0.5228
2704.00,0.5215
2703.00,0.5206
2702.00,0.5199
2701.00,0.5195
2700.00,0.5194
2699.00,0.5195
2698.00,0.5199
2697.00,0.5205
2696.00,0.5214
2695.00,0.5224
2694.00,0.5235
2693.00,0.5247
2692.00,0.5260
2691.00,0.5272
2690.00,0.5285
2689.00,0.5298
2688.00,0.5311
2687.00,0.5322
2686.00,0.5332
2685.00,0.5340
2684.00,0.5347
2683.00,0.5352
2682.00,0.5356
2681.00,0.5359
2680.00,0.5361
2679.00,0.5364
2678.00,0.5367
2677.00,0.5371
2676.00,0.5375
2675.00,0.5378
2674.00,0.5380
2673.00,0.5381
2672.00,0.5380
2671.00,0.5377
2670.00,0.5371
2669.00,0.5362
2668.00,0.5350
2667.00,0.5334
2666.00,0.5314
2665.00,0.5291
2664.00,0.5267
2663.00,0.5243
2662.00,0.5219
2661.00,0.5195
2660.00,0.5170
2659.00,0.5146
2658.00,0.5121
2657.00,0.5098
2656.00,0.5076
2655.00,0.5055
2654.00,0.5035
2653.00,0.5015
2652.00,0.4997
2651.00,0.4979
2650.00,0.4962
2649.00,0.4946
2648.00,0.4930
2647.00,0.4914
2646.00,0.4899
2645.00,0.4884
2644.00,0.4870
2643.00,0.4856
2642.00,0.4843
2641.00,0.4830
2640.00,0.4818
2639.00,0.4806
2638.00,0.4795
2637.00,0.4784
2636.00,0.4774
2635.00,0.4764
2634.00,0.4754
2633.00,0.4745
2632.00,0.4736
2631.00,0.4727
2630.00,0.4717
2629.00,0.4707
2628.00,0.4696
2627.00,0.4685
2626.00,0.4675
2625.00,0.4665
2624.00,0.4655
2623.00,0.4644
2622.00,0.4632
2621.00,0.4621
2620.00,0.4611
2619.00,0.4601
2618.00,0.4591
2617.00,0.4581
2616.00,0.4570
2615.00,0.4560
2614.00,0.4550
2613.00,0.4540
2612.00,0.4530
2611.00,0.4519
2610.00,0.4509
2609.00,0.4499
2608.00,0.4490
2607.00,0.4480
2606.00,0.4469
2605.00,0.4459
2604.00,0.4449
2603.00,0.4438
2602.00,0.4427
2601.00,0.4415
2600.00,0.4402
2599.00,0.4388
2598.00,0.4374
2597.00,0.4360
2596.00,0.4345
2595.00,0.4329
2594.00,0.4312
2593.00,0.4295
2592.00,0.4278
2591.00,0.4261
2590.00,0.4245
2589.00,0.4229
2588.00,0.4212
2587.00,0.4196
2586.00,0.4179
2585.00,0.4162
2584.00,0.4145
2583.00,0.4128
2582.00,0.4110
2581.00,0.4092
2580.00,0.4075
2579.00,0.4058
2578.00,0.4041
2577.00,0.4024
2576.00,0.4007
2575.00,0.3991
2574.00,0.3975
2573.00,0.3960
2572.00,0.3946
2571.00,0.3932
2570.00,0.3918
2569.00,0.3904
2568.00,0.3891
2567.00,0.3878
2566.00,0.3865
2565.00,0.3851
2564.00,0.3838
2563.00,0.3824
2562.00,0.3810
2561.00,0.3796
2560.00,0.3782
2559.00,0.3769
2558.00,0.3757
2557.00,0.3745
2556.00,0.3733
2555.00,0.3722
2554.00,0.3711
2553.00,0.3700
2552.00,0.3689
2551.00,0.3679
2550.00,0.3669
2549.00,0.3660
2548.00,0.3650
2547.00,0.3641
2546.00,0.3632
2545.00,0.3623
2544.00,0.3615
2543.00,0.3606
2542.00,0.3598
2541.00,0.3591
2540.00,0.3584
2539.00,0.3577
2538.00,0.3570
2537.00,0.3563
2536.00,0.3557
2535.00,0.3551
2534.00,0.3545
2533.00,0.3539
2532.00,0.3531
2531.00,0.3523
2530.00,0.3514
2529.00,0.3505
2528.00,0.3495
2527.00,0.3485
2526.00,0.3474
2525.00,0.3463
2524.00,0.3452
2523.00,0.3440
2522.00,0.3430
2521.00,0.3419
2520.00,0.3409
2519.00,0.3399
2518.00,0.3389
2517.00,0.3379
2516.00,0.3370
2515.00,0.3361
2514.00,0.3353
2513.00,0.3345
2512.00,0.3337
2511.00,0.3329
2510.00,0.3321
2509.00,0.3314
2508.00,0.3308
2507.00,0.3303
2506.00,0.3298
2505.00,0.3294
2504.00,0.3289
2503.00,0.3285
2502.00,0.3281
2501.00,0.3277
2500.00,0.3275
2499.00,0.3273
2498.00,0.3270
2497.00,0.3268
2496.00,0.3265
2495.00,0.3261
2494.00,0.3257
2493.00,0.3254
2492.00,0.3249
2491.00,0.3245
2490.00,0.3240
2489.00,0.3235
2488.00,0.3230
2487.00,0.3224
2486.00,0.3219
2485.00,0.3213
2484.00,0.3208
2483.00,0.3202
2482.00,0.3196
2481.00,0.3191
2480.00,0.3187
2479.00,0.3182
2478.00,0.3177
2477.00,0.3172
2476.00,0.3167
2475.00,0.3162
2474.00,0.3158
2473.00,0.3154
2472.00,0.3151
2471.00,0.3148
2470.00,0.3145
2469.00,0.3142
2468.00,0.3139
2467.00,0.3136
2466.00,0.3133
2465.00,0.3130
2464.00,0.3128
2463.00,0.3125
2462.00,0.3123
2461.00,0.3120
2460.00,0.3118
2459.00,0.3116
2458.00,0.3115
2457.00,0.3113
2456.00,0.3112
2455.00,0.3110
2454.00,0.3109
2453.00,0.3108
2452.00,0.3107
2451.00,0.3106
2450.00,0.3105
2449.00,0.3105
2448.00,0.3105
2447.00,0.3104
2446.00,0.3103
2445.00,0.3103
2444.00,0.3103
2443.00,0.3103
2442.00,0.3104
2441.00,0.3105
2440.00,0.3106
2439.00,0.3106
2438.00,0.3106
2437.00,0.3106
2436.00,0.3107
2435.00,0.3108
2434.00,0.3109
2433.00,0.3110
2432.00,0.3111
2431.00,0.3111
2430.00,0.3112
2429.00,0.3113
2428.00,0.3114
2427.00,0.3116
2426.00,0.3117
2425.00,0.3118
2424.00,0.3119
2423.00,0.3120
2422.00,0.3121
2421.00,0.3123
2420.00,0.3124
2419.00,0.3125
2418.00,0.3126
2417.00,0.3127
2416.00,0.3128
2415.00,0.3128
2414.00,0.3129
2413.00,0.3130
2412.00,0.3131
2411.00,0.3132
2410.00,0.3133
2409.00,0.3133
2408.00,0.3133
2407.00,0.3133
2406.00,0.3133
2405.00,0.3133
2404.00,0.3134
2403.00,0.3134
2402.00,0.3134
2401.00,0.3134
2400.00,0.3134
2399.00,0.3134
2398.00,0.3134
2397.00,0.3134
2396.00,0.3133
2395.00,0.3133
2394.00,0.3132
2393.00,0.3132
2392.00,0.3132
2391.00,0.3132
2390.00,0.3133
2389.00,0.3133
2388.00,0.3134
2387.00,0.3135
2386.00,0.3136
2385.00,0.3138
2384.00,0.3140
2383.00,0.3142
2382.00,0.3144
2381.00,0.3146
2380.00,0.3148
2379.00,0.3150
2378.00,0.3151
2377.00,0.3151
2376.00,0.3151
2375.00,0.3150
2374.00,0.3149
2373.00,0.3147
2372.00,0.3145
2371.00,0.3144
2370.00,0.3143
2369.00,0.3143
2368.00,0.3143
2367.00,0.3142
2366.00,0.3142
2365.00,0.3142
2364.00,0.3142
2363.00,0.3142
2362.00,0.3142
2361.00,0.3141
2360.00,0.3141
2359.00,0.3141
2358.00,0.3140
2357.00,0.3138
2356.00,0.3137
2355.00,0.3135
2354.00,0.3135
2353.00,0.3137
2352.00,0.3138
2351.00,0.3139
2350.00,0.3136
2349.00,0.3131
2348.00,0.3126
2347.00,0.3123
2346.00,0.3123
2345.00,0.3125
2344.00,0.3125
2343.00,0.3124
2342.00,0.3122
2341.00,0.3120
2340.00,0.3119
2339.00,0.3118
2338.00,0.3118
2337.00,0.3117
2336.00,0.3116
2335.00,0.3114
2334.00,0.3112
2333.00,0.3109
2332.00,0.3107
2331.00,0.3105
2330.00,0.3102
2329.00,0.3099
2328.00,0.3096
2327.00,0.3092
2326.00,0.3088
2325.00,0.3085
2324.00,0.3082
2323.00,0.3080
2322.00,0.3079
2321.00,0.3077
2320.00,0.3075
2319.00,0.3072
2318.00,0.3068
2317.00,0.3065
2316.00,0.3062
2315.00,0.3059
2314.00,0.3057
2313.00,0.3055
2312.00,0.3053
2311.00,0.3050
2310.00,0.3046
2309.00,0.3042
2308.00,0.3038
2307.00,0.3034
2306.00,0.3030
2305.00,0.3026
2304.00,0.3023
2303.00,0.3020
2302.00,0.3017
2301.00,0.3014
2300.00,0.3012
2299.00,0.3009
2298.00,0.3006
2297.00,0.3003
2296.00,0.3000
2295.00,0.2997
2294.00,0.2993
2293.00,0.2989
2292.00,0.2985
2291.00,0.2981
2290.00,0.2977
2289.00,0.2974
2288.00,0.2970
2287.00,0.2967
2286.00,0.2963
2285.00,0.2960
2284.00,0.2956
2283.00,0.2952
2282.00,0.2949
2281.00,0.2945
2280.00,0.2941
2279.00,0.2937
2278.00,0.2934
2277.00,0.2931
2276.00,0.2928
2275.00,0.2925
2274.00,0.2922
2273.00,0.2919
2272.00,0.2917
2271.00,0.2914
2270.00,0.2912
2269.00,0.2911
2268.00,0.2910
2267.00,0.2909
2266.00,0.2907
2265.00,0.2906
2264.00,0.2904
2263.00,0.2902
2262.00,0.2900
2261.00,0.2897
2260.00,0.2895
2259.00,0.2892
2258.00,0.2889
2257.00,0.2886
2256.00,0.2882
2255.00,0.2878
2254.00,0.2875
2253.00,0.2872
2252.00,0.2870
2251.00,0.2868
2250.00,0.2866
2249.00,0.2864
2248.00,0.2862
2247.00,0.2860
2246.00,0.2857
2245.00,0.2856
2244.00,0.2854
2243.00,0.2852
2242.00,0.2849
2241.00,0.2847
2240.00,0.2845
2239.00,0.2842
2238.00,0.2840
2237.00,0.2839
2236.00,0.2837
2235.00,0.2836
2234.00,0.2834
2233.00,0.2833
2232.00,0.2832
2231.00,0.2830
2230.00,0.2829
2229.00,0.2828
2228.00,0.2827
2227.00,0.2826
2226.00,0.2824
2225.00,0.2822
2224.00,0.2821
2223.00,0.2820
2222.00,0.2819
2221.00,0.2819
2220.00,0.2818
2219.00,0.2817
2218.00,0.2816
2217.00,0.2815
2216.00,0.2815
2215.00,0.2815
2214.00,0.2814
2213.00,0.2814
2212.00,0.2814
2211.00,0.2813
2210.00,0.2813
2209.00,0.2812
2208.00,0.2812
2207.00,0.2812
2206.00,0.2812
2205.00,0.2812
2204.00,0.2813
2203.00,0.2813
2202.00,0.2813
2201.00,0.2814
2200.00,0.2814
2199.00,0.2815
2198.00,0.2815
2197.00,0.2815
2196.00,0.2815
2195.00,0.2816
2194.00,0.2816
2193.00,0.2818
2192.00,0.2819
2191.00,0.2820
2190.00,0.2821
2189.00,0.2821
2188.00,0.2822
2187.00,0.2822
2186.00,0.2822
2185.00,0.2822
2184.00,0.2823
2183.00,0.2822
2182.00,0.2822
2181.00,0.2822
2180.00,0.2822
2179.00,0.2822
2178.00,0.2821
2177.00,0.2820
2176.00,0.2819
2175.00,0.2818
2174.00,0.2817
2173.00,0.2817
2172.00,0.2816
2171.00,0.2815
2170.00,0.2814
2169.00,0.2813
2168.00,0.2813
2167.00,0.2812
2166.00,0.2811
2165.00,0.2811
2164.00,0.2810
2163.00,0.2809
2162.00,0.2808
2161.00,0.2807
2160.00,0.2806
2159.00,0.2805
2158.00,0.2804
2157.00,0.2802
2156.00,0.2801
2155.00,0.2800
2154.00,0.2799
2153.00,0.2798
2152.00,0.2797
2151.00,0.2795
2150.00,0.2792
2149.00,0.2790
2148.00,0.2786
2147.00,0.2783
2146.00,0.2779
2145.00,0.2774
2144.00,0.2769
2143.00,0.2764
2142.00,0.2758
2141.00,0.2752
2140.00,0.2747
2139.00,0.2743
2138.00,0.2738
2137.00,0.2734
2136.00,0.2730
2135.00,0.2726
2134.00,0.2723
2133.00,0.2720
2132.00,0.2717
2131.00,0.2714
2130.00,0.2712
2129.00,0.2710
2128.00,0.2709
2127.00,0.2708
2126.00,0.2706
2125.00,0.2704
2124.00,0.2703
2123.00,0.2702
2122.00,0.2701
2121.00,0.2701
2120.00,0.2701
2119.00,0.2700
2118.00,0.2699
2117.00,0.2698
2116.00,0.2698
2115.00,0.2698
2114.00,0.2697
2113.00,0.2697
2112.00,0.2696
2111.00,0.2695
2110.00,0.2693
2109.00,0.2692
2108.00,0.2691
2107.00,0.2690
2106.00,0.2689
2105.00,0.2688
2104.00,0.2687
2103.00,0.2686
2102.00,0.2685
2101.00,0.2683
2100.00,0.2682
2099.00,0.2681
2098.00,0.2680
2097.00,0.2679
2096.00,0.2678
2095.00,0.2677
2094.00,0.2676
2093.00,0.2677
2092.00,0.2677
2091.00,0.2677
2090.00,0.2676
2089.00,0.2676
2088.00,0.2676
2087.00,0.2676
2086.00,0.2676
2085.00,0.2676
2084.00,0.2676
2083.00,0.2677
2082.00,0.2677
2081.00,0.2678
2080.00,0.2678
2079.00,0.2679
2078.00,0.2679
2077.00,0.2679
2076.00,0.2679
2075.00,0.2680
2074.00,0.2681
2073.00,0.2682
2072.00,0.2682
2071.00,0.2683
2070.00,0.2683
2069.00,0.2684
2068.00,0.2685
2067.00,0.2686
2066.00,0.2687
2065.00,0.2689
2064.00,0.2691
2063.00,0.2692
2062.00,0.2693
2061.00,0.2694
2060.00,0.2696
2059.00,0.2697
2058.00,0.2699
2057.00,0.2700
2056.00,0.2702
2055.00,0.2704
2054.00,0.2705
2053.00,0.2707
2052.00,0.2709
2051.00,0.2712
2050.00,0.2714
2049.00,0.2717
2048.00,0.2720
2047.00,0.2723
2046.00,0.2725
2045.00,0.2728
2044.00,0.2730
2043.00,0.2733
2042.00,0.2735
2041.00,0.2738
2040.00,0.2741
2039.00,0.2743
2038.00,0.2744
2037.00,0.2745
2036.00,0.2746
2035.00,0.2746
2034.00,0.2747
2033.00,0.2747
2032.00,0.2748
2031.00,0.2748
2030.00,0.2748
2029.00,0.2749
2028.00,0.2749
2027.00,0.2750
2026.00,0.2749
2025.00,0.2749
2024.00,0.2748
2023.00,0.2746
2022.00,0.2743
2021.00,0.2739
2020.00,0.2734
2019.00,0.2727
2018.00,0.2721
2017.00,0.2714
2016.00,0.2707
2015.00,0.2699
2014.00,0.2691
2013.00,0.2684
2012.00,0.2677
2011.00,0.2670
2010.00,0.2663
2009.00,0.2657
2008.00,0.2652
2007.00,0.2647
2006.00,0.2643
2005.00,0.2640
2004.00,0.2637
2003.00,0.2634
2002.00,0.2632
2001.00,0.2630
2000.00,0.2629
1999.00,0.2628
1998.00,0.2627
1997.00,0.2626
1996.00,0.2625
1995.00,0.2623
1994.00,0.2622
1993.00,0.2621
1992.00,0.2621
1991.00,0.2620
1990.00,0.2619
1989.00,0.2618
1988.00,0.2617
1987.00,0.2616
1986.00,0.2615
1985.00,0.2614
1984.00,0.2614
1983.00,0.2613
1982.00,0.2613
1981.00,0.2612
1980.00,0.2612
1979.00,0.2611
1978.00,0.2611
1977.00,0.2611
1976.00,0.2611
1975.00,0.2610
1974.00,0.2609
1973.00,0.2609
1972.00,0.2609
1971.00,0.2609
1970.00,0.2609
1969.00,0.2610
1968.00,0.2611
1967.00,0.2612
1966.00,0.2613
1965.00,0.2614
1964.00,0.2615
1963.00,0.2615
1962.00,0.2615
1961.00,0.2616
1960.00,0.2618
1959.00,0.2619
1958.00,0.2620
1957.00,0.2622
1956.00,0.2623
1955.00,0.2625
1954.00,0.2626
1953.00,0.2628
1952.00,0.2629
1951.00,0.2630
1950.00,0.2631
1949.00,0.2632
1948.00,0.2633
1947.00,0.2634
1946.00,0.2635
1945.00,0.2637
1944.00,0.2639
1943.00,0.2642
1942.00,0.2645
1941.00,0.2649
1940.00,0.2653
1939.00,0.2657
1938.00,0.2659
1937.00,0.2661
1936.00,0.2662
1935.00,0.2662
1934.00,0.2662
1933.00,0.2663
1932.00,0.2663
1931.00,0.2664
1930.00,0.2665
1929.00,0.2665
1928.00,0.2666
1927.00,0.2666
1926.00,0.2665
1925.00,0.2665
1924.00,0.2666
1923.00,0.2668
1922.00,0.2671
1921.00,0.2674
1920.00,0.2677
1919.00,0.2679
1918.00,0.2681
1917.00,0.2683
1916.00,0.2685
1915.00,0.2687
1914.00,0.2688
1913.00,0.2689
1912.00,0.2689
1911.00,0.2690
1910.00,0.2690
1909.00,0.2691
1908.00,0.2692
1907.00,0.2693
1906.00,0.2693
1905.00,0.2693
1904.00,0.2693
1903.00,0.2692
1902.00,0.2692
1901.00,0.2692
1900.00,0.2692
1899.00,0.2693
1898.00,0.2693
1897.00,0.2693
1896.00,0.2694
1895.00,0.2695
1894.00,0.2696
1893.00,0.2697
1892.00,0.2699
1891.00,0.2700
1890.00,0.2701
1889.00,0.2702
1888.00,0.2704
1887.00,0.2706
1886.00,0.2708
1885.00,0.2710
1884.00,0.2711
1883.00,0.2711
1882.00,0.2711
1881.00,0.2711
1880.00,0.2710
1879.00,0.2710
1878.00,0.2708
1877.00,0.2707
1876.00,0.2706
1875.00,0.2704
1874.00,0.2702
1873.00,0.2700
1872.00,0.2698
1871.00,0.2695
1870.00,0.2691
1869.00,0.2687
1868.00,0.2684
1867.00,0.2682
1866.00,0.2681
1865.00,0.2680
1864.00,0.2678
1863.00,0.2675
1862.00,0.2672
1861.00,0.2670
1860.00,0.2668
1859.00,0.2666
1858.00,0.2663
1857.00,0.2661
1856.00,0.2659
1855.00,0.2656
1854.00,0.2654
1853.00,0.2652
1852.00,0.2650
1851.00,0.2649
1850.00,0.2647
1849.00,0.2647
1848.00,0.2646
1847.00,0.2645
1846.00,0.2643
1845.00,0.2641
1844.00,0.2640
1843.00,0.2639
1842.00,0.2640
1841.00,0.2641
1840.00,0.2640
1839.00,0.2637
1838.00,0.2635
1837.00,0.2633
1836.00,0.2633
1835.00,0.2633
1834.00,0.2633
1833.00,0.2633
1832.00,0.2632
1831.00,0.2631
1830.00,0.2628
1829.00,0.2625
1828.00,0.2624
1827.00,0.2626
1826.00,0.2628
1825.00,0.2630
1824.00,0.2632
1823.00,0.2634
1822.00,0.2635
1821.00,0.2637
1820.00,0.2638
1819.00,0.2638
1818.00,0.2639
1817.00,0.2641
1816.00,0.2643
1815.00,0.2644
1814.00,0.2644
1813.00,0.2645
1812.00,0.2647
1811.00,0.2649
1810.00,0.2651
1809.00,0.2655
1808.00,0.2660
1807.00,0.2666
1806.00,0.2673
1805.00,0.2680
1804.00,0.2687
1803.00,0.2694
1802.00,0.2701
1801.00,0.2708
1800.00,0.2714
1799.00,0.2718
1798.00,0.2721
1797.00,0.2727
1796.00,0.2734
1795.00,0.2740
1794.00,0.2744
1793.00,0.2749
1792.00,0.2753
1791.00,0.2758
1790.00,0.2763
1789.00,0.2770
1788.00,0.2774
1787.00,0.2778
1786.00,0.2781
1785.00,0.2786
1784.00,0.2790
1783.00,0.2794
1782.00,0.2797
1781.00,0.2799
1780.00,0.2802
1779.00,0.2806
1778.00,0.2811
1777.00,0.2815
1776.00,0.2819
1775.00,0.2821
1774.00,0.2824
1773.00,0.2831
1772.00,0.2837
1771.00,0.2841
1770.00,0.2845
1769.00,0.2851
1768.00,0.2861
1767.00,0.2870
1766.00,0.2878
1765.00,0.2884
1764.00,0.2889
1763.00,0.2894
1762.00,0.2901
1761.00,0.2909
1760.00,0.2919
1759.00,0.2930
1758.00,0.2941
1757.00,0.2953
1756.00,0.2968
1755.00,0.2983
1754.00,0.3003
1753.00,0.3029
1752.00,0.3064
1751.00,0.3107
1750.00,0.3156
1749.00,0.3209
1748.00,0.3268
1747.00,0.3334
1746.00,0.3406
1745.00,0.3485
1744.00,0.3561
1743.00,0.3626
1742.00,0.3673
1741.00,0.3699
1740.00,0.3702
1739.00,0.3684
1738.00,0.3653
1737.00,0.3616
1736.00,0.3572
1735.00,0.3519
1734.00,0.3462
1733.00,0.3413
1732.00,0.3377
1731.00,0.3344
1730.00,0.3308
1729.00,0.3276
1728.00,0.3254
1727.00,0.3242
1726.00,0.3236
1725.00,0.3234
1724.00,0.3236
1723.00,0.3240
1722.00,0.3245
1721.00,0.3251
1720.00,0.3257
1719.00,0.3266
1718.00,0.3282
1717.00,0.3307
1716.00,0.3335
1715.00,0.3358
1714.00,0.3372
1713.00,0.3385
1712.00,0.3401
1711.00,0.3420
1710.00,0.3440
1709.00,0.3459
1708.00,0.3473
1707.00,0.3480
1706.00,0.3480
1705.00,0.3474
1704.00,0.3464
1703.00,0.3451
1702.00,0.3434
1701.00,0.3410
1700.00,0.3377
1699.00,0.3346
1698.00,0.3331
1697.00,0.3327
1696.00,0.3323
1695.00,0.3315
1694.00,0.3306
1693.00,0.3295
1692.00,0.3280
1691.00,0.3264
1690.00,0.3255
1689.00,0.3252
1688.00,0.3251
1687.00,0.3252
1686.00,0.3256
1685.00,0.3263
1684.00,0.3265
1683.00,0.3258
1682.00,0.3250
1681.00,0.3246
1680.00,0.3245
1679.00,0.3245
1678.00,0.3246
1677.00,0.3249
1676.00,0.3253
1675.00,0.3257
1674.00,0.3262
1673.00,0.3271
1672.00,0.3281
1671.00,0.3287
1670.00,0.3293
1669.00,0.3304
1668.00,0.3319
1667.00,0.3337
1666.00,0.3356
1665.00,0.3374
1664.00,0.3391
1663.00,0.3408
1662.00,0.3426
1661.00,0.3449
1660.00,0.3477
1659.00,0.3504
1658.00,0.3530
1657.00,0.3555
1656.00,0.3578
1655.00,0.3607
1654.00,0.3649
1653.00,0.3702
1652.00,0.3750
1651.00,0.3790
1650.00,0.3816
1649.00,0.3824
1648.00,0.3832
1647.00,0.3858
1646.00,0.3899
1645.00,0.3948
1644.00,0.3997
1643.00,0.4039
1642.00,0.4073
1641.00,0.4107
1640.00,0.4141
1639.00,0.4172
1638.00,0.4202
1637.00,0.4237
1636.00,0.4279
1635.00,0.4322
1634.00,0.4362
1633.00,0.4405
1632.00,0.4448
1631.00,0.4488
1630.00,0.4528
1629.00,0.4572
1628.00,0.4621
1627.00,0.4670
1626.00,0.4723
1625.00,0.4784
1624.00,0.4855
1623.00,0.4932
1622.00,0.5015
1621.00,0.5105
1620.00,0.5201
1619.00,0.5304
1618.00,0.5427
1617.00,0.5583
1616.00,0.5761
1615.00,0.5937
1614.00,0.6109
1613.00,0.6295
1612.00,0.6508
1611.00,0.6745
1610.00,0.6992
1609.00,0.7235
1608.00,0.7462
1607.00,0.7656
1606.00,0.7819
1605.00,0.7977
1604.00,0.8152
1603.00,0.8354
1602.00,0.8594
1601.00,0.8892
1600.00,0.9259
1599.00,0.9695
1598.00,1.0213
1597.00,1.0850
1596.00,1.1647
1595.00,1.2621
1594.00,1.3788
1593.00,1.5213
1592.00,1.6983
1591.00,1.9111
1590.00,2.1545
1589.00,2.4449
1588.00,2.8412
1587.00,3.3655
1586.00,3.5965
1585.00,3.6582
1584.00,3.6757
1583.00,3.5728
1582.00,3.7998
1581.00,3.8621
1580.00,4.1415
1579.00,3.7390
1578.00,2.9592
1577.00,2.5227
1576.00,2.2198
1575.00,1.9864
1574.00,1.8138
1573.00,1.6932
1572.00,1.6097
1571.00,1.5549
1570.00,1.5325
1569.00,1.5513
1568.00,1.6131
1567.00,1.7124
1566.00,1.8485
1565.00,2.0342
1564.00,2.2828
1563.00,2.5665
1562.00,2.7796
1561.00,2.8464
1560.00,2.6789
1559.00,2.2968
1558.00,1.9653
1557.00,1.7349
1556.00,1.5536
1555.00,1.3910
1554.00,1.2516
1553.00,1.1454
1552.00,1.0693
1551.00,1.0138
1550.00,0.9737
1549.00,0.9491
1548.00,0.9391
1547.00,0.9405
1546.00,0.9499
1545.00,0.9653
1544.00,0.9835
1543.00,0.9991
1542.00,1.0073
1541.00,1.0048
1540.00,0.9900
1539.00,0.9654
1538.00,0.9389
1537.00,0.9145
1536.00,0.8904
1535.00,0.8634
1534.00,0.8337
1533.00,0.8055
1532.00,0.7825
1531.00,0.7644
1530.00,0.7495
1529.00,0.7369
1528.00,0.7258
1527.00,0.7154
1526.00,0.7062
1525.00,0.6993
1524.00,0.6953
1523.00,0.6943
1522.00,0.6974
1521.00,0.7054
1520.00,0.7164
1519.00,0.7274
1518.00,0.7371
1517.00,0.7449
1516.00,0.7487
1515.00,0.7457
1514.00,0.7351
1513.00,0.7183
1512.00,0.6977
1511.00,0.6764
1510.00,0.6571
1509.00,0.6413
1508.00,0.6293
1507.00,0.6207
1506.00,0.6159
1505.00,0.6148
1504.00,0.6167
1503.00,0.6196
1502.00,0.6226
1501.00,0.6267
1500.00,0.6323
1499.00,0.6388
1498.00,0.6469
1497.00,0.6581
1496.00,0.6721
1495.00,0.6869
1494.00,0.7011
1493.00,0.7157
1492.00,0.7320
1491.00,0.7500
1490.00,0.7687
1489.00,0.7876
1488.00,0.8066
1487.00,0.8263
1486.00,0.8487
1485.00,0.8751
1484.00,0.9058
1483.00,0.9404
1482.00,0.9805
1481.00,1.0277
1480.00,1.0820
1479.00,1.1433
1478.00,1.2151
1477.00,1.3025
1476.00,1.4074
1475.00,1.5301
1474.00,1.6791
1473.00,1.8747
1472.00,2.1339
1471.00,2.4504
1470.00,2.8020
1469.00,3.1911
1468.00,3.6425
1467.00,4.0274
1466.00,4.2013
1465.00,4.4194
1464.00,4.3143
1463.00,4.0407
1462.00,3.9751
1461.00,4.3514
1460.00,3.9978
1459.00,3.8700
1458.00,3.9480
1457.00,4.0465
1456.00,4.2145
1455.00,4.0698
1454.00,3.8022
1453.00,3.8398
1452.00,3.9615
1451.00,3.9717
1450.00,3.8443
1449.00,3.9389
1448.00,4.0821
1447.00,3.9663
1446.00,3.7852
1445.00,3.8158
1444.00,3.8294
1443.00,3.6279
1442.00,3.4409
1441.00,3.3381
1440.00,3.1807
1439.00,2.9377
1438.00,2.7010
1437.00,2.4905
1436.00,2.2957
1435.00,2.1218
1434.00,1.9719
1433.00,1.8370
1432.00,1.7097
1431.00,1.5911
1430.00,1.4856
1429.00,1.3956
1428.00,1.3211
1427.00,1.2607
1426.00,1.2119
1425.00,1.1724
1424.00,1.1412
1423.00,1.1178
1422.00,1.1009
1421.00,1.0887
1420.00,1.0804
1419.00,1.0768
1418.00,1.0789
1417.00,1.0870
1416.00,1.1007
1415.00,1.1194
1414.00,1.1415
1413.00,1.1643
1412.00,1.1840
1411.00,1.1963
1410.00,1.1988
1409.00,1.1909
1408.00,1.1733
1407.00,1.1467
1406.00,1.1120
1405.00,1.0712
1404.00,1.0280
1403.00,0.9862
1402.00,0.9479
1401.00,0.9133
1400.00,0.8824
1399.00,0.8566
1398.00,0.8372
1397.00,0.8236
1396.00,0.8142
1395.00,0.8076
1394.00,0.8036
1393.00,0.8031
1392.00,0.8081
1391.00,0.8204
1390.00,0.8420
1389.00,0.8761
1388.00,0.9264
1387.00,0.9942
1386.00,1.0758
1385.00,1.1665
1384.00,1.2657
1383.00,1.3767
1382.00,1.5034
1381.00,1.6494
1380.00,1.8150
1379.00,1.9845
1378.00,2.1119
1377.00,2.1453
1376.00,2.0797
1375.00,1.9511
1374.00,1.8026
1373.00,1.6669
1372.00,1.5571
1371.00,1.4732
1370.00,1.4129
1369.00,1.3746
1368.00,1.3536
1367.00,1.3391
1366.00,1.3165
1365.00,1.2754
1364.00,1.2157
1363.00,1.1471
1362.00,1.0817
1361.00,1.0271
1360.00,0.9849
1359.00,0.9532
1358.00,0.9302
1357.00,0.9145
1356.00,0.9054
1355.00,0.9017
1354.00,0.9019
1353.00,0.9049
1352.00,0.9095
1351.00,0.9155
1350.00,0.9235
1349.00,0.9354
1348.00,0.9528
1347.00,0.9756
1346.00,1.0002
1345.00,1.0191
1344.00,1.0239
1343.00,1.0110
1342.00,0.9840
1341.00,0.9497
1340.00,0.9142
1339.00,0.8807
1338.00,0.8498
1337.00,0.8217
1336.00,0.7964
1335.00,0.7740
1334.00,0.7546
1333.00,0.7385
1332.00,0.7257
1331.00,0.7164
1330.00,0.7106
1329.00,0.7081
1328.00,0.7083
1327.00,0.7104
1326.00,0.7132
1325.00,0.7157
1324.00,0.7177
1323.00,0.7195
1322.00,0.7215
1321.00,0.7242
1320.00,0.7277
1319.00,0.7319
1318.00,0.7367
1317.00,0.7419
1316.00,0.7474
1315.00,0.7534
1314.00,0.7601
1313.00,0.7674
1312.00,0.7752
1311.00,0.7831
1310.00,0.7906
1309.00,0.7974
1308.00,0.8026
1307.00,0.8054
1306.00,0.8052
1305.00,0.8024
1304.00,0.7981
1303.00,0.7933
1302.00,0.7891
1301.00,0.7858
1300.00,0.7831
1299.00,0.7803
1298.00,0.7767
1297.00,0.7719
1296.00,0.7664
1295.00,0.7608
1294.00,0.7552
1293.00,0.7493
1292.00,0.7422
1291.00,0.7335
1290.00,0.7231
1289.00,0.7120
1288.00,0.7011
1287.00,0.6913
1286.00,0.6829
1285.00,0.6760
1284.00,0.6712
1283.00,0.6693
1282.00,0.6711
1281.00,0.6765
1280.00,0.6846
1279.00,0.6923
1278.00,0.6956
1277.00,0.6917
1276.00,0.6810
1275.00,0.6664
1274.00,0.6518
1273.00,0.6394
1272.00,0.6301
1271.00,0.6237
1270.00,0.6192
1269.00,0.6159
1268.00,0.6126
1267.00,0.6089
1266.00,0.6047
1265.00,0.6004
1264.00,0.5964
1263.00,0.5932
1262.00,0.5908
1261.00,0.5890
1260.00,0.5880
1259.00,0.5881
1258.00,0.5892
1257.00,0.5910
1256.00,0.5932
1255.00,0.5958
1254.00,0.5988
1253.00,0.6016
1252.00,0.6036
1251.00,0.6043
1250.00,0.6035
1249.00,0.6013
1248.00,0.5981
1247.00,0.5944
1246.00,0.5904
1245.00,0.5865
1244.00,0.5830
1243.00,0.5800
1242.00,0.5774
1241.00,0.5747
1240.00,0.5718
1239.00,0.5690
1238.00,0.5675
1237.00,0.5682
1236.00,0.5714
1235.00,0.5768
1234.00,0.5835
1233.00,0.5905
1232.00,0.5969
1231.00,0.6016
1230.00,0.6033
1229.00,0.6011
1228.00,0.5945
1227.00,0.5843
1226.00,0.5718
1225.00,0.5588
1224.00,0.5465
1223.00,0.5361
1222.00,0.5277
1221.00,0.5212
1220.00,0.5165
1219.00,0.5132
1218.00,0.5114
1217.00,0.5110
1216.00,0.5116
1215.00,0.5129
1214.00,0.5145
1213.00,0.5157
1212.00,0.5163
1211.00,0.5160
1210.00,0.5146
1209.00,0.5123
1208.00,0.5091
1207.00,0.5056
1206.00,0.5025
1205.00,0.5006
1204.00,0.5007
1203.00,0.5033
1202.00,0.5085
1201.00,0.5153
1200.00,0.5217
1199.00,0.5257
1198.00,0.5264
1197.00,0.5248
1196.00,0.5230
1195.00,0.5229
1194.00,0.5251
1193.00,0.5293
1192.00,0.5345
1191.00,0.5393
1190.00,0.5424
1189.00,0.5424
1188.00,0.5394
1187.00,0.5344
1186.00,0.5286
1185.00,0.5228
1184.00,0.5175
1183.00,0.5128
1182.00,0.5087
1181.00,0.5053
1180.00,0.5025
1179.00,0.5007
1178.00,0.4998
1177.00,0.4998
1176.00,0.5007
1175.00,0.5027
1174.00,0.5056
1173.00,0.5093
1172.00,0.5134
1171.00,0.5175
1170.00,0.5210
1169.00,0.5235
1168.00,0.5250
1167.00,0.5261
1166.00,0.5270
1165.00,0.5281
1164.00,0.5295
1163.00,0.5312
1162.00,0.5332
1161.00,0.5350
1160.00,0.5361
1159.00,0.5363
1158.00,0.5359
1157.00,0.5351
1156.00,0.5344
1155.00,0.5338
1154.00,0.5334
1153.00,0.5326
1152.00,0.5315
1151.00,0.5301
1150.00,0.5285
1149.00,0.5270
1148.00,0.5254
1147.00,0.5241
1146.00,0.5228
1145.00,0.5216
1144.00,0.5208
1143.00,0.5207
1142.00,0.5217
1141.00,0.5240
1140.00,0.5277
1139.00,0.5327
1138.00,0.5389
1137.00,0.5463
1136.00,0.5547
1135.00,0.5631
1134.00,0.5697
1133.00,0.5724
1132.00,0.5700
1131.00,0.5634
1130.00,0.5549
1129.00,0.5474
1128.00,0.5430
1127.00,0.5422
1126.00,0.5437
1125.00,0.5450
1124.00,0.5442
1123.00,0.5406
1122.00,0.5352
1121.00,0.5301
1120.00,0.5267
1119.00,0.5258
1118.00,0.5274
1117.00,0.5306
1116.00,0.5340
1115.00,0.5360
1114.00,0.5347
1113.00,0.5295
1112.00,0.5210
1111.00,0.5108
1110.00,0.5009
1109.00,0.4925
1108.00,0.4864
1107.00,0.4830
1106.00,0.4826
1105.00,0.4848
1104.00,0.4893
1103.00,0.4953
1102.00,0.5024
1101.00,0.5094
1100.00,0.5150
1099.00,0.5177
1098.00,0.5168
1097.00,0.5126
1096.00,0.5069
1095.00,0.5014
1094.00,0.4969
1093.00,0.4936
1092.00,0.4909
1091.00,0.4887
1090.00,0.4867
1089.00,0.4852
1088.00,0.4845
1087.00,0.4850
1086.00,0.4870
1085.00,0.4903
1084.00,0.4952
1083.00,0.5014
1082.00,0.5089
1081.00,0.5170
1080.00,0.5247
1079.00,0.5311
1078.00,0.5351
1077.00,0.5362
1076.00,0.5339
1075.00,0.5286
1074.00,0.5211
1073.00,0.5125
1072.00,0.5042
1071.00,0.4969
1070.00,0.4907
1069.00,0.4853
1068.00,0.4805
1067.00,0.4762
1066.00,0.4725
1065.00,0.4696
1064.00,0.4673
1063.00,0.4657
1062.00,0.4645
1061.00,0.4632
1060.00,0.4616
1059.00,0.4594
1058.00,0.4568
1057.00,0.4539
1056.00,0.4509
1055.00,0.4481
1054.00,0.4454
1053.00,0.4426
1052.00,0.4401
1051.00,0.4380
1050.00,0.4366
1049.00,0.4358
1048.00,0.4356
1047.00,0.4357
1046.00,0.4358
1045.00,0.4358
1044.00,0.4355
1043.00,0.4353
1042.00,0.4354
1041.00,0.4358
1040.00,0.4364
1039.00,0.4372
1038.00,0.4381
1037.00,0.4391
1036.00,0.4405
1035.00,0.4425
1034.00,0.4455
1033.00,0.4494
1032.00,0.4542
1031.00,0.4596
1030.00,0.4651
1029.00,0.4698
1028.00,0.4727
1027.00,0.4732
1026.00,0.4709
1025.00,0.4659
1024.00,0.4591
1023.00,0.4516
1022.00,0.4445
1021.00,0.4385
1020.00,0.4339
1019.00,0.4307
1018.00,0.4285
1017.00,0.4272
1016.00,0.4263
1015.00,0.4259
1014.00,0.4256
1013.00,0.4251
1012.00,0.4243
1011.00,0.4236
1010.00,0.4234
1009.00,0.4239
1008.00,0.4249
1007.00,0.4261
1006.00,0.4274
1005.00,0.4286
1004.00,0.4297
1003.00,0.4306
1002.00,0.4315
1001.00,0.4325
1000.00,0.4335
999.00,0.4344
998.00,0.4347
997.00,0.4343
996.00,0.4332
995.00,0.4319
994.00,0.4304
993.00,0.4291
992.00,0.4279
991.00,0.4269
990.00,0.4262
989.00,0.4254
988.00,0.4242
987.00,0.4226
986.00,0.4209
985.00,0.4199
984.00,0.4203
983.00,0.4223
982.00,0.4259
981.00,0.4309
980.00,0.4374
979.00,0.4459
978.00,0.4574
977.00,0.4734
976.00,0.4955
975.00,0.5253
974.00,0.5641
973.00,0.6134
972.00,0.6735
971.00,0.7415
970.00,0.8097
969.00,0.8643
968.00,0.8893
967.00,0.8761
966.00,0.8299
965.00,0.7661
964.00,0.6993
963.00,0.6390
962.00,0.5902
961.00,0.5549
960.00,0.5336
959.00,0.5248
958.00,0.5254
957.00,0.5306
956.00,0.5353
955.00,0.5353
954.00,0.5286
953.00,0.5160
952.00,0.5001
951.00,0.4840
950.00,0.4699
949.00,0.4590
948.00,0.4519
947.00,0.4482
946.00,0.4476
945.00,0.4493
944.00,0.4527
943.00,0.4571
942.00,0.4619
941.00,0.4663
940.00,0.4696
939.00,0.4714
938.00,0.4717
937.00,0.4706
936.00,0.4688
935.00,0.4662
934.00,0.4631
933.00,0.4591
932.00,0.4545
931.00,0.4497
930.00,0.4449
929.00,0.4404
928.00,0.4369
927.00,0.4348
926.00,0.4346
925.00,0.4365
924.00,0.4404
923.00,0.4458
922.00,0.4512
921.00,0.4547
920.00,0.4544
919.00,0.4498
918.00,0.4418
917.00,0.4322
916.00,0.4227
915.00,0.4144
914.00,0.4077
913.00,0.4026
912.00,0.3990
911.00,0.3966
910.00,0.3954
909.00,0.3953
908.00,0.3966
907.00,0.3997
906.00,0.4045
905.00,0.4103
904.00,0.4152
903.00,0.4174
902.00,0.4163
901.00,0.4128
900.00,0.4091
899.00,0.4069
898.00,0.4066
897.00,0.4077
896.00,0.4098
895.00,0.4128
894.00,0.4167
893.00,0.4212
892.00,0.4261
891.00,0.4309
890.00,0.4347
889.00,0.4367
888.00,0.4365
887.00,0.4341
886.00,0.4303
885.00,0.4261
884.00,0.4220
883.00,0.4186
882.00,0.4160
881.00,0.4144
880.00,0.4136
879.00,0.4134
878.00,0.4134
877.00,0.4136
876.00,0.4141
875.00,0.4149
874.00,0.4159
873.00,0.4165
872.00,0.4167
871.00,0.4168
870.00,0.4171
869.00,0.4179
868.00,0.4195
867.00,0.4222
866.00,0.4260
865.00,0.4308
864.00,0.4360
863.00,0.4405
862.00,0.4428
861.00,0.4414
860.00,0.4361
859.00,0.4283
858.00,0.4197
857.00,0.4121
856.00,0.4062
855.00,0.4020
854.00,0.3990
853.00,0.3969
852.00,0.3953
851.00,0.3944
850.00,0.3938
849.00,0.3934
848.00,0.3929
847.00,0.3923
846.00,0.3916
845.00,0.3911
844.00,0.3911
843.00,0.3921
842.00,0.3945
841.00,0.3992
840.00,0.4067
839.00,0.4168
838.00,0.4280
837.00,0.4376
836.00,0.4427
835.00,0.4423
834.00,0.4372
833.00,0.4300
832.00,0.4235
831.00,0.4199
830.00,0.4200
829.00,0.4233
828.00,0.4285
827.00,0.4345
826.00,0.4409
825.00,0.4479
824.00,0.4556
823.00,0.4636
822.00,0.4705
821.00,0.4746
820.00,0.4754
819.00,0.4732
818.00,0.4687
817.00,0.4633
816.00,0.4578
815.00,0.4530
814.00,0.4488
813.00,0.4446
812.00,0.4404
811.00,0.4363
810.00,0.4323
809.00,0.4284
808.00,0.4246
807.00,0.4209
806.00,0.4173
805.00,0.4136
804.00,0.4098
803.00,0.4060
802.00,0.4024
801.00,0.3994
800.00,0.3972
799.00,0.3958
798.00,0.3949
797.00,0.3943
796.00,0.3938
795.00,0.3937
794.00,0.3937
793.00,0.3941
792.00,0.3948
791.00,0.3960
790.00,0.3975
789.00,0.3990
788.00,0.4002
787.00,0.4017
786.00,0.4042
785.00,0.4079
784.00,0.4132
783.00,0.4202
782.00,0.4290
781.00,0.4397
780.00,0.4518
779.00,0.4638
778.00,0.4730
777.00,0.4765
776.00,0.4737
775.00,0.4667
774.00,0.4590
773.00,0.4533
772.00,0.4504
771.00,0.4502
770.00,0.4514
769.00,0.4534
768.00,0.4555
767.00,0.4578
766.00,0.4599
765.00,0.4617
764.00,0.4632
763.00,0.4651
762.00,0.4682
761.00,0.4723
760.00,0.4766
759.00,0.4803
758.00,0.4830
757.00,0.4847
756.00,0.4863
755.00,0.4887
754.00,0.4921
753.00,0.4963
752.00,0.5008
751.00,0.5057
750.00,0.5109
749.00,0.5164
748.00,0.5221
747.00,0.5281
746.00,0.5349
745.00,0.5424
744.00,0.5507
743.00,0.5598
742.00,0.5697
741.00,0.5805
740.00,0.5920
739.00,0.6041
738.00,0.6168
737.00,0.6298
736.00,0.6430
735.00,0.6566
734.00,0.6708
733.00,0.6857
732.00,0.7014
731.00,0.7188
730.00,0.7390
729.00,0.7631
728.00,0.7928
727.00,0.8304
726.00,0.8784
725.00,0.9367
724.00,1.0005
723.00,1.0582
722.00,1.0920
721.00,1.0866
720.00,1.0425
719.00,0.9774
718.00,0.9100
717.00,0.8505
716.00,0.8019
715.00,0.7640
714.00,0.7349
713.00,0.7118
712.00,0.6925
711.00,0.6752
710.00,0.6587
709.00,0.6415
708.00,0.6234
707.00,0.6051
706.00,0.5877
705.00,0.5712
704.00,0.5557
703.00,0.5414
702.00,0.5287
701.00,0.5173
700.00,0.5063
699.00,0.4950
698.00,0.4829
697.00,0.4699
696.00,0.4570
695.00,0.4454
694.00,0.4357
693.00,0.4280
692.00,0.4218
691.00,0.4170
690.00,0.4137
689.00,0.4111
688.00,0.4084
687.00,0.4051
686.00,0.4013
685.00,0.3974
684.00,0.3940
683.00,0.3914
682.00,0.3894
681.00,0.3879
680.00,0.3865
679.00,0.3854
678.00,0.3848
677.00,0.3844
676.00,0.3842
675.00,0.3840
674.00,0.3839
673.00,0.3840
672.00,0.3843
671.00,0.3846
670.00,0.3848
669.00,0.3851
668.00,0.3854
667.00,0.3857
666.00,0.3869
665.00,0.3885
664.00,0.3896
663.00,0.3905
662.00,0.3915
661.00,0.3928
660.00,0.3941
659.00,0.3953
658.00,0.3965
657.00,0.3971
656.00,0.3974
655.00,0.3979
654.00,0.3989
653.00,0.4001
652.00,0.4012
651.00,0.4021
650.00,0.4030
649.00,0.4038
648.00,0.4046
647.00,0.4059
646.00,0.4077
645.00,0.4096
644.00,0.4113
643.00,0.4128
642.00,0.4145
641.00,0.4165
640.00,0.4183
639.00,0.4201
638.00,0.4218
637.00,0.4235
636.00,0.4250
635.00,0.4262
634.00,0.4274
633.00,0.4289
632.00,0.4306
631.00,0.4323
630.00,0.4343
629.00,0.4364
628.00,0.4387
627.00,0.4414
626.00,0.4447
625.00,0.4481
624.00,0.4512
623.00,0.4537
622.00,0.4558
621.00,0.4573
620.00,0.4584
619.00,0.4593
618.00,0.4603
617.00,0.4610
616.00,0.4610
615.00,0.4607
614.00,0.4605
613.00,0.4602
612.00,0.4596
611.00,0.4587
610.00,0.4581
609.00,0.4578
608.00,0.4575
607.00,0.4571
606.00,0.4571
605.00,0.4572
604.00,0.4568
603.00,0.4559
602.00,0.4548
601.00,0.4538
600.00,0.4527
599.00,0.4519
598.00,0.4515
597.00,0.4512
596.00,0.4508
595.00,0.4506
594.00,0.4511
593.00,0.4520
592.00,0.4528
591.00,0.4534
590.00,0.4544
589.00,0.4558
588.00,0.4575
587.00,0.4599
586.00,0.4632
585.00,0.4673
584.00,0.4714
583.00,0.4750
582.00,0.4784
581.00,0.4812
580.00,0.4835
579.00,0.4856
578.00,0.4880
577.00,0.4906
576.00,0.4933
575.00,0.4958
574.00,0.4984
573.00,0.5008
572.00,0.5027
571.00,0.5042
570.00,0.5060
569.00,0.5085
568.00,0.5114
567.00,0.5149
566.00,0.5189
565.00,0.5227
564.00,0.5255
563.00,0.5280
562.00,0.5312
561.00,0.5352
560.00,0.5392
559.00,0.5429
558.00,0.5467
557.00,0.5505
556.00,0.5539
555.00,0.5571
554.00,0.5613
553.00,0.5667
552.00,0.5725
551.00,0.5781
550.00,0.5836
