Created as New Dataset,
cm-1,A
4000.00,0.3484
3999.00,0.3481
3998.00,0.3478
3997.00,0.3476
3996.00,0.3474
3995.00,0.3472
3994.00,0.3469
3993.00,0.3467
3992.00,0.3464
3991.00,0.3460
3990.00,0.3456
3989.00,0.3452
3988.00,0.3448
3987.00,0.3443
3986.00,0.3439
3985.00,0.3435
3984.00,0.3432
3983.00,0.3428
3982.00,0.3424
3981.00,0.3419
3980.00,0.3413
3979.00,0.3408
3978.00,0.3403
3977.00,0.3400
3976.00,0.3397
3975.00,0.3395
3974.00,0.3393
3973.00,0.3390
3972.00,0.3388
3971.00,0.3385
3970.00,0.3383
3969.00,0.3380
3968.00,0.3378
3967.00,0.3375
3966.00,0.3373
3965.00,0.3371
3964.00,0.3369
3963.00,0.3367
3962.00,0.3364
3961.00,0.3362
3960.00,0.3360
3959.00,0.3358
3958.00,0.3356
3957.00,0.3354
3956.00,0.3352
3955.00,0.3350
3954.00,0.3348
3953.00,0.3346
3952.00,0.3344
3951.00,0.3341
3950.00,0.3339
3949.00,0.3337
3948.00,0.3335
3947.00,0.3333
3946.00,0.3331
3945.00,0.3328
3944.00,0.3326
3943.00,0.3325
3942.00,0.3324
3941.00,0.3323
3940.00,0.3322
3939.00,0.3321
3938.00,0.3320
3937.00,0.3320
3936.00,0.3319
3935.00,0.3318
3934.00,0.3317
3933.00,0.3316
3932.00,0.3316
3931.00,0.3316
3930.00,0.3316
3929.00,0.3316
3928.00,0.3316
3927.00,0.3317
3926.00,0.3317
3925.00,0.3317
3924.00,0.3318
3923.00,0.3317
3922.00,0.3317
3921.00,0.3315
3920.00,0.3314
3919.00,0.3314
3918.00,0.3314
3917.00,0.3314
3916.00,0.3314
3915.00,0.3313
3914.00,0.3313
3913.00,0.3313
3912.00,0.3312
3911.00,0.3311
3910.00,0.3309
3909.00,0.3307
3908.00,0.3304
3907.00,0.3300
3906.00,0.3298
3905.00,0.3296
3904.00,0.3294
3903.00,0.3293
3902.00,0.3292
3901.00,0.3292
3900.00,0.3294
3899.00,0.3296
3898.00,0.3297
3897.00,0.3297
3896.00,0.3296
3895.00,0.3295
3894.00,0.3295
3893.00,0.3295
3892.00,0.3295
3891.00,0.3294
3890.00,0.3292
3889.00,0.3289
3888.00,0.3287
3887.00,0.3285
3886.00,0.3286
3885.00,0.3286
3884.00,0.3285
3883.00,0.3283
3882.00,0.3282
3881.00,0.3282
3880.00,0.3283
3879.00,0.3284
3878.00,0.3283
3877.00,0.3281
3876.00,0.3280
3875.00,0.3279
3874.00,0.3278
3873.00,0.3276
3872.00,0.3273
3871.00,0.3270
3870.00,0.3269
3869.00,0.3268
3868.00,0.3266
3867.00,0.3263
3866.00,0.3262
3865.00,0.3263
3864.00,0.3263
3863.00,0.3264
3862.00,0.3263
3861.00,0.3263
3860.00,0.3262
3859.00,0.3261
3858.00,0.3257
3857.00,0.3251
3856.00,0.3244
3855.00,0.3240
3854.00,0.3239
3853.00,0.3241
3852.00,0.3242
3851.00,0.3242
3850.00,0.3244
3849.00,0.3246
3848.00,0.3249
3847.00,0.3250
3846.00,0.3251
3845.00,0.3250
3844.00,0.3248
3843.00,0.3245
3842.00,0.3242
3841.00,0.3239
3840.00,0.3237
3839.00,0.3236
3838.00,0.3235
3837.00,0.3234
3836.00,0.3232
3835.00,0.3231
3834.00,0.3232
3833.00,0.3233
3832.00,0.3236
3831.00,0.3237
3830.00,0.3238
3829.00,0.3238
3828.00,0.3238
3827.00,0.3238
3826.00,0.3237
3825.00,0.3234
3824.00,0.3230
3823.00,0.3226
3822.00,0.3225
3821.00,0.3224
3820.00,0.3222
3819.00,0.3219
3818.00,0.3215
3817.00,0.3214
3816.00,0.3215
3815.00,0.3215
3814.00,0.3215
3813.00,0.3214
3812.00,0.3213
3811.00,0.3212
3810.00,0.3210
3809.00,0.3207
3808.00,0.3204
3807.00,0.3202
3806.00,0.3199
3805.00,0.3195
3804.00,0.3191
3803.00,0.3188
3802.00,0.3189
3801.00,0.3190
3800.00,0.3189
3799.00,0.3187
3798.00,0.3186
3797.00,0.3187
3796.00,0.3189
3795.00,0.3190
3794.00,0.3190
3793.00,0.3189
3792.00,0.3188
3791.00,0.3187
3790.00,0.3185
3789.00,0.3183
3788.00,0.3181
3787.00,0.3179
3786.00,0.3177
3785.00,0.3175
3784.00,0.3173
3783.00,0.3170
3782.00,0.3168
3781.00,0.3165
3780.00,0.3164
3779.00,0.3162
3778.00,0.3160
3777.00,0.3158
3776.00,0.3157
3775.00,0.3156
3774.00,0.3154
3773.00,0.3152
3772.00,0.3149
3771.00,0.3146
3770.00,0.3144
3769.00,0.3143
3768.00,0.3141
3767.00,0.3140
3766.00,0.3140
3765.00,0.3140
3764.00,0.3140
3763.00,0.3139
3762.00,0.3138
3761.00,0.3136
3760.00,0.3135
3759.00,0.3133
3758.00,0.3132
3757.00,0.3129
3756.00,0.3126
3755.00,0.3122
3754.00,0.3118
3753.00,0.3114
3752.00,0.3110
3751.00,0.3107
3750.00,0.3105
3749.00,0.3103
3748.00,0.3099
3747.00,0.3096
3746.00,0.3095
3745.00,0.3096
3744.00,0.3099
3743.00,0.3099
3742.00,0.3097
3741.00,0.3095
3740.00,0.3095
3739.00,0.3095
3738.00,0.3094
3737.00,0.3091
3736.00,0.3089
3735.00,0.3087
3734.00,0.3086
3733.00,0.3086
3732.00,0.3087
3731.00,0.3088
3730.00,0.3088
3729.00,0.3088
3728.00,0.3087
3727.00,0.3088
3726.00,0.3088
3725.00,0.3087
3724.00,0.3086
3723.00,0.3085
3722.00,0.3084
3721.00,0.3084
3720.00,0.3084
3719.00,0.3084
3718.00,0.3083
3717.00,0.3082
3716.00,0.3080
3715.00,0.3077
3714.00,0.3074
3713.00,0.3071
3712.00,0.3070
3711.00,0.3069
3710.00,0.3068
3709.00,0.3069
3708.00,0.3070
3707.00,0.3072
3706.00,0.3073
3705.00,0.3073
3704.00,0.3073
3703.00,0.3073
3702.00,0.3073
3701.00,0.3074
3700.00,0.3073
3699.00,0.3073
3698.00,0.3073
3697.00,0.3074
3696.00,0.3075
3695.00,0.3075
3694.00,0.3074
3693.00,0.3072
3692.00,0.3070
3691.00,0.3068
3690.00,0.3068
3689.00,0.3070
3688.00,0.3072
3687.00,0.3074
3686.00,0.3075
3685.00,0.3077
3684.00,0.3079
3683.00,0.3080
3682.00,0.3080
3681.00,0.3078
3680.00,0.3075
3679.00,0.3070
3678.00,0.3066
3677.00,0.3063
3676.00,0.3062
3675.00,0.3063
3674.00,0.3062
3673.00,0.3061
3672.00,0.3061
3671.00,0.3065
3670.00,0.3070
3669.00,0.3074
3668.00,0.3078
3667.00,0.3081
3666.00,0.3086
3665.00,0.3093
3664.00,0.3100
3663.00,0.3108
3662.00,0.3116
3661.00,0.3126
3660.00,0.3137
3659.00,0.3152
3658.00,0.3170
3657.00,0.3194
3656.00,0.3222
3655.00,0.3250
3654.00,0.3275
3653.00,0.3297
3652.00,0.3318
3651.00,0.3335
3650.00,0.3347
3649.00,0.3351
3648.00,0.3347
3647.00,0.3337
3646.00,0.3323
3645.00,0.3307
3644.00,0.3289
3643.00,0.3271
3642.00,0.3253
3641.00,0.3235
3640.00,0.3218
3639.00,0.3203
3638.00,0.3190
3637.00,0.3179
3636.00,0.3170
3635.00,0.3163
3634.00,0.3156
3633.00,0.3149
3632.00,0.3141
3631.00,0.3134
3630.00,0.3129
3629.00,0.3127
3628.00,0.3127
3627.00,0.3127
3626.00,0.3128
3625.00,0.3130
3624.00,0.3132
3623.00,0.3133
3622.00,0.3131
3621.00,0.3127
3620.00,0.3123
3619.00,0.3119
3618.00,0.3115
3617.00,0.3111
3616.00,0.3108
3615.00,0.3106
3614.00,0.3105
3613.00,0.3104
3612.00,0.3103
3611.00,0.3102
3610.00,0.3101
3609.00,0.3100
3608.00,0.3100
3607.00,0.3100
3606.00,0.3098
3605.00,0.3096
3604.00,0.3092
3603.00,0.3087
3602.00,0.3081
3601.00,0.3074
3600.00,0.3066
3599.00,0.3057
3598.00,0.3047
3597.00,0.3037
3596.00,0.3028
3595.00,0.3019
3594.00,0.3011
3593.00,0.3003
3592.00,0.2996
3591.00,0.2989
3590.00,0.2984
3589.00,0.2980
3588.00,0.2977
3587.00,0.2975
3586.00,0.2972
3585.00,0.2970
3584.00,0.2969
3583.00,0.2969
3582.00,0.2969
3581.00,0.2969
3580.00,0.2968
3579.00,0.2966
3578.00,0.2965
3577.00,0.2963
3576.00,0.2962
3575.00,0.2962
3574.00,0.2961
3573.00,0.2961
3572.00,0.2959
3571.00,0.2958
3570.00,0.2955
3569.00,0.2953
3568.00,0.2952
3567.00,0.2951
3566.00,0.2951
3565.00,0.2950
3564.00,0.2951
3563.00,0.2952
3562.00,0.2953
3561.00,0.2954
3560.00,0.2955
3559.00,0.2956
3558.00,0.2956
3557.00,0.2957
3556.00,0.2957
3555.00,0.2958
3554.00,0.2959
3553.00,0.2960
3552.00,0.2962
3551.00,0.2964
3550.00,0.2966
3549.00,0.2967
3548.00,0.2969
3547.00,0.2972
3546.00,0.2974
3545.00,0.2977
3544.00,0.2980
3543.00,0.2982
3542.00,0.2985
3541.00,0.2988
3540.00,0.2991
3539.00,0.2993
3538.00,0.2995
3537.00,0.2997
3536.00,0.2999
3535.00,0.3001
3534.00,0.3003
3533.00,0.3005
3532.00,0.3006
3531.00,0.3008
3530.00,0.3010
3529.00,0.3012
3528.00,0.3013
3527.00,0.3014
3526.00,0.3016
3525.00,0.3019
3524.00,0.3022
3523.00,0.3025
3522.00,0.3028
3521.00,0.3030
3520.00,0.3033
3519.00,0.3037
3518.00,0.3041
3517.00,0.3045
3516.00,0.3049
3515.00,0.3053
3514.00,0.3056
3513.00,0.3059
3512.00,0.3063
3511.00,0.3066
3510.00,0.3070
3509.00,0.3075
3508.00,0.3079
3507.00,0.3083
3506.00,0.3087
3505.00,0.3090
3504.00,0.3095
3503.00,0.3100
3502.00,0.3105
3501.00,0.3110
3500.00,0.3114
3499.00,0.3118
3498.00,0.3122
3497.00,0.3126
3496.00,0.3131
3495.00,0.3137
3494.00,0.3143
3493.00,0.3149
3492.00,0.3155
3491.00,0.3161
3490.00,0.3166
3489.00,0.3172
3488.00,0.3177
3487.00,0.3182
3486.00,0.3188
3485.00,0.3194
3484.00,0.3199
3483.00,0.3205
3482.00,0.3210
3481.00,0.3214
3480.00,0.3219
3479.00,0.3224
3478.00,0.3229
3477.00,0.3234
3476.00,0.3239
3475.00,0.3244
3474.00,0.3248
3473.00,0.3254
3472.00,0.3259
3471.00,0.3265
3470.00,0.3271
3469.00,0.3277
3468.00,0.3282
3467.00,0.3287
3466.00,0.3293
3465.00,0.3300
3464.00,0.3306
3463.00,0.3313
3462.00,0.3319
3461.00,0.3326
3460.00,0.3332
3459.00,0.3338
3458.00,0.3345
3457.00,0.3351
3456.00,0.3358
3455.00,0.3366
3454.00,0.3373
3453.00,0.3381
3452.00,0.3389
3451.00,0.3397
3450.00,0.3407
3449.00,0.3417
3448.00,0.3428
3447.00,0.3439
3446.00,0.3452
3445.00,0.3465
3444.00,0.3478
3443.00,0.3492
3442.00,0.3505
3441.00,0.3519
3440.00,0.3532
3439.00,0.3544
3438.00,0.3556
3437.00,0.3566
3436.00,0.3576
3435.00,0.3584
3434.00,0.3591
3433.00,0.3598
3432.00,0.3604
3431.00,0.3610
3430.00,0.3616
3429.00,0.3623
3428.00,0.3630
3427.00,0.3637
3426.00,0.3644
3425.00,0.3651
3424.00,0.3657
3423.00,0.3664
3422.00,0.3670
3421.00,0.3677
3420.00,0.3684
3419.00,0.3692
3418.00,0.3700
3417.00,0.3708
3416.00,0.3718
3415.00,0.3727
3414.00,0.3737
3413.00,0.3746
3412.00,0.3755
3411.00,0.3765
3410.00,0.3775
3409.00,0.3786
3408.00,0.3797
3407.00,0.3809
3406.00,0.3820
3405.00,0.3832
3404.00,0.3844
3403.00,0.3856
3402.00,0.3868
3401.00,0.3880
3400.00,0.3892
3399.00,0.3904
3398.00,0.3916
3397.00,0.3928
3396.00,0.3940
3395.00,0.3952
3394.00,0.3965
3393.00,0.3977
3392.00,0.3989
3391.00,0.4002
3390.00,0.4014
3389.00,0.4026
3388.00,0.4038
3387.00,0.4050
3386.00,0.4062
3385.00,0.4074
3384.00,0.4087
3383.00,0.4100
3382.00,0.4113
3381.00,0.4127
3380.00,0.4141
3379.00,0.4156
3378.00,0.4170
3377.00,0.4185
3376.00,0.4199
3375.00,0.4214
3374.00,0.4229
3373.00,0.4245
3372.00,0.4261
3371.00,0.4278
3370.00,0.4295
3369.00,0.4313
3368.00,0.4330
3367.00,0.4347
3366.00,0.4364
3365.00,0.4382
3364.00,0.4400
3363.00,0.4418
3362.00,0.4436
3361.00,0.4455
3360.00,0.4474
3359.00,0.4493
3358.00,0.4512
3357.00,0.4531
3356.00,0.4549
3355.00,0.4568
3354.00,0.4586
3353.00,0.4606
3352.00,0.4625
3351.00,0.4643
3350.00,0.4660
3349.00,0.4677
3348.00,0.4693
3347.00,0.4709
3346.00,0.4725
3345.00,0.4740
3344.00,0.4755
3343.00,0.4770
3342.00,0.4784
3341.00,0.4797
3340.00,0.4810
3339.00,0.4821
3338.00,0.4831
3337.00,0.4840
3336.00,0.4848
3335.00,0.4856
3334.00,0.4862
3333.00,0.4869
3332.00,0.4874
3331.00,0.4879
3330.00,0.4882
3329.00,0.4885
3328.00,0.4886
3327.00,0.4886
3326.00,0.4884
3325.00,0.4882
3324.00,0.4879
3323.00,0.4875
3322.00,0.4871
3321.00,0.4866
3320.00,0.4861
3319.00,0.4855
3318.00,0.4849
3317.00,0.4842
3316.00,0.4834
3315.00,0.4826
3314.00,0.4817
3313.00,0.4808
3312.00,0.4799
3311.00,0.4789
3310.00,0.4779
3309.00,0.4769
3308.00,0.4760
3307.00,0.4751
3306.00,0.4742
3305.00,0.4732
3304.00,0.4723
3303.00,0.4713
3302.00,0.4705
3301.00,0.4697
3300.00,0.4689
3299.00,0.4682
3298.00,0.4675
3297.00,0.4667
3296.00,0.4660
3295.00,0.4654
3294.00,0.4648
3293.00,0.4642
3292.00,0.4638
3291.00,0.4634
3290.00,0.4631
3289.00,0.4627
3288.00,0.4624
3287.00,0.4621
3286.00,0.4619
3285.00,0.4618
3284.00,0.4618
3283.00,0.4619
3282.00,0.4619
3281.00,0.4619
3280.00,0.4620
3279.00,0.4621
3278.00,0.4623
3277.00,0.4625
3276.00,0.4627
3275.00,0.4629
3274.00,0.4631
3273.00,0.4634
3272.00,0.4638
3271.00,0.4642
3270.00,0.4646
3269.00,0.4651
3268.00,0.4655
3267.00,0.4659
3266.00,0.4664
3265.00,0.4668
3264.00,0.4672
3263.00,0.4676
3262.00,0.4680
3261.00,0.4685
3260.00,0.4690
3259.00,0.4695
3258.00,0.4700
3257.00,0.4705
3256.00,0.4709
3255.00,0.4713
3254.00,0.4717
3253.00,0.4721
3252.00,0.4724
3251.00,0.4728
3250.00,0.4731
3249.00,0.4734
3248.00,0.4737
3247.00,0.4740
3246.00,0.4742
3245.00,0.4744
3244.00,0.4746
3243.00,0.4747
3242.00,0.4748
3241.00,0.4749
3240.00,0.4749
3239.00,0.4749
3238.00,0.4748
3237.00,0.4747
3236.00,0.4746
3235.00,0.4745
3234.00,0.4744
3233.00,0.4742
3232.00,0.4739
3231.00,0.4736
3230.00,0.4733
3229.00,0.4730
3228.00,0.4728
3227.00,0.4724
3226.00,0.4721
3225.00,0.4717
3224.00,0.4714
3223.00,0.4709
3222.00,0.4705
3221.00,0.4700
3220.00,0.4696
3219.00,0.4692
3218.00,0.4687
3217.00,0.4683
3216.00,0.4678
3215.00,0.4674
3214.00,0.4671
3213.00,0.4667
3212.00,0.4663
3211.00,0.4658
3210.00,0.4653
3209.00,0.4648
3208.00,0.4643
3207.00,0.4639
3206.00,0.4635
3205.00,0.4631
3204.00,0.4626
3203.00,0.4622
3202.00,0.4617
3201.00,0.4612
3200.00,0.4606
3199.00,0.4601
3198.00,0.4595
3197.00,0.4590
3196.00,0.4585
3195.00,0.4580
3194.00,0.4575
3193.00,0.4568
3192.00,0.4561
3191.00,0.4554
3190.00,0.4548
3189.00,0.4542
3188.00,0.4535
3187.00,0.4529
3186.00,0.4522
3185.00,0.4515
3184.00,0.4509
3183.00,0.4502
3182.00,0.4496
3181.00,0.4489
3180.00,0.4482
3179.00,0.4474
3178.00,0.4467
3177.00,0.4459
3176.00,0.4451
3175.00,0.4443
3174.00,0.4435
3173.00,0.4428
3172.00,0.4420
3171.00,0.4412
3170.00,0.4404
3169.00,0.4395
3168.00,0.4387
3167.00,0.4378
3166.00,0.4369
3165.00,0.4360
3164.00,0.4351
3163.00,0.4343
3162.00,0.4334
3161.00,0.4326
3160.00,0.4317
3159.00,0.4308
3158.00,0.4300
3157.00,0.4292
3156.00,0.4285
3155.00,0.4279
3154.00,0.4272
3153.00,0.4265
3152.00,0.4258
3151.00,0.4252
3150.00,0.4245
3149.00,0.4239
3148.00,0.4233
3147.00,0.4227
3146.00,0.4221
3145.00,0.4216
3144.00,0.4210
3143.00,0.4205
3142.00,0.4200
3141.00,0.4196
3140.00,0.4192
3139.00,0.4189
3138.00,0.4185
3137.00,0.4181
3136.00,0.4176
3135.00,0.4172
3134.00,0.4167
3133.00,0.4164
3132.00,0.4161
3131.00,0.4158
3130.00,0.4156
3129.00,0.4154
3128.00,0.4152
3127.00,0.4150
3126.00,0.4148
3125.00,0.4148
3124.00,0.4147
3123.00,0.4147
3122.00,0.4148
3121.00,0.4148
3120.00,0.4150
3119.00,0.4152
3118.00,0.4154
3117.00,0.4157
3116.00,0.4160
3115.00,0.4163
3114.00,0.4167
3113.00,0.4172
3112.00,0.4178
3111.00,0.4183
3110.00,0.4189
3109.00,0.4196
3108.00,0.4204
3107.00,0.4212
3106.00,0.4221
3105.00,0.4230
3104.00,0.4239
3103.00,0.4248
3102.00,0.4257
3101.00,0.4266
3100.00,0.4275
3099.00,0.4285
3098.00,0.4295
3097.00,0.4306
3096.00,0.4317
3095.00,0.4328
3094.00,0.4340
3093.00,0.4353
3092.00,0.4368
3091.00,0.4384
3090.00,0.4401
3089.00,0.4419
3088.00,0.4437
3087.00,0.4457
3086.00,0.4478
3085.00,0.4500
3084.00,0.4523
3083.00,0.4547
3082.00,0.4573
3081.00,0.4600
3080.00,0.4628
3079.00,0.4658
3078.00,0.4689
3077.00,0.4723
3076.00,0.4757
3075.00,0.4792
3074.00,0.4828
3073.00,0.4863
3072.00,0.4900
3071.00,0.4936
3070.00,0.4973
3069.00,0.5010
3068.00,0.5048
3067.00,0.5085
3066.00,0.5122
3065.00,0.5159
3064.00,0.5195
3063.00,0.5230
3062.00,0.5263
3061.00,0.5296
3060.00,0.5327
3059.00,0.5358
3058.00,0.5388
3057.00,0.5420
3056.00,0.5452
3055.00,0.5484
3054.00,0.5517
3053.00,0.5550
3052.00,0.5584
3051.00,0.5619
3050.00,0.5655
3049.00,0.5691
3048.00,0.5729
3047.00,0.5767
3046.00,0.5807
3045.00,0.5848
3044.00,0.5891
3043.00,0.5934
3042.00,0.5978
3041.00,0.6023
3040.00,0.6069
3039.00,0.6116
3038.00,0.6166
3037.00,0.6218
3036.00,0.6274
3035.00,0.6334
3034.00,0.6396
3033.00,0.6461
3032.00,0.6529
3031.00,0.6599
3030.00,0.6672
3029.00,0.6746
3028.00,0.6823
3027.00,0.6902
3026.00,0.6984
3025.00,0.7069
3024.00,0.7156
3023.00,0.7246
3022.00,0.7339
3021.00,0.7435
3020.00,0.7534
3019.00,0.7636
3018.00,0.7741
3017.00,0.7850
3016.00,0.7962
3015.00,0.8077
3014.00,0.8196
3013.00,0.8320
3012.00,0.8451
3011.00,0.8589
3010.00,0.8736
3009.00,0.8891
3008.00,0.9054
3007.00,0.9225
3006.00,0.9405
3005.00,0.9593
3004.00,0.9788
3003.00,0.9989
3002.00,1.0197
3001.00,1.0413
3000.00,1.0636
2999.00,1.0871
2998.00,1.1121
2997.00,1.1391
2996.00,1.1686
2995.00,1.2008
2994.00,1.2359
2993.00,1.2744
2992.00,1.3164
2991.00,1.3625
2990.00,1.4133
2989.00,1.4695
2988.00,1.5318
2987.00,1.6012
2986.00,1.6784
2985.00,1.7636
2984.00,1.8570
2983.00,1.9593
2982.00,2.0715
2981.00,2.1957
2980.00,2.3341
2979.00,2.4889
2978.00,2.6579
2977.00,2.8295
2976.00,2.9914
2975.00,3.1517
2974.00,3.3423
2973.00,3.6086
2972.00,4.0520
2971.00,4.4892
2970.00,4.3570
2969.00,4.2999
2968.00,4.5303
2967.00,4.9857
2966.00,4.8701
2965.00,4.4848
2964.00,4.6394
2963.00,4.5353
2962.00,4.4381
2961.00,4.1642
2960.00,4.0429
2959.00,4.1545
2958.00,4.5375
2957.00,4.6364
2956.00,4.3739
2955.00,4.1670
2954.00,4.1465
2953.00,4.1884
2952.00,4.3027
2951.00,4.3884
2950.00,4.2390
2949.00,4.0955
2948.00,4.0521
2947.00,4.0907
2946.00,4.1577
2945.00,4.4080
2944.00,4.5963
2943.00,4.3314
2942.00,4.0805
2941.00,3.9375
2940.00,3.8226
2939.00,3.7068
2938.00,3.6686
2937.00,3.7338
2936.00,3.9467
2935.00,4.1788
2934.00,4.1805
2933.00,4.2123
2932.00,4.3180
2931.00,4.3642
2930.00,4.2102
2929.00,4.2052
2928.00,4.3532
2927.00,4.3201
2926.00,4.0978
2925.00,3.8804
2924.00,3.7930
2923.00,3.8444
2922.00,3.8795
2921.00,3.8261
2920.00,3.7624
2919.00,3.7391
2918.00,3.7201
2917.00,3.6836
2916.00,3.6863
2915.00,3.7631
2914.00,3.9748
2913.00,4.4793
2912.00,4.5820
2911.00,4.5568
2910.00,4.4231
2909.00,4.7272
2908.00,4.9553
2907.00,4.7571
2906.00,4.4885
2905.00,4.2176
2904.00,4.2210
2903.00,4.6436
2902.00,4.6204
2901.00,4.7391
2900.00,4.4305
2899.00,4.2245
2898.00,4.0441
2897.00,4.0368
2896.00,4.3675
2895.00,4.4804
2894.00,4.3649
2893.00,4.3589
2892.00,4.6058
2891.00,4.4033
2890.00,4.2284
2889.00,4.2025
2888.00,4.3383
2887.00,4.3281
2886.00,4.4537
2885.00,4.5139
2884.00,4.3401
2883.00,4.2169
2882.00,4.1844
2881.00,4.2446
2880.00,4.3022
2879.00,4.4562
2878.00,4.3472
2877.00,4.1102
2876.00,3.9590
2875.00,3.8975
2874.00,3.9262
2873.00,4.1629
2872.00,4.4270
2871.00,4.2694
2870.00,4.0804
2869.00,4.0730
2868.00,4.2142
2867.00,4.4501
2866.00,4.7065
2865.00,4.5825
2864.00,4.5475
2863.00,4.3208
2862.00,4.1495
2861.00,4.0168
2860.00,4.0675
2859.00,4.1344
2858.00,4.1830
2857.00,4.3047
2856.00,4.5810
2855.00,4.5370
2854.00,4.4782
2853.00,4.5802
2852.00,4.5241
2851.00,4.3427
2850.00,4.0843
2849.00,3.9568
2848.00,3.8274
2847.00,3.7939
2846.00,3.8700
2845.00,3.9618
2844.00,4.0183
2843.00,4.0910
2842.00,4.1991
2841.00,4.0382
2840.00,3.7339
2839.00,3.5073
2838.00,3.3469
2837.00,3.1820
2836.00,2.9880
2835.00,2.7876
2834.00,2.5986
2833.00,2.4276
2832.00,2.2754
2831.00,2.1406
2830.00,2.0206
2829.00,1.9133
2828.00,1.8177
2827.00,1.7326
2826.00,1.6564
2825.00,1.5876
2824.00,1.5253
2823.00,1.4688
2822.00,1.4173
2821.00,1.3700
2820.00,1.3262
2819.00,1.2856
2818.00,1.2477
2817.00,1.2123
2816.00,1.1790
2815.00,1.1477
2814.00,1.1184
2813.00,1.0910
2812.00,1.0653
2811.00,1.0410
2810.00,1.0180
2809.00,0.9960
2808.00,0.9750
2807.00,0.9550
2806.00,0.9358
2805.00,0.9174
2804.00,0.8999
2803.00,0.8831
2802.00,0.8670
2801.00,0.8514
2800.00,0.8365
2799.00,0.8222
2798.00,0.8087
2797.00,0.7958
2796.00,0.7834
2795.00,0.7715
2794.00,0.7599
2793.00,0.7486
2792.00,0.7375
2791.00,0.7267
2790.00,0.7162
2789.00,0.7060
2788.00,0.6959
2787.00,0.6860
2786.00,0.6764
2785.00,0.6670
2784.00,0.6579
2783.00,0.6490
2782.00,0.6404
2781.00,0.6320
2780.00,0.6240
2779.00,0.6163
2778.00,0.6089
2777.00,0.6019
2776.00,0.5953
2775.00,0.5892
2774.00,0.5835
2773.00,0.5781
2772.00,0.5731
2771.00,0.5685
2770.00,0.5643
2769.00,0.5604
2768.00,0.5570
2767.00,0.5539
2766.00,0.5512
2765.00,0.5489
2764.00,0.5468
2763.00,0.5450
2762.00,0.5434
2761.00,0.5421
2760.00,0.5409
2759.00,0.5397
2758.00,0.5386
2757.00,0.5376
2756.00,0.5367
2755.00,0.5358
2754.00,0.5351
2753.00,0.5346
2752.00,0.5342
2751.00,0.5340
2750.00,0.5340
2749.00,0.5343
2748.00,0.5347
2747.00,0.5353
2746.00,0.5361
2745.00,0.5372
2744.00,0.5385
2743.00,0.5400
2742.00,0.5420
2741.00,0.5443
2740.00,0.5469
2739.00,0.5500
2738.00,0.5535
2737.00,0.5574
2736.00,0.5618
2735.00,0.5665
2734.00,0.5714
2733.00,0.5762
2732.00,0.5805
2731.00,0.5840
2730.00,0.5865
2729.00,0.5877
2728.00,0.5878
2727.00,0.5869
2726.00,0.5854
2725.00,0.5835
2724.00,0.5812
2723.00,0.5788
2722.00,0.5760
2721.00,0.5731
2720.00,0.5700
2719.00,0.5667
2718.00,0.5632
2717.00,0.5595
2716.00,0.5556
2715.00,0.5516
2714.00,0.5475
2713.00,0.5435
2712.00,0.5397
2711.00,0.5361
2710.00,0.5329
2709.00,0.5302
2708.00,0.5279
2707.00,0.5258
2706.00,0.5241
2705.00,0.5226
2704.00,0.5213
2703.00,0.5204
2702.00,0.5198
2701.00,0.5195
2700.00,0.5193
2699.00,0.5194
2698.00,0.5197
2697.00,0.5202
2696.00,0.5209
2695.00,0.5218
2694.00,0.5229
2693.00,0.5241
2692.00,0.5254
2691.00,0.5266
2690.00,0.5278
2689.00,0.5290
2688.00,0.5301
2687.00,0.5312
2686.00,0.5322
2685.00,0.5330
2684.00,0.5337
2683.00,0.5342
2682.00,0.5346
2681.00,0.5349
2680.00,0.5352
2679.00,0.5355
2678.00,0.5359
2677.00,0.5363
2676.00,0.5367
2675.00,0.5370
2674.00,0.5373
2673.00,0.5374
2672.00,0.5373
2671.00,0.5369
2670.00,0.5363
2669.00,0.5354
2668.00,0.5341
2667.00,0.5326
2666.00,0.5308
2665.00,0.5288
2664.00,0.5266
2663.00,0.5243
2662.00,0.5219
2661.00,0.5194
2660.00,0.5169
2659.00,0.5145
2658.00,0.5120
2657.00,0.5096
2656.00,0.5073
2655.00,0.5051
2654.00,0.5031
2653.00,0.5012
2652.00,0.4994
2651.00,0.4976
2650.00,0.4959
2649.00,0.4943
2648.00,0.4927
2647.00,0.4913
2646.00,0.4898
2645.00,0.4884
2644.00,0.4870
2643.00,0.4856
2642.00,0.4843
2641.00,0.4830
2640.00,0.4819
2639.00,0.4808
2638.00,0.4798
2637.00,0.4788
2636.00,0.4779
2635.00,0.4769
2634.00,0.4759
2633.00,0.4749
2632.00,0.4739
2631.00,0.4729
2630.00,0.4719
2629.00,0.4710
2628.00,0.4701
2627.00,0.4691
2626.00,0.4680
2625.00,0.4669
2624.00,0.4658
2623.00,0.4647
2622.00,0.4636
2621.00,0.4626
2620.00,0.4616
2619.00,0.4605
2618.00,0.4595
2617.00,0.4585
2616.00,0.4575
2615.00,0.4565
2614.00,0.4555
2613.00,0.4545
2612.00,0.4536
2611.00,0.4526
2610.00,0.4516
2609.00,0.4506
2608.00,0.4496
2607.00,0.4486
2606.00,0.4477
2605.00,0.4467
2604.00,0.4457
2603.00,0.4447
2602.00,0.4437
2601.00,0.4425
2600.00,0.4412
2599.00,0.4398
2598.00,0.4383
2597.00,0.4368
2596.00,0.4352
2595.00,0.4336
2594.00,0.4319
2593.00,0.4303
2592.00,0.4287
2591.00,0.4271
2590.00,0.4255
2589.00,0.4239
2588.00,0.4222
2587.00,0.4206
2586.00,0.4189
2585.00,0.4171
2584.00,0.4154
2583.00,0.4137
2582.00,0.4120
2581.00,0.4103
2580.00,0.4086
2579.00,0.4068
2578.00,0.4052
2577.00,0.4035
2576.00,0.4019
2575.00,0.4003
2574.00,0.3987
2573.00,0.3972
2572.00,0.3957
2571.00,0.3942
2570.00,0.3929
2569.00,0.3917
2568.00,0.3904
2567.00,0.3892
2566.00,0.3879
2565.00,0.3865
2564.00,0.3852
2563.00,0.3838
2562.00,0.3825
2561.00,0.3811
2560.00,0.3798
2559.00,0.3785
2558.00,0.3773
2557.00,0.3760
2556.00,0.3748
2555.00,0.3737
2554.00,0.3726
2553.00,0.3715
2552.00,0.3705
2551.00,0.3694
2550.00,0.3684
2549.00,0.3674
2548.00,0.3665
2547.00,0.3656
2546.00,0.3647
2545.00,0.3639
2544.00,0.3631
2543.00,0.3623
2542.00,0.3615
2541.00,0.3608
2540.00,0.3600
2539.00,0.3594
2538.00,0.3587
2537.00,0.3582
2536.00,0.3577
2535.00,0.3571
2534.00,0.3565
2533.00,0.3559
2532.00,0.3551
2531.00,0.3543
2530.00,0.3534
2529.00,0.3525
2528.00,0.3514
2527.00,0.3503
2526.00,0.3492
2525.00,0.3481
2524.00,0.3470
2523.00,0.3459
2522.00,0.3448
2521.00,0.3438
2520.00,0.3428
2519.00,0.3419
2518.00,0.3409
2517.00,0.3400
2516.00,0.3391
2515.00,0.3382
2514.00,0.3373
2513.00,0.3364
2512.00,0.3356
2511.00,0.3349
2510.00,0.3342
2509.00,0.3335
2508.00,0.3329
2507.00,0.3324
2506.00,0.3319
2505.00,0.3315
2504.00,0.3311
2503.00,0.3308
2502.00,0.3305
2501.00,0.3302
2500.00,0.3299
2499.00,0.3296
2498.00,0.3293
2497.00,0.3291
2496.00,0.3288
2495.00,0.3285
2494.00,0.3282
2493.00,0.3278
2492.00,0.3273
2491.00,0.3268
2490.00,0.3262
2489.00,0.3256
2488.00,0.3251
2487.00,0.3246
2486.00,0.3241
2485.00,0.3236
2484.00,0.3230
2483.00,0.3225
2482.00,0.3220
2481.00,0.3214
2480.00,0.3209
2479.00,0.3204
2478.00,0.3199
2477.00,0.3195
2476.00,0.3191
2475.00,0.3187
2474.00,0.3183
2473.00,0.3179
2472.00,0.3176
2471.00,0.3173
2470.00,0.3170
2469.00,0.3166
2468.00,0.3164
2467.00,0.3161
2466.00,0.3159
2465.00,0.3157
2464.00,0.3155
2463.00,0.3152
2462.00,0.3150
2461.00,0.3148
2460.00,0.3145
2459.00,0.3143
2458.00,0.3141
2457.00,0.3139
2456.00,0.3137
2455.00,0.3136
2454.00,0.3134
2453.00,0.3132
2452.00,0.3131
2451.00,0.3131
2450.00,0.3130
2449.00,0.3129
2448.00,0.3129
2447.00,0.3129
2446.00,0.3128
2445.00,0.3128
2444.00,0.3128
2443.00,0.3128
2442.00,0.3128
2441.00,0.3129
2440.00,0.3130
2439.00,0.3130
2438.00,0.3131
2437.00,0.3132
2436.00,0.3133
2435.00,0.3134
2434.00,0.3135
2433.00,0.3136
2432.00,0.3137
2431.00,0.3138
2430.00,0.3139
2429.00,0.3140
2428.00,0.3141
2427.00,0.3142
2426.00,0.3143
2425.00,0.3145
2424.00,0.3146
2423.00,0.3147
2422.00,0.3148
2421.00,0.3149
2420.00,0.3150
2419.00,0.3151
2418.00,0.3152
2417.00,0.3153
2416.00,0.3153
2415.00,0.3153
2414.00,0.3154
2413.00,0.3154
2412.00,0.3155
2411.00,0.3155
2410.00,0.3156
2409.00,0.3157
2408.00,0.3157
2407.00,0.3157
2406.00,0.3157
2405.00,0.3157
2404.00,0.3158
2403.00,0.3158
2402.00,0.3158
2401.00,0.3158
2400.00,0.3158
2399.00,0.3158
2398.00,0.3158
2397.00,0.3158
2396.00,0.3158
2395.00,0.3157
2394.00,0.3157
2393.00,0.3157
2392.00,0.3157
2391.00,0.3158
2390.00,0.3158
2389.00,0.3158
2388.00,0.3159
2387.00,0.3159
2386.00,0.3160
2385.00,0.3161
2384.00,0.3162
2383.00,0.3163
2382.00,0.3164
2381.00,0.3165
2380.00,0.3166
2379.00,0.3167
2378.00,0.3167
2377.00,0.3168
2376.00,0.3167
2375.00,0.3167
2374.00,0.3166
2373.00,0.3165
2372.00,0.3164
2371.00,0.3163
2370.00,0.3163
2369.00,0.3164
2368.00,0.3164
2367.00,0.3163
2366.00,0.3162
2365.00,0.3162
2364.00,0.3162
2363.00,0.3161
2362.00,0.3160
2361.00,0.3160
2360.00,0.3160
2359.00,0.3160
2358.00,0.3159
2357.00,0.3158
2356.00,0.3156
2355.00,0.3155
2354.00,0.3154
2353.00,0.3154
2352.00,0.3153
2351.00,0.3152
2350.00,0.3151
2349.00,0.3149
2348.00,0.3147
2347.00,0.3146
2346.00,0.3146
2345.00,0.3145
2344.00,0.3144
2343.00,0.3142
2342.00,0.3139
2341.00,0.3137
2340.00,0.3136
2339.00,0.3135
2338.00,0.3135
2337.00,0.3135
2336.00,0.3134
2335.00,0.3133
2334.00,0.3130
2333.00,0.3128
2332.00,0.3125
2331.00,0.3122
2330.00,0.3119
2329.00,0.3116
2328.00,0.3112
2327.00,0.3109
2326.00,0.3106
2325.00,0.3103
2324.00,0.3100
2323.00,0.3097
2322.00,0.3095
2321.00,0.3092
2320.00,0.3089
2319.00,0.3086
2318.00,0.3082
2317.00,0.3078
2316.00,0.3074
2315.00,0.3071
2314.00,0.3069
2313.00,0.3066
2312.00,0.3063
2311.00,0.3059
2310.00,0.3056
2309.00,0.3052
2308.00,0.3048
2307.00,0.3044
2306.00,0.3041
2305.00,0.3038
2304.00,0.3036
2303.00,0.3035
2302.00,0.3033
2301.00,0.3032
2300.00,0.3030
2299.00,0.3028
2298.00,0.3026
2297.00,0.3024
2296.00,0.3021
2295.00,0.3018
2294.00,0.3015
2293.00,0.3012
2292.00,0.3008
2291.00,0.3004
2290.00,0.3001
2289.00,0.2997
2288.00,0.2994
2287.00,0.2990
2286.00,0.2986
2285.00,0.2982
2284.00,0.2978
2283.00,0.2975
2282.00,0.2972
2281.00,0.2969
2280.00,0.2965
2279.00,0.2961
2278.00,0.2957
2277.00,0.2954
2276.00,0.2951
2275.00,0.2948
2274.00,0.2946
2273.00,0.2944
2272.00,0.2942
2271.00,0.2940
2270.00,0.2939
2269.00,0.2937
2268.00,0.2936
2267.00,0.2935
2266.00,0.2934
2265.00,0.2932
2264.00,0.2930
2263.00,0.2928
2262.00,0.2926
2261.00,0.2924
2260.00,0.2921
2259.00,0.2919
2258.00,0.2916
2257.00,0.2912
2256.00,0.2909
2255.00,0.2905
2254.00,0.2902
2253.00,0.2899
2252.00,0.2896
2251.00,0.2893
2250.00,0.2890
2249.00,0.2887
2248.00,0.2885
2247.00,0.2883
2246.00,0.2881
2245.00,0.2879
2244.00,0.2877
2243.00,0.2875
2242.00,0.2873
2241.00,0.2871
2240.00,0.2870
2239.00,0.2868
2238.00,0.2867
2237.00,0.2866
2236.00,0.2864
2235.00,0.2863
2234.00,0.2862
2233.00,0.2861
2232.00,0.2860
2231.00,0.2859
2230.00,0.2858
2229.00,0.2857
2228.00,0.2855
2227.00,0.2853
2226.00,0.2852
2225.00,0.2850
2224.00,0.2848
2223.00,0.2847
2222.00,0.2846
2221.00,0.2845
2220.00,0.2843
2219.00,0.2842
2218.00,0.2840
2217.00,0.2839
2216.00,0.2839
2215.00,0.2838
2214.00,0.2838
2213.00,0.2837
2212.00,0.2837
2211.00,0.2837
2210.00,0.2836
2209.00,0.2836
2208.00,0.2836
2207.00,0.2836
2206.00,0.2837
2205.00,0.2838
2204.00,0.2839
2203.00,0.2839
2202.00,0.2839
2201.00,0.2840
2200.00,0.2841
2199.00,0.2841
2198.00,0.2842
2197.00,0.2843
2196.00,0.2844
2195.00,0.2845
2194.00,0.2846
2193.00,0.2846
2192.00,0.2847
2191.00,0.2847
2190.00,0.2847
2189.00,0.2847
2188.00,0.2847
2187.00,0.2847
2186.00,0.2846
2185.00,0.2846
2184.00,0.2846
2183.00,0.2846
2182.00,0.2845
2181.00,0.2844
2180.00,0.2844
2179.00,0.2843
2178.00,0.2842
2177.00,0.2841
2176.00,0.2841
2175.00,0.2840
2174.00,0.2840
2173.00,0.2839
2172.00,0.2839
2171.00,0.2839
2170.00,0.2839
2169.00,0.2839
2168.00,0.2840
2167.00,0.2840
2166.00,0.2839
2165.00,0.2838
2164.00,0.2838
2163.00,0.2837
2162.00,0.2836
2161.00,0.2835
2160.00,0.2834
2159.00,0.2833
2158.00,0.2831
2157.00,0.2829
2156.00,0.2827
2155.00,0.2825
2154.00,0.2824
2153.00,0.2822
2152.00,0.2820
2151.00,0.2817
2150.00,0.2814
2149.00,0.2811
2148.00,0.2808
2147.00,0.2804
2146.00,0.2800
2145.00,0.2795
2144.00,0.2790
2143.00,0.2784
2142.00,0.2778
2141.00,0.2773
2140.00,0.2769
2139.00,0.2764
2138.00,0.2760
2137.00,0.2757
2136.00,0.2754
2135.00,0.2752
2134.00,0.2749
2133.00,0.2747
2132.00,0.2744
2131.00,0.2742
2130.00,0.2741
2129.00,0.2739
2128.00,0.2738
2127.00,0.2737
2126.00,0.2735
2125.00,0.2734
2124.00,0.2733
2123.00,0.2732
2122.00,0.2731
2121.00,0.2730
2120.00,0.2729
2119.00,0.2728
2118.00,0.2726
2117.00,0.2725
2116.00,0.2723
2115.00,0.2722
2114.00,0.2721
2113.00,0.2719
2112.00,0.2718
2111.00,0.2717
2110.00,0.2715
2109.00,0.2713
2108.00,0.2712
2107.00,0.2711
2106.00,0.2711
2105.00,0.2711
2104.00,0.2710
2103.00,0.2710
2102.00,0.2709
2101.00,0.2708
2100.00,0.2708
2099.00,0.2707
2098.00,0.2707
2097.00,0.2707
2096.00,0.2708
2095.00,0.2707
2094.00,0.2707
2093.00,0.2706
2092.00,0.2706
2091.00,0.2706
2090.00,0.2705
2089.00,0.2705
2088.00,0.2705
2087.00,0.2705
2086.00,0.2704
2085.00,0.2704
2084.00,0.2704
2083.00,0.2704
2082.00,0.2704
2081.00,0.2704
2080.00,0.2703
2079.00,0.2702
2078.00,0.2701
2077.00,0.2701
2076.00,0.2701
2075.00,0.2702
2074.00,0.2702
2073.00,0.2703
2072.00,0.2704
2071.00,0.2704
2070.00,0.2705
2069.00,0.2707
2068.00,0.2708
2067.00,0.2709
2066.00,0.2711
2065.00,0.2712
2064.00,0.2714
2063.00,0.2716
2062.00,0.2719
2061.00,0.2721
2060.00,0.2723
2059.00,0.2724
2058.00,0.2726
2057.00,0.2728
2056.00,0.2729
2055.00,0.2730
2054.00,0.2732
2053.00,0.2733
2052.00,0.2735
2051.00,0.2737
2050.00,0.2739
2049.00,0.2741
2048.00,0.2744
2047.00,0.2746
2046.00,0.2748
2045.00,0.2750
2044.00,0.2752
2043.00,0.2755
2042.00,0.2757
2041.00,0.2759
2040.00,0.2761
2039.00,0.2762
2038.00,0.2763
2037.00,0.2763
2036.00,0.2764
2035.00,0.2766
2034.00,0.2767
2033.00,0.2768
2032.00,0.2769
2031.00,0.2769
2030.00,0.2769
2029.00,0.2770
2028.00,0.2771
2027.00,0.2771
2026.00,0.2771
2025.00,0.2771
2024.00,0.2770
2023.00,0.2769
2022.00,0.2766
2021.00,0.2763
2020.00,0.2758
2019.00,0.2752
2018.00,0.2745
2017.00,0.2738
2016.00,0.2731
2015.00,0.2724
2014.00,0.2717
2013.00,0.2710
2012.00,0.2702
2011.00,0.2694
2010.00,0.2687
2009.00,0.2682
2008.00,0.2677
2007.00,0.2673
2006.00,0.2669
2005.00,0.2666
2004.00,0.2663
2003.00,0.2659
2002.00,0.2656
2001.00,0.2653
2000.00,0.2651
1999.00,0.2650
1998.00,0.2649
1997.00,0.2648
1996.00,0.2647
1995.00,0.2646
1994.00,0.2645
1993.00,0.2645
1992.00,0.2645
1991.00,0.2645
1990.00,0.2645
1989.00,0.2645
1988.00,0.2644
1987.00,0.2643
1986.00,0.2641
1985.00,0.2641
1984.00,0.2640
1983.00,0.2640
1982.00,0.2639
1981.00,0.2639
1980.00,0.2639
1979.00,0.2639
1978.00,0.2638
1977.00,0.2638
1976.00,0.2637
1975.00,0.2637
1974.00,0.2636
1973.00,0.2636
1972.00,0.2636
1971.00,0.2635
1970.00,0.2634
1969.00,0.2634
1968.00,0.2634
1967.00,0.2635
1966.00,0.2636
1965.00,0.2637
1964.00,0.2638
1963.00,0.2638
1962.00,0.2638
1961.00,0.2638
1960.00,0.2640
1959.00,0.2641
1958.00,0.2642
1957.00,0.2643
1956.00,0.2645
1955.00,0.2647
1954.00,0.2648
1953.00,0.2651
1952.00,0.2652
1951.00,0.2654
1950.00,0.2655
1949.00,0.2656
1948.00,0.2657
1947.00,0.2658
1946.00,0.2660
1945.00,0.2662
1944.00,0.2665
1943.00,0.2668
1942.00,0.2673
1941.00,0.2678
1940.00,0.2682
1939.00,0.2685
1938.00,0.2686
1937.00,0.2686
1936.00,0.2686
1935.00,0.2686
1934.00,0.2686
1933.00,0.2686
1932.00,0.2686
1931.00,0.2686
1930.00,0.2686
1929.00,0.2686
1928.00,0.2686
1927.00,0.2685
1926.00,0.2685
1925.00,0.2685
1924.00,0.2686
1923.00,0.2688
1922.00,0.2692
1921.00,0.2696
1920.00,0.2700
1919.00,0.2703
1918.00,0.2706
1917.00,0.2709
1916.00,0.2713
1915.00,0.2715
1914.00,0.2715
1913.00,0.2715
1912.00,0.2714
1911.00,0.2714
1910.00,0.2715
1909.00,0.2717
1908.00,0.2719
1907.00,0.2720
1906.00,0.2721
1905.00,0.2720
1904.00,0.2720
1903.00,0.2719
1902.00,0.2719
1901.00,0.2718
1900.00,0.2718
1899.00,0.2718
1898.00,0.2718
1897.00,0.2718
1896.00,0.2718
1895.00,0.2719
1894.00,0.2719
1893.00,0.2720
1892.00,0.2721
1891.00,0.2722
1890.00,0.2722
1889.00,0.2724
1888.00,0.2727
1887.00,0.2729
1886.00,0.2731
1885.00,0.2732
1884.00,0.2733
1883.00,0.2733
1882.00,0.2733
1881.00,0.2734
1880.00,0.2734
1879.00,0.2734
1878.00,0.2733
1877.00,0.2733
1876.00,0.2731
1875.00,0.2729
1874.00,0.2727
1873.00,0.2726
1872.00,0.2724
1871.00,0.2721
1870.00,0.2718
1869.00,0.2716
1868.00,0.2715
1867.00,0.2714
1866.00,0.2712
1865.00,0.2710
1864.00,0.2705
1863.00,0.2701
1862.00,0.2696
1861.00,0.2693
1860.00,0.2691
1859.00,0.2688
1858.00,0.2685
1857.00,0.2683
1856.00,0.2680
1855.00,0.2677
1854.00,0.2674
1853.00,0.2672
1852.00,0.2670
1851.00,0.2668
1850.00,0.2667
1849.00,0.2666
1848.00,0.2666
1847.00,0.2665
1846.00,0.2664
1845.00,0.2666
1844.00,0.2661
1843.00,0.2659
1842.00,0.2660
1841.00,0.2660
1840.00,0.2660
1839.00,0.2659
1838.00,0.2658
1837.00,0.2658
1836.00,0.2659
1835.00,0.2660
1834.00,0.2660
1833.00,0.2661
1832.00,0.2661
1831.00,0.2659
1830.00,0.2657
1829.00,0.2657
1828.00,0.2659
1827.00,0.2661
1826.00,0.2662
1825.00,0.2662
1824.00,0.2662
1823.00,0.2663
1822.00,0.2664
1821.00,0.2664
1820.00,0.2662
1819.00,0.2662
1818.00,0.2662
1817.00,0.2663
1816.00,0.2665
1815.00,0.2667
1814.00,0.2668
1813.00,0.2670
1812.00,0.2672
1811.00,0.2675
1810.00,0.2679
1809.00,0.2684
1808.00,0.2690
1807.00,0.2696
1806.00,0.2703
1805.00,0.2711
1804.00,0.2719
1803.00,0.2729
1802.00,0.2738
1801.00,0.2748
1800.00,0.2756
1799.00,0.2761
1798.00,0.2765
1797.00,0.2769
1796.00,0.2773
1795.00,0.2776
1794.00,0.2778
1793.00,0.2782
1792.00,0.2787
1791.00,0.2794
1790.00,0.2801
1789.00,0.2806
1788.00,0.2806
1787.00,0.2804
1786.00,0.2803
1785.00,0.2806
1784.00,0.2810
1783.00,0.2813
1782.00,0.2816
1781.00,0.2817
1780.00,0.2820
1779.00,0.2824
1778.00,0.2828
1777.00,0.2833
1776.00,0.2836
1775.00,0.2838
1774.00,0.2842
1773.00,0.2850
1772.00,0.2859
1771.00,0.2867
1770.00,0.2875
1769.00,0.2883
1768.00,0.2890
1767.00,0.2897
1766.00,0.2903
1765.00,0.2907
1764.00,0.2909
1763.00,0.2913
1762.00,0.2919
1761.00,0.2929
1760.00,0.2942
1759.00,0.2953
1758.00,0.2963
1757.00,0.2973
1756.00,0.2986
1755.00,0.3002
1754.00,0.3021
1753.00,0.3044
1752.00,0.3075
1751.00,0.3117
1750.00,0.3168
1749.00,0.3225
1748.00,0.3287
1747.00,0.3353
1746.00,0.3425
1745.00,0.3501
1744.00,0.3577
1743.00,0.3642
1742.00,0.3690
1741.00,0.3718
1740.00,0.3723
1739.00,0.3706
1738.00,0.3676
1737.00,0.3637
1736.00,0.3590
1735.00,0.3532
1734.00,0.3471
1733.00,0.3424
1732.00,0.3391
1731.00,0.3358
1730.00,0.3318
1729.00,0.3281
1728.00,0.3255
1727.00,0.3241
1726.00,0.3233
1725.00,0.3230
1724.00,0.3230
1723.00,0.3233
1722.00,0.3238
1721.00,0.3244
1720.00,0.3250
1719.00,0.3258
1718.00,0.3273
1717.00,0.3297
1716.00,0.3326
1715.00,0.3349
1714.00,0.3362
1713.00,0.3370
1712.00,0.3380
1711.00,0.3392
1710.00,0.3406
1709.00,0.3421
1708.00,0.3434
1707.00,0.3442
1706.00,0.3446
1705.00,0.3445
1704.00,0.3441
1703.00,0.3433
1702.00,0.3418
1701.00,0.3398
1700.00,0.3374
1699.00,0.3356
1698.00,0.3348
1697.00,0.3341
1696.00,0.3329
1695.00,0.3317
1694.00,0.3309
1693.00,0.3299
1692.00,0.3281
1691.00,0.3261
1690.00,0.3248
1689.00,0.3244
1688.00,0.3243
1687.00,0.3244
1686.00,0.3247
1685.00,0.3255
1684.00,0.3262
1683.00,0.3266
1682.00,0.3269
1681.00,0.3267
1680.00,0.3261
1679.00,0.3255
1678.00,0.3253
1677.00,0.3256
1676.00,0.3261
1675.00,0.3269
1674.00,0.3280
1673.00,0.3293
1672.00,0.3302
1671.00,0.3307
1670.00,0.3312
1669.00,0.3325
1668.00,0.3343
1667.00,0.3362
1666.00,0.3376
1665.00,0.3387
1664.00,0.3398
1663.00,0.3412
1662.00,0.3431
1661.00,0.3455
1660.00,0.3481
1659.00,0.3504
1658.00,0.3525
1657.00,0.3546
1656.00,0.3570
1655.00,0.3600
1654.00,0.3644
1653.00,0.3703
1652.00,0.3763
1651.00,0.3811
1650.00,0.3835
1649.00,0.3838
1648.00,0.3844
1647.00,0.3870
1646.00,0.3915
1645.00,0.3968
1644.00,0.4018
1643.00,0.4056
1642.00,0.4084
1641.00,0.4114
1640.00,0.4147
1639.00,0.4179
1638.00,0.4212
1637.00,0.4250
1636.00,0.4298
1635.00,0.4348
1634.00,0.4395
1633.00,0.4439
1632.00,0.4475
1631.00,0.4505
1630.00,0.4538
1629.00,0.4580
1628.00,0.4629
1627.00,0.4681
1626.00,0.4737
1625.00,0.4800
1624.00,0.4873
1623.00,0.4954
1622.00,0.5040
1621.00,0.5132
1620.00,0.5227
1619.00,0.5326
1618.00,0.5445
1617.00,0.5599
1616.00,0.5779
1615.00,0.5960
1614.00,0.6135
1613.00,0.6320
1612.00,0.6530
1611.00,0.6762
1610.00,0.7005
1609.00,0.7246
1608.00,0.7470
1607.00,0.7663
1606.00,0.7826
1605.00,0.7982
1604.00,0.8153
1603.00,0.8348
1602.00,0.8578
1601.00,0.8868
1600.00,0.9229
1599.00,0.9663
1598.00,1.0180
1597.00,1.0815
1596.00,1.1606
1595.00,1.2570
1594.00,1.3725
1593.00,1.5140
1592.00,1.6898
1591.00,1.9009
1590.00,2.1413
1589.00,2.4250
1588.00,2.8035
1587.00,3.2866
1586.00,3.5256
1585.00,3.6544
1584.00,4.0354
1583.00,3.7836
1582.00,4.2199
1581.00,4.0465
1580.00,4.1772
1579.00,3.4716
1578.00,2.8129
1577.00,2.4075
1576.00,2.1181
1575.00,1.8978
1574.00,1.7366
1573.00,1.6238
1572.00,1.5452
1571.00,1.4932
1570.00,1.4712
1569.00,1.4873
1568.00,1.5430
1567.00,1.6336
1566.00,1.7596
1565.00,1.9325
1564.00,2.1629
1563.00,2.4265
1562.00,2.6408
1561.00,2.7367
1560.00,2.6165
1559.00,2.2704
1558.00,1.9528
1557.00,1.7281
1556.00,1.5491
1555.00,1.3871
1554.00,1.2479
1553.00,1.1417
1552.00,1.0654
1551.00,1.0084
1550.00,0.9653
1549.00,0.9359
1548.00,0.9196
1547.00,0.9135
1546.00,0.9150
1545.00,0.9234
1544.00,0.9374
1543.00,0.9536
1542.00,0.9679
1541.00,0.9770
1540.00,0.9763
1539.00,0.9636
1538.00,0.9433
1537.00,0.9201
1536.00,0.8939
1535.00,0.8633
1534.00,0.8297
1533.00,0.7986
1532.00,0.7739
1531.00,0.7552
1530.00,0.7403
1529.00,0.7285
1528.00,0.7192
1527.00,0.7112
1526.00,0.7045
1525.00,0.6996
1524.00,0.6969
1523.00,0.6968
1522.00,0.7005
1521.00,0.7090
1520.00,0.7203
1519.00,0.7313
1518.00,0.7405
1517.00,0.7479
1516.00,0.7514
1515.00,0.7481
1514.00,0.7370
1513.00,0.7193
1512.00,0.6978
1511.00,0.6758
1510.00,0.6562
1509.00,0.6402
1508.00,0.6277
1507.00,0.6185
1506.00,0.6132
1505.00,0.6120
1504.00,0.6133
1503.00,0.6146
1502.00,0.6158
1501.00,0.6184
1500.00,0.6229
1499.00,0.6288
1498.00,0.6364
1497.00,0.6466
1496.00,0.6594
1495.00,0.6728
1494.00,0.6856
1493.00,0.6989
1492.00,0.7139
1491.00,0.7309
1490.00,0.7496
1489.00,0.7697
1488.00,0.7908
1487.00,0.8128
1486.00,0.8369
1485.00,0.8646
1484.00,0.8961
1483.00,0.9315
1482.00,0.9723
1481.00,1.0202
1480.00,1.0748
1479.00,1.1360
1478.00,1.2069
1477.00,1.2926
1476.00,1.3952
1475.00,1.5156
1474.00,1.6626
1473.00,1.8564
1472.00,2.1129
1471.00,2.4245
1470.00,2.7685
1469.00,3.1499
1468.00,3.6031
1467.00,3.9854
1466.00,4.1033
1465.00,4.4365
1464.00,5.3034
1463.00,4.4082
1462.00,4.1139
1461.00,4.5335
1460.00,4.7458
1459.00,4.3877
1458.00,3.9872
1457.00,4.1118
1456.00,3.9665
1455.00,3.9570
1454.00,4.1503
1453.00,4.0140
1452.00,3.9084
1451.00,4.1375
1450.00,4.3370
1449.00,4.5034
1448.00,4.1144
1447.00,4.2110
1446.00,3.9732
1445.00,4.0894
1444.00,4.1953
1443.00,3.8090
1442.00,3.5108
1441.00,3.3575
1440.00,3.1810
1439.00,2.9402
1438.00,2.7021
1437.00,2.4848
1436.00,2.2825
1435.00,2.1028
1434.00,1.9488
1433.00,1.8116
1432.00,1.6836
1431.00,1.5654
1430.00,1.4612
1429.00,1.3729
1428.00,1.3000
1427.00,1.2409
1426.00,1.1932
1425.00,1.1548
1424.00,1.1248
1423.00,1.1028
1422.00,1.0870
1421.00,1.0756
1420.00,1.0680
1419.00,1.0650
1418.00,1.0675
1417.00,1.0749
1416.00,1.0867
1415.00,1.1022
1414.00,1.1205
1413.00,1.1392
1412.00,1.1553
1411.00,1.1649
1410.00,1.1657
1409.00,1.1574
1408.00,1.1407
1407.00,1.1160
1406.00,1.0835
1405.00,1.0451
1404.00,1.0041
1403.00,0.9645
1402.00,0.9283
1401.00,0.8958
1400.00,0.8672
1399.00,0.8437
1398.00,0.8263
1397.00,0.8142
1396.00,0.8059
1395.00,0.8004
1394.00,0.7974
1393.00,0.7976
1392.00,0.8028
1391.00,0.8151
1390.00,0.8368
1389.00,0.8712
1388.00,0.9221
1387.00,0.9903
1386.00,1.0721
1385.00,1.1624
1384.00,1.2604
1383.00,1.3697
1382.00,1.4945
1381.00,1.6383
1380.00,1.8012
1379.00,1.9669
1378.00,2.0888
1377.00,2.1178
1376.00,2.0537
1375.00,1.9317
1374.00,1.7899
1373.00,1.6580
1372.00,1.5498
1371.00,1.4666
1370.00,1.4068
1369.00,1.3688
1368.00,1.3481
1367.00,1.3340
1366.00,1.3118
1365.00,1.2711
1364.00,1.2117
1363.00,1.1433
1362.00,1.0781
1361.00,1.0237
1360.00,0.9814
1359.00,0.9494
1358.00,0.9256
1357.00,0.9090
1356.00,0.8990
1355.00,0.8945
1354.00,0.8941
1353.00,0.8963
1352.00,0.9000
1351.00,0.9051
1350.00,0.9124
1349.00,0.9235
1348.00,0.9400
1347.00,0.9619
1346.00,0.9856
1345.00,1.0039
1344.00,1.0087
1343.00,0.9966
1342.00,0.9708
1341.00,0.9380
1340.00,0.9041
1339.00,0.8720
1338.00,0.8424
1337.00,0.8152
1336.00,0.7906
1335.00,0.7688
1334.00,0.7501
1333.00,0.7346
1332.00,0.7224
1331.00,0.7136
1330.00,0.7081
1329.00,0.7056
1328.00,0.7056
1327.00,0.7075
1326.00,0.7102
1325.00,0.7126
1324.00,0.7146
1323.00,0.7162
1322.00,0.7179
1321.00,0.7203
1320.00,0.7236
1319.00,0.7279
1318.00,0.7328
1317.00,0.7381
1316.00,0.7439
1315.00,0.7501
1314.00,0.7569
1313.00,0.7643
1312.00,0.7723
1311.00,0.7804
1310.00,0.7882
1309.00,0.7951
1308.00,0.8006
1307.00,0.8038
1306.00,0.8044
1305.00,0.8026
1304.00,0.7990
1303.00,0.7949
1302.00,0.7912
1301.00,0.7885
1300.00,0.7865
1299.00,0.7844
1298.00,0.7811
1297.00,0.7761
1296.00,0.7697
1295.00,0.7627
1294.00,0.7556
1293.00,0.7482
1292.00,0.7400
1291.00,0.7305
1290.00,0.7195
1289.00,0.7080
1288.00,0.6970
1287.00,0.6872
1286.00,0.6789
1285.00,0.6721
1284.00,0.6673
1283.00,0.6653
1282.00,0.6668
1281.00,0.6719
1280.00,0.6793
1279.00,0.6864
1278.00,0.6892
1277.00,0.6853
1276.00,0.6750
1275.00,0.6612
1274.00,0.6473
1273.00,0.6353
1272.00,0.6261
1271.00,0.6195
1270.00,0.6148
1269.00,0.6112
1268.00,0.6079
1267.00,0.6041
1266.00,0.6000
1265.00,0.5957
1264.00,0.5917
1263.00,0.5884
1262.00,0.5858
1261.00,0.5839
1260.00,0.5830
1259.00,0.5833
1258.00,0.5847
1257.00,0.5867
1256.00,0.5893
1255.00,0.5922
1254.00,0.5954
1253.00,0.5984
1252.00,0.6005
1251.00,0.6013
1250.00,0.6006
1249.00,0.5985
1248.00,0.5956
1247.00,0.5922
1246.00,0.5886
1245.00,0.5849
1244.00,0.5813
1243.00,0.5780
1242.00,0.5750
1241.00,0.5718
1240.00,0.5686
1239.00,0.5657
1238.00,0.5642
1237.00,0.5647
1236.00,0.5678
1235.00,0.5732
1234.00,0.5802
1233.00,0.5877
1232.00,0.5943
1231.00,0.5990
1230.00,0.6002
1229.00,0.5974
1228.00,0.5904
1227.00,0.5802
1226.00,0.5681
1225.00,0.5558
1224.00,0.5442
1223.00,0.5343
1222.00,0.5261
1221.00,0.5198
1220.00,0.5151
1219.00,0.5119
1218.00,0.5101
1217.00,0.5094
1216.00,0.5098
1215.00,0.5109
1214.00,0.5121
1213.00,0.5131
1212.00,0.5135
1211.00,0.5130
1210.00,0.5115
1209.00,0.5088
1208.00,0.5052
1207.00,0.5014
1206.00,0.4982
1205.00,0.4962
1204.00,0.4961
1203.00,0.4983
1202.00,0.5028
1201.00,0.5086
1200.00,0.5140
1199.00,0.5171
1198.00,0.5170
1197.00,0.5148
1196.00,0.5125
1195.00,0.5120
1194.00,0.5138
1193.00,0.5177
1192.00,0.5227
1191.00,0.5275
1190.00,0.5306
1189.00,0.5308
1188.00,0.5281
1187.00,0.5237
1186.00,0.5188
1185.00,0.5142
1184.00,0.5102
1183.00,0.5068
1182.00,0.5038
1181.00,0.5011
1180.00,0.4987
1179.00,0.4970
1178.00,0.4959
1177.00,0.4956
1176.00,0.4961
1175.00,0.4979
1174.00,0.5007
1173.00,0.5044
1172.00,0.5084
1171.00,0.5124
1170.00,0.5157
1169.00,0.5180
1168.00,0.5193
1167.00,0.5199
1166.00,0.5204
1165.00,0.5210
1164.00,0.5220
1163.00,0.5235
1162.00,0.5253
1161.00,0.5269
1160.00,0.5280
1159.00,0.5284
1158.00,0.5282
1157.00,0.5277
1156.00,0.5271
1155.00,0.5268
1154.00,0.5265
1153.00,0.5261
1152.00,0.5252
1151.00,0.5239
1150.00,0.5223
1149.00,0.5203
1148.00,0.5184
1147.00,0.5164
1146.00,0.5145
1145.00,0.5128
1144.00,0.5116
1143.00,0.5113
1142.00,0.5121
1141.00,0.5141
1140.00,0.5174
1139.00,0.5220
1138.00,0.5279
1137.00,0.5349
1136.00,0.5429
1135.00,0.5509
1134.00,0.5573
1133.00,0.5599
1132.00,0.5578
1131.00,0.5514
1130.00,0.5432
1129.00,0.5359
1128.00,0.5316
1127.00,0.5308
1126.00,0.5321
1125.00,0.5333
1124.00,0.5323
1123.00,0.5288
1122.00,0.5236
1121.00,0.5184
1120.00,0.5147
1119.00,0.5131
1118.00,0.5138
1117.00,0.5162
1116.00,0.5193
1115.00,0.5217
1114.00,0.5216
1113.00,0.5180
1112.00,0.5112
1111.00,0.5027
1110.00,0.4941
1109.00,0.4866
1108.00,0.4809
1107.00,0.4776
1106.00,0.4767
1105.00,0.4784
1104.00,0.4823
1103.00,0.4881
1102.00,0.4949
1101.00,0.5017
1100.00,0.5071
1099.00,0.5099
1098.00,0.5091
1097.00,0.5055
1096.00,0.5004
1095.00,0.4957
1094.00,0.4919
1093.00,0.4889
1092.00,0.4864
1091.00,0.4842
1090.00,0.4822
1089.00,0.4806
1088.00,0.4798
1087.00,0.4802
1086.00,0.4820
1085.00,0.4853
1084.00,0.4901
1083.00,0.4961
1082.00,0.5032
1081.00,0.5107
1080.00,0.5180
1079.00,0.5244
1078.00,0.5287
1077.00,0.5298
1076.00,0.5275
1075.00,0.5222
1074.00,0.5149
1073.00,0.5067
1072.00,0.4985
1071.00,0.4912
1070.00,0.4851
1069.00,0.4799
1068.00,0.4755
1067.00,0.4717
1066.00,0.4685
1065.00,0.4660
1064.00,0.4641
1063.00,0.4626
1062.00,0.4614
1061.00,0.4602
1060.00,0.4587
1059.00,0.4569
1058.00,0.4547
1057.00,0.4521
1056.00,0.4492
1055.00,0.4462
1054.00,0.4433
1053.00,0.4405
1052.00,0.4381
1051.00,0.4363
1050.00,0.4352
1049.00,0.4346
1048.00,0.4345
1047.00,0.4348
1046.00,0.4351
1045.00,0.4352
1044.00,0.4351
1043.00,0.4349
1042.00,0.4349
1041.00,0.4351
1040.00,0.4354
1039.00,0.4360
1038.00,0.4368
1037.00,0.4378
1036.00,0.4391
1035.00,0.4410
1034.00,0.4437
1033.00,0.4473
1032.00,0.4517
1031.00,0.4568
1030.00,0.4618
1029.00,0.4659
1028.00,0.4684
1027.00,0.4687
1026.00,0.4663
1025.00,0.4615
1024.00,0.4552
1023.00,0.4483
1022.00,0.4418
1021.00,0.4362
1020.00,0.4318
1019.00,0.4288
1018.00,0.4269
1017.00,0.4259
1016.00,0.4254
1015.00,0.4252
1014.00,0.4250
1013.00,0.4245
1012.00,0.4237
1011.00,0.4227
1010.00,0.4222
1009.00,0.4222
1008.00,0.4231
1007.00,0.4244
1006.00,0.4260
1005.00,0.4272
1004.00,0.4282
1003.00,0.4290
1002.00,0.4300
1001.00,0.4311
1000.00,0.4320
999.00,0.4327
998.00,0.4330
997.00,0.4326
996.00,0.4315
995.00,0.4301
994.00,0.4285
993.00,0.4270
992.00,0.4259
991.00,0.4250
990.00,0.4243
989.00,0.4236
988.00,0.4225
987.00,0.4213
986.00,0.4200
985.00,0.4192
984.00,0.4195
983.00,0.4213
982.00,0.4246
981.00,0.4293
980.00,0.4354
979.00,0.4430
978.00,0.4527
977.00,0.4656
976.00,0.4837
975.00,0.5088
974.00,0.5429
973.00,0.5879
972.00,0.6452
971.00,0.7137
970.00,0.7869
969.00,0.8505
968.00,0.8839
967.00,0.8734
966.00,0.8243
965.00,0.7556
964.00,0.6851
963.00,0.6231
962.00,0.5741
961.00,0.5396
960.00,0.5192
959.00,0.5112
958.00,0.5119
957.00,0.5165
956.00,0.5196
955.00,0.5177
954.00,0.5100
953.00,0.4976
952.00,0.4833
951.00,0.4694
950.00,0.4575
949.00,0.4482
948.00,0.4419
947.00,0.4384
946.00,0.4378
945.00,0.4393
944.00,0.4424
943.00,0.4463
942.00,0.4505
941.00,0.4543
940.00,0.4573
939.00,0.4591
938.00,0.4595
937.00,0.4587
936.00,0.4569
935.00,0.4544
934.00,0.4515
933.00,0.4482
932.00,0.4445
931.00,0.4405
930.00,0.4366
929.00,0.4331
928.00,0.4303
927.00,0.4288
926.00,0.4290
925.00,0.4312
924.00,0.4353
923.00,0.4407
922.00,0.4460
921.00,0.4492
920.00,0.4488
919.00,0.4445
918.00,0.4371
917.00,0.4280
916.00,0.4188
915.00,0.4107
914.00,0.4041
913.00,0.3993
912.00,0.3960
911.00,0.3940
910.00,0.3932
909.00,0.3933
908.00,0.3946
907.00,0.3975
906.00,0.4022
905.00,0.4076
904.00,0.4119
903.00,0.4135
902.00,0.4119
901.00,0.4083
900.00,0.4048
899.00,0.4029
898.00,0.4028
897.00,0.4040
896.00,0.4062
895.00,0.4093
894.00,0.4131
893.00,0.4175
892.00,0.4222
891.00,0.4269
890.00,0.4309
889.00,0.4331
888.00,0.4333
887.00,0.4313
886.00,0.4278
885.00,0.4235
884.00,0.4195
883.00,0.4163
882.00,0.4143
881.00,0.4130
880.00,0.4122
879.00,0.4119
878.00,0.4120
877.00,0.4123
876.00,0.4130
875.00,0.4140
874.00,0.4149
873.00,0.4154
872.00,0.4155
871.00,0.4154
870.00,0.4156
869.00,0.4164
868.00,0.4179
867.00,0.4205
866.00,0.4243
865.00,0.4291
864.00,0.4342
863.00,0.4384
862.00,0.4402
861.00,0.4385
860.00,0.4332
859.00,0.4258
858.00,0.4178
857.00,0.4108
856.00,0.4054
855.00,0.4016
854.00,0.3991
853.00,0.3975
852.00,0.3964
851.00,0.3956
850.00,0.3949
849.00,0.3940
848.00,0.3932
847.00,0.3923
846.00,0.3916
845.00,0.3911
844.00,0.3909
843.00,0.3913
842.00,0.3931
841.00,0.3969
840.00,0.4034
839.00,0.4125
838.00,0.4229
837.00,0.4323
836.00,0.4379
835.00,0.4383
834.00,0.4341
833.00,0.4275
832.00,0.4214
831.00,0.4178
830.00,0.4176
829.00,0.4204
828.00,0.4253
827.00,0.4314
826.00,0.4383
825.00,0.4460
824.00,0.4544
823.00,0.4628
822.00,0.4697
821.00,0.4737
820.00,0.4742
819.00,0.4719
818.00,0.4674
817.00,0.4620
816.00,0.4566
815.00,0.4518
814.00,0.4474
813.00,0.4432
812.00,0.4389
811.00,0.4344
810.00,0.4300
809.00,0.4255
808.00,0.4212
807.00,0.4171
806.00,0.4132
805.00,0.4092
804.00,0.4051
803.00,0.4010
802.00,0.3972
801.00,0.3941
800.00,0.3918
799.00,0.3903
798.00,0.3894
797.00,0.3887
796.00,0.3883
795.00,0.3880
794.00,0.3880
793.00,0.3886
792.00,0.3897
791.00,0.3914
790.00,0.3930
789.00,0.3944
788.00,0.3956
787.00,0.3972
786.00,0.3999
785.00,0.4042
784.00,0.4100
783.00,0.4174
782.00,0.4263
781.00,0.4365
780.00,0.4478
779.00,0.4586
778.00,0.4666
777.00,0.4692
776.00,0.4661
775.00,0.4593
774.00,0.4519
773.00,0.4464
772.00,0.4437
771.00,0.4435
770.00,0.4449
769.00,0.4471
768.00,0.4493
767.00,0.4512
766.00,0.4529
765.00,0.4543
764.00,0.4558
763.00,0.4577
762.00,0.4606
761.00,0.4646
760.00,0.4691
759.00,0.4732
758.00,0.4762
757.00,0.4782
756.00,0.4796
755.00,0.4816
754.00,0.4847
753.00,0.4888
752.00,0.4931
751.00,0.4976
750.00,0.5022
749.00,0.5075
748.00,0.5135
747.00,0.5201
746.00,0.5273
745.00,0.5348
744.00,0.5431
743.00,0.5522
742.00,0.5621
741.00,0.5726
740.00,0.5835
739.00,0.5948
738.00,0.6066
737.00,0.6189
736.00,0.6317
735.00,0.6447
734.00,0.6581
733.00,0.6719
732.00,0.6870
731.00,0.7043
730.00,0.7250
729.00,0.7499
728.00,0.7803
727.00,0.8179
726.00,0.8647
725.00,0.9203
724.00,0.9804
723.00,1.0340
722.00,1.0647
721.00,1.0582
720.00,1.0158
719.00,0.9538
718.00,0.8896
717.00,0.8321
716.00,0.7844
715.00,0.7468
714.00,0.7180
713.00,0.6957
712.00,0.6773
711.00,0.6605
710.00,0.6441
709.00,0.6270
708.00,0.6095
707.00,0.5922
706.00,0.5756
705.00,0.5599
704.00,0.5448
703.00,0.5309
702.00,0.5183
701.00,0.5071
700.00,0.4967
699.00,0.4859
698.00,0.4741
697.00,0.4614
696.00,0.4486
695.00,0.4372
694.00,0.4278
693.00,0.4202
692.00,0.4140
691.00,0.4088
690.00,0.4047
689.00,0.4009
688.00,0.3973
687.00,0.3938
686.00,0.3906
685.00,0.3878
684.00,0.3855
683.00,0.3836
682.00,0.3820
681.00,0.3806
680.00,0.3795
679.00,0.3787
678.00,0.3783
677.00,0.3780
676.00,0.3778
675.00,0.3776
674.00,0.3774
673.00,0.3771
672.00,0.3769
671.00,0.3769
670.00,0.3771
669.00,0.3778
668.00,0.3788
667.00,0.3795
666.00,0.3807
665.00,0.3822
664.00,0.3836
663.00,0.3848
662.00,0.3859
661.00,0.3870
660.00,0.3880
659.00,0.3888
658.00,0.3895
657.00,0.3900
656.00,0.3906
655.00,0.3913
654.00,0.3922
653.00,0.3932
652.00,0.3942
651.00,0.3953
650.00,0.3963
649.00,0.3972
648.00,0.3980
647.00,0.3990
646.00,0.4003
645.00,0.4020
644.00,0.4040
643.00,0.4062
642.00,0.4085
641.00,0.4109
640.00,0.4135
639.00,0.4159
638.00,0.4179
637.00,0.4192
636.00,0.4201
635.00,0.4208
634.00,0.4217
633.00,0.4228
632.00,0.4243
631.00,0.4260
630.00,0.4278
629.00,0.4297
628.00,0.4319
627.00,0.4346
626.00,0.4375
625.00,0.4406
624.00,0.4437
623.00,0.4468
622.00,0.4497
621.00,0.4521
620.00,0.4538
619.00,0.4548
618.00,0.4551
617.00,0.4550
616.00,0.4545
615.00,0.4540
614.00,0.4535
613.00,0.4529
612.00,0.4523
611.00,0.4516
610.00,0.4510
609.00,0.4506
608.00,0.4506
607.00,0.4508
606.00,0.4511
605.00,0.4513
604.00,0.4511
603.00,0.4506
602.00,0.4497
601.00,0.4484
600.00,0.4472
599.00,0.4460
598.00,0.4451
597.00,0.4445
596.00,0.4445
595.00,0.4450
594.00,0.4458
593.00,0.4465
592.00,0.4467
591.00,0.4469
590.00,0.4473
589.00,0.4487
588.00,0.4513
587.00,0.4549
586.00,0.4587
585.00,0.4623
584.00,0.4654
583.00,0.4683
582.00,0.4711
581.00,0.4736
580.00,0.4762
579.00,0.4788
578.00,0.4814
577.00,0.4837
576.00,0.4855
575.00,0.4871
574.00,0.4887
573.00,0.4907
572.00,0.4928
571.00,0.4952
570.00,0.4977
569.00,0.5006
568.00,0.5040
567.00,0.5076
566.00,0.5109
565.00,0.5134
564.00,0.5153
563.00,0.5172
562.00,0.5198
561.00,0.5231
560.00,0.5270
559.00,0.5311
558.00,0.5353
557.00,0.5395
556.00,0.5439
555.00,0.5486
554.00,0.5536
553.00,0.5590
552.00,0.5643
551.00,0.5691
550.00,0.5731
