Created as New Dataset,
cm-1,A
4000.00,0.3591
3999.00,0.3588
3998.00,0.3585
3997.00,0.3582
3996.00,0.3579
3995.00,0.3576
3994.00,0.3573
3993.00,0.3569
3992.00,0.3566
3991.00,0.3563
3990.00,0.3559
3989.00,0.3555
3988.00,0.3551
3987.00,0.3547
3986.00,0.3543
3985.00,0.3540
3984.00,0.3536
3983.00,0.3532
3982.00,0.3528
3981.00,0.3524
3980.00,0.3519
3979.00,0.3516
3978.00,0.3513
3977.00,0.3510
3976.00,0.3507
3975.00,0.3505
3974.00,0.3503
3973.00,0.3500
3972.00,0.3497
3971.00,0.3495
3970.00,0.3493
3969.00,0.3491
3968.00,0.3490
3967.00,0.3488
3966.00,0.3486
3965.00,0.3484
3964.00,0.3481
3963.00,0.3479
3962.00,0.3478
3961.00,0.3476
3960.00,0.3475
3959.00,0.3474
3958.00,0.3472
3957.00,0.3470
3956.00,0.3469
3955.00,0.3467
3954.00,0.3466
3953.00,0.3464
3952.00,0.3462
3951.00,0.3460
3950.00,0.3458
3949.00,0.3455
3948.00,0.3453
3947.00,0.3451
3946.00,0.3449
3945.00,0.3448
3944.00,0.3447
3943.00,0.3446
3942.00,0.3445
3941.00,0.3443
3940.00,0.3442
3939.00,0.3441
3938.00,0.3441
3937.00,0.3440
3936.00,0.3440
3935.00,0.3440
3934.00,0.3440
3933.00,0.3440
3932.00,0.3439
3931.00,0.3439
3930.00,0.3439
3929.00,0.3438
3928.00,0.3438
3927.00,0.3437
3926.00,0.3437
3925.00,0.3436
3924.00,0.3436
3923.00,0.3436
3922.00,0.3436
3921.00,0.3436
3920.00,0.3436
3919.00,0.3435
3918.00,0.3434
3917.00,0.3434
3916.00,0.3433
3915.00,0.3432
3914.00,0.3431
3913.00,0.3431
3912.00,0.3431
3911.00,0.3430
3910.00,0.3430
3909.00,0.3429
3908.00,0.3428
3907.00,0.3428
3906.00,0.3428
3905.00,0.3428
3904.00,0.3428
3903.00,0.3427
3902.00,0.3427
3901.00,0.3427
3900.00,0.3427
3899.00,0.3427
3898.00,0.3428
3897.00,0.3427
3896.00,0.3427
3895.00,0.3426
3894.00,0.3425
3893.00,0.3423
3892.00,0.3422
3891.00,0.3421
3890.00,0.3420
3889.00,0.3418
3888.00,0.3416
3887.00,0.3415
3886.00,0.3415
3885.00,0.3414
3884.00,0.3413
3883.00,0.3412
3882.00,0.3411
3881.00,0.3410
3880.00,0.3411
3879.00,0.3410
3878.00,0.3409
3877.00,0.3407
3876.00,0.3406
3875.00,0.3406
3874.00,0.3405
3873.00,0.3403
3872.00,0.3401
3871.00,0.3400
3870.00,0.3399
3869.00,0.3398
3868.00,0.3398
3867.00,0.3397
3866.00,0.3397
3865.00,0.3397
3864.00,0.3396
3863.00,0.3395
3862.00,0.3394
3861.00,0.3393
3860.00,0.3392
3859.00,0.3391
3858.00,0.3390
3857.00,0.3389
3856.00,0.3388
3855.00,0.3386
3854.00,0.3385
3853.00,0.3385
3852.00,0.3384
3851.00,0.3383
3850.00,0.3382
3849.00,0.3381
3848.00,0.3380
3847.00,0.3380
3846.00,0.3379
3845.00,0.3378
3844.00,0.3376
3843.00,0.3376
3842.00,0.3375
3841.00,0.3375
3840.00,0.3375
3839.00,0.3374
3838.00,0.3374
3837.00,0.3374
3836.00,0.3373
3835.00,0.3372
3834.00,0.3371
3833.00,0.3371
3832.00,0.3371
3831.00,0.3370
3830.00,0.3369
3829.00,0.3368
3828.00,0.3367
3827.00,0.3367
3826.00,0.3368
3825.00,0.3368
3824.00,0.3367
3823.00,0.3365
3822.00,0.3363
3821.00,0.3362
3820.00,0.3361
3819.00,0.3358
3818.00,0.3356
3817.00,0.3353
3816.00,0.3352
3815.00,0.3350
3814.00,0.3347
3813.00,0.3344
3812.00,0.3341
3811.00,0.3339
3810.00,0.3337
3809.00,0.3335
3808.00,0.3333
3807.00,0.3332
3806.00,0.3331
3805.00,0.3329
3804.00,0.3327
3803.00,0.3326
3802.00,0.3326
3801.00,0.3326
3800.00,0.3324
3799.00,0.3322
3798.00,0.3319
3797.00,0.3318
3796.00,0.3317
3795.00,0.3316
3794.00,0.3314
3793.00,0.3312
3792.00,0.3311
3791.00,0.3309
3790.00,0.3308
3789.00,0.3306
3788.00,0.3304
3787.00,0.3303
3786.00,0.3301
3785.00,0.3300
3784.00,0.3298
3783.00,0.3296
3782.00,0.3294
3781.00,0.3292
3780.00,0.3290
3779.00,0.3287
3778.00,0.3285
3777.00,0.3283
3776.00,0.3281
3775.00,0.3280
3774.00,0.3279
3773.00,0.3276
3772.00,0.3274
3771.00,0.3271
3770.00,0.3270
3769.00,0.3268
3768.00,0.3267
3767.00,0.3266
3766.00,0.3266
3765.00,0.3265
3764.00,0.3264
3763.00,0.3263
3762.00,0.3262
3761.00,0.3262
3760.00,0.3261
3759.00,0.3260
3758.00,0.3259
3757.00,0.3258
3756.00,0.3256
3755.00,0.3254
3754.00,0.3252
3753.00,0.3251
3752.00,0.3249
3751.00,0.3247
3750.00,0.3246
3749.00,0.3244
3748.00,0.3242
3747.00,0.3239
3746.00,0.3237
3745.00,0.3236
3744.00,0.3235
3743.00,0.3233
3742.00,0.3230
3741.00,0.3228
3740.00,0.3227
3739.00,0.3226
3738.00,0.3226
3737.00,0.3224
3736.00,0.3223
3735.00,0.3221
3734.00,0.3220
3733.00,0.3219
3732.00,0.3219
3731.00,0.3218
3730.00,0.3217
3729.00,0.3216
3728.00,0.3214
3727.00,0.3213
3726.00,0.3211
3725.00,0.3210
3724.00,0.3208
3723.00,0.3206
3722.00,0.3205
3721.00,0.3204
3720.00,0.3203
3719.00,0.3201
3718.00,0.3199
3717.00,0.3198
3716.00,0.3197
3715.00,0.3196
3714.00,0.3195
3713.00,0.3195
3712.00,0.3193
3711.00,0.3192
3710.00,0.3190
3709.00,0.3189
3708.00,0.3188
3707.00,0.3188
3706.00,0.3187
3705.00,0.3186
3704.00,0.3185
3703.00,0.3184
3702.00,0.3182
3701.00,0.3181
3700.00,0.3181
3699.00,0.3181
3698.00,0.3181
3697.00,0.3182
3696.00,0.3183
3695.00,0.3184
3694.00,0.3185
3693.00,0.3185
3692.00,0.3185
3691.00,0.3184
3690.00,0.3184
3689.00,0.3184
3688.00,0.3185
3687.00,0.3186
3686.00,0.3186
3685.00,0.3186
3684.00,0.3186
3683.00,0.3185
3682.00,0.3184
3681.00,0.3182
3680.00,0.3181
3679.00,0.3180
3678.00,0.3178
3677.00,0.3176
3676.00,0.3175
3675.00,0.3175
3674.00,0.3174
3673.00,0.3172
3672.00,0.3170
3671.00,0.3169
3670.00,0.3169
3669.00,0.3168
3668.00,0.3168
3667.00,0.3168
3666.00,0.3168
3665.00,0.3168
3664.00,0.3169
3663.00,0.3169
3662.00,0.3170
3661.00,0.3171
3660.00,0.3171
3659.00,0.3172
3658.00,0.3173
3657.00,0.3175
3656.00,0.3177
3655.00,0.3179
3654.00,0.3180
3653.00,0.3182
3652.00,0.3184
3651.00,0.3187
3650.00,0.3189
3649.00,0.3191
3648.00,0.3192
3647.00,0.3192
3646.00,0.3193
3645.00,0.3193
3644.00,0.3194
3643.00,0.3194
3642.00,0.3194
3641.00,0.3194
3640.00,0.3195
3639.00,0.3196
3638.00,0.3197
3637.00,0.3198
3636.00,0.3199
3635.00,0.3200
3634.00,0.3202
3633.00,0.3203
3632.00,0.3204
3631.00,0.3205
3630.00,0.3207
3629.00,0.3211
3628.00,0.3214
3627.00,0.3217
3626.00,0.3220
3625.00,0.3222
3624.00,0.3225
3623.00,0.3228
3622.00,0.3229
3621.00,0.3229
3620.00,0.3228
3619.00,0.3227
3618.00,0.3226
3617.00,0.3225
3616.00,0.3225
3615.00,0.3224
3614.00,0.3224
3613.00,0.3224
3612.00,0.3224
3611.00,0.3225
3610.00,0.3225
3609.00,0.3226
3608.00,0.3227
3607.00,0.3227
3606.00,0.3227
3605.00,0.3225
3604.00,0.3224
3603.00,0.3221
3602.00,0.3218
3601.00,0.3214
3600.00,0.3208
3599.00,0.3202
3598.00,0.3195
3597.00,0.3188
3596.00,0.3182
3595.00,0.3175
3594.00,0.3168
3593.00,0.3162
3592.00,0.3157
3591.00,0.3152
3590.00,0.3148
3589.00,0.3145
3588.00,0.3142
3587.00,0.3141
3586.00,0.3139
3585.00,0.3138
3584.00,0.3137
3583.00,0.3136
3582.00,0.3136
3581.00,0.3135
3580.00,0.3135
3579.00,0.3134
3578.00,0.3133
3577.00,0.3133
3576.00,0.3133
3575.00,0.3133
3574.00,0.3134
3573.00,0.3134
3572.00,0.3135
3571.00,0.3136
3570.00,0.3136
3569.00,0.3137
3568.00,0.3138
3567.00,0.3139
3566.00,0.3140
3565.00,0.3141
3564.00,0.3142
3563.00,0.3144
3562.00,0.3145
3561.00,0.3148
3560.00,0.3150
3559.00,0.3152
3558.00,0.3153
3557.00,0.3155
3556.00,0.3158
3555.00,0.3161
3554.00,0.3164
3553.00,0.3168
3552.00,0.3171
3551.00,0.3175
3550.00,0.3179
3549.00,0.3182
3548.00,0.3186
3547.00,0.3190
3546.00,0.3193
3545.00,0.3196
3544.00,0.3199
3543.00,0.3203
3542.00,0.3206
3541.00,0.3209
3540.00,0.3213
3539.00,0.3217
3538.00,0.3220
3537.00,0.3223
3536.00,0.3226
3535.00,0.3229
3534.00,0.3232
3533.00,0.3234
3532.00,0.3237
3531.00,0.3240
3530.00,0.3243
3529.00,0.3245
3528.00,0.3248
3527.00,0.3251
3526.00,0.3254
3525.00,0.3257
3524.00,0.3261
3523.00,0.3264
3522.00,0.3267
3521.00,0.3270
3520.00,0.3273
3519.00,0.3277
3518.00,0.3281
3517.00,0.3285
3516.00,0.3289
3515.00,0.3293
3514.00,0.3297
3513.00,0.3302
3512.00,0.3306
3511.00,0.3311
3510.00,0.3315
3509.00,0.3320
3508.00,0.3324
3507.00,0.3329
3506.00,0.3334
3505.00,0.3339
3504.00,0.3343
3503.00,0.3348
3502.00,0.3352
3501.00,0.3357
3500.00,0.3362
3499.00,0.3367
3498.00,0.3373
3497.00,0.3378
3496.00,0.3384
3495.00,0.3390
3494.00,0.3395
3493.00,0.3401
3492.00,0.3407
3491.00,0.3413
3490.00,0.3420
3489.00,0.3426
3488.00,0.3432
3487.00,0.3438
3486.00,0.3444
3485.00,0.3451
3484.00,0.3457
3483.00,0.3464
3482.00,0.3470
3481.00,0.3476
3480.00,0.3481
3479.00,0.3486
3478.00,0.3491
3477.00,0.3496
3476.00,0.3501
3475.00,0.3505
3474.00,0.3511
3473.00,0.3516
3472.00,0.3521
3471.00,0.3527
3470.00,0.3533
3469.00,0.3539
3468.00,0.3545
3467.00,0.3550
3466.00,0.3556
3465.00,0.3561
3464.00,0.3567
3463.00,0.3573
3462.00,0.3579
3461.00,0.3585
3460.00,0.3592
3459.00,0.3598
3458.00,0.3604
3457.00,0.3611
3456.00,0.3617
3455.00,0.3623
3454.00,0.3630
3453.00,0.3636
3452.00,0.3643
3451.00,0.3650
3450.00,0.3657
3449.00,0.3664
3448.00,0.3672
3447.00,0.3680
3446.00,0.3688
3445.00,0.3696
3444.00,0.3704
3443.00,0.3711
3442.00,0.3718
3441.00,0.3726
3440.00,0.3733
3439.00,0.3740
3438.00,0.3748
3437.00,0.3756
3436.00,0.3764
3435.00,0.3772
3434.00,0.3780
3433.00,0.3787
3432.00,0.3795
3431.00,0.3803
3430.00,0.3811
3429.00,0.3820
3428.00,0.3829
3427.00,0.3837
3426.00,0.3845
3425.00,0.3853
3424.00,0.3861
3423.00,0.3870
3422.00,0.3879
3421.00,0.3888
3420.00,0.3898
3419.00,0.3907
3418.00,0.3917
3417.00,0.3927
3416.00,0.3938
3415.00,0.3949
3414.00,0.3960
3413.00,0.3971
3412.00,0.3982
3411.00,0.3992
3410.00,0.4003
3409.00,0.4014
3408.00,0.4025
3407.00,0.4036
3406.00,0.4048
3405.00,0.4061
3404.00,0.4073
3403.00,0.4086
3402.00,0.4098
3401.00,0.4110
3400.00,0.4122
3399.00,0.4134
3398.00,0.4146
3397.00,0.4158
3396.00,0.4171
3395.00,0.4184
3394.00,0.4197
3393.00,0.4209
3392.00,0.4222
3391.00,0.4235
3390.00,0.4248
3389.00,0.4262
3388.00,0.4276
3387.00,0.4289
3386.00,0.4302
3385.00,0.4316
3384.00,0.4330
3383.00,0.4345
3382.00,0.4360
3381.00,0.4376
3380.00,0.4391
3379.00,0.4405
3378.00,0.4420
3377.00,0.4434
3376.00,0.4450
3375.00,0.4466
3374.00,0.4483
3373.00,0.4501
3372.00,0.4518
3371.00,0.4536
3370.00,0.4553
3369.00,0.4570
3368.00,0.4587
3367.00,0.4605
3366.00,0.4624
3365.00,0.4644
3364.00,0.4663
3363.00,0.4683
3362.00,0.4702
3361.00,0.4722
3360.00,0.4742
3359.00,0.4762
3358.00,0.4782
3357.00,0.4802
3356.00,0.4822
3355.00,0.4843
3354.00,0.4863
3353.00,0.4884
3352.00,0.4905
3351.00,0.4926
3350.00,0.4946
3349.00,0.4966
3348.00,0.4985
3347.00,0.5004
3346.00,0.5022
3345.00,0.5041
3344.00,0.5061
3343.00,0.5079
3342.00,0.5096
3341.00,0.5112
3340.00,0.5128
3339.00,0.5142
3338.00,0.5156
3337.00,0.5170
3336.00,0.5182
3335.00,0.5194
3334.00,0.5205
3333.00,0.5215
3332.00,0.5224
3331.00,0.5232
3330.00,0.5238
3329.00,0.5243
3328.00,0.5247
3327.00,0.5250
3326.00,0.5251
3325.00,0.5252
3324.00,0.5251
3323.00,0.5249
3322.00,0.5246
3321.00,0.5241
3320.00,0.5236
3319.00,0.5230
3318.00,0.5223
3317.00,0.5216
3316.00,0.5208
3315.00,0.5199
3314.00,0.5191
3313.00,0.5182
3312.00,0.5173
3311.00,0.5163
3310.00,0.5152
3309.00,0.5142
3308.00,0.5131
3307.00,0.5119
3306.00,0.5108
3305.00,0.5096
3304.00,0.5085
3303.00,0.5075
3302.00,0.5065
3301.00,0.5056
3300.00,0.5046
3299.00,0.5037
3298.00,0.5028
3297.00,0.5019
3296.00,0.5011
3295.00,0.5003
3294.00,0.4996
3293.00,0.4990
3292.00,0.4985
3291.00,0.4979
3290.00,0.4975
3289.00,0.4970
3288.00,0.4967
3287.00,0.4965
3286.00,0.4963
3285.00,0.4961
3284.00,0.4960
3283.00,0.4959
3282.00,0.4958
3281.00,0.4959
3280.00,0.4959
3279.00,0.4961
3278.00,0.4963
3277.00,0.4966
3276.00,0.4968
3275.00,0.4969
3274.00,0.4972
3273.00,0.4975
3272.00,0.4979
3271.00,0.4984
3270.00,0.4989
3269.00,0.4994
3268.00,0.5000
3267.00,0.5005
3266.00,0.5010
3265.00,0.5016
3264.00,0.5022
3263.00,0.5028
3262.00,0.5035
3261.00,0.5041
3260.00,0.5047
3259.00,0.5054
3258.00,0.5060
3257.00,0.5067
3256.00,0.5073
3255.00,0.5079
3254.00,0.5085
3253.00,0.5091
3252.00,0.5097
3251.00,0.5103
3250.00,0.5108
3249.00,0.5113
3248.00,0.5119
3247.00,0.5124
3246.00,0.5129
3245.00,0.5133
3244.00,0.5136
3243.00,0.5139
3242.00,0.5141
3241.00,0.5145
3240.00,0.5148
3239.00,0.5150
3238.00,0.5152
3237.00,0.5153
3236.00,0.5154
3235.00,0.5154
3234.00,0.5154
3233.00,0.5153
3232.00,0.5153
3231.00,0.5152
3230.00,0.5151
3229.00,0.5149
3228.00,0.5147
3227.00,0.5145
3226.00,0.5142
3225.00,0.5140
3224.00,0.5137
3223.00,0.5134
3222.00,0.5130
3221.00,0.5127
3220.00,0.5123
3219.00,0.5118
3218.00,0.5113
3217.00,0.5108
3216.00,0.5103
3215.00,0.5098
3214.00,0.5093
3213.00,0.5088
3212.00,0.5082
3211.00,0.5077
3210.00,0.5072
3209.00,0.5067
3208.00,0.5062
3207.00,0.5056
3206.00,0.5050
3205.00,0.5044
3204.00,0.5038
3203.00,0.5032
3202.00,0.5026
3201.00,0.5019
3200.00,0.5013
3199.00,0.5006
3198.00,0.5000
3197.00,0.4994
3196.00,0.4988
3195.00,0.4981
3194.00,0.4974
3193.00,0.4967
3192.00,0.4959
3191.00,0.4952
3190.00,0.4944
3189.00,0.4937
3188.00,0.4930
3187.00,0.4923
3186.00,0.4915
3185.00,0.4906
3184.00,0.4897
3183.00,0.4887
3182.00,0.4878
3181.00,0.4869
3180.00,0.4861
3179.00,0.4852
3178.00,0.4843
3177.00,0.4833
3176.00,0.4824
3175.00,0.4814
3174.00,0.4804
3173.00,0.4795
3172.00,0.4785
3171.00,0.4775
3170.00,0.4765
3169.00,0.4755
3168.00,0.4744
3167.00,0.4734
3166.00,0.4724
3165.00,0.4714
3164.00,0.4704
3163.00,0.4693
3162.00,0.4684
3161.00,0.4674
3160.00,0.4664
3159.00,0.4655
3158.00,0.4645
3157.00,0.4636
3156.00,0.4627
3155.00,0.4617
3154.00,0.4608
3153.00,0.4599
3152.00,0.4590
3151.00,0.4581
3150.00,0.4572
3149.00,0.4564
3148.00,0.4556
3147.00,0.4548
3146.00,0.4540
3145.00,0.4532
3144.00,0.4524
3143.00,0.4517
3142.00,0.4511
3141.00,0.4504
3140.00,0.4498
3139.00,0.4491
3138.00,0.4484
3137.00,0.4478
3136.00,0.4472
3135.00,0.4467
3134.00,0.4462
3133.00,0.4457
3132.00,0.4452
3131.00,0.4449
3130.00,0.4446
3129.00,0.4443
3128.00,0.4441
3127.00,0.4440
3126.00,0.4439
3125.00,0.4439
3124.00,0.4439
3123.00,0.4439
3122.00,0.4439
3121.00,0.4439
3120.00,0.4441
3119.00,0.4442
3118.00,0.4444
3117.00,0.4446
3116.00,0.4448
3115.00,0.4451
3114.00,0.4455
3113.00,0.4458
3112.00,0.4463
3111.00,0.4468
3110.00,0.4473
3109.00,0.4480
3108.00,0.4487
3107.00,0.4494
3106.00,0.4502
3105.00,0.4509
3104.00,0.4516
3103.00,0.4524
3102.00,0.4532
3101.00,0.4540
3100.00,0.4548
3099.00,0.4557
3098.00,0.4568
3097.00,0.4579
3096.00,0.4591
3095.00,0.4604
3094.00,0.4619
3093.00,0.4635
3092.00,0.4654
3091.00,0.4675
3090.00,0.4698
3089.00,0.4723
3088.00,0.4748
3087.00,0.4774
3086.00,0.4802
3085.00,0.4831
3084.00,0.4862
3083.00,0.4893
3082.00,0.4925
3081.00,0.4959
3080.00,0.4995
3079.00,0.5034
3078.00,0.5074
3077.00,0.5117
3076.00,0.5161
3075.00,0.5206
3074.00,0.5252
3073.00,0.5298
3072.00,0.5344
3071.00,0.5389
3070.00,0.5435
3069.00,0.5481
3068.00,0.5527
3067.00,0.5572
3066.00,0.5617
3065.00,0.5660
3064.00,0.5701
3063.00,0.5740
3062.00,0.5775
3061.00,0.5808
3060.00,0.5838
3059.00,0.5865
3058.00,0.5893
3057.00,0.5920
3056.00,0.5949
3055.00,0.5979
3054.00,0.6011
3053.00,0.6044
3052.00,0.6080
3051.00,0.6118
3050.00,0.6159
3049.00,0.6202
3048.00,0.6247
3047.00,0.6293
3046.00,0.6341
3045.00,0.6388
3044.00,0.6436
3043.00,0.6483
3042.00,0.6529
3041.00,0.6577
3040.00,0.6626
3039.00,0.6676
3038.00,0.6728
3037.00,0.6781
3036.00,0.6837
3035.00,0.6897
3034.00,0.6962
3033.00,0.7033
3032.00,0.7108
3031.00,0.7187
3030.00,0.7271
3029.00,0.7359
3028.00,0.7452
3027.00,0.7548
3026.00,0.7648
3025.00,0.7751
3024.00,0.7857
3023.00,0.7966
3022.00,0.8079
3021.00,0.8195
3020.00,0.8315
3019.00,0.8437
3018.00,0.8561
3017.00,0.8686
3016.00,0.8812
3015.00,0.8936
3014.00,0.9061
3013.00,0.9189
3012.00,0.9320
3011.00,0.9456
3010.00,0.9598
3009.00,0.9747
3008.00,0.9902
3007.00,1.0064
3006.00,1.0231
3005.00,1.0405
3004.00,1.0584
3003.00,1.0767
3002.00,1.0956
3001.00,1.1152
3000.00,1.1355
2999.00,1.1569
2998.00,1.1799
2997.00,1.2052
2996.00,1.2330
2995.00,1.2637
2994.00,1.2978
2993.00,1.3359
2992.00,1.3784
2991.00,1.4262
2990.00,1.4798
2989.00,1.5398
2988.00,1.6072
2987.00,1.6826
2986.00,1.7665
2985.00,1.8587
2984.00,1.9592
2983.00,2.0694
2982.00,2.1907
2981.00,2.3242
2980.00,2.4702
2979.00,2.6315
2978.00,2.8168
2977.00,3.0393
2976.00,3.3173
2975.00,3.6474
2974.00,3.9206
2973.00,3.9567
2972.00,3.8442
2971.00,3.8088
2970.00,3.9067
2969.00,4.0841
2968.00,4.1416
2967.00,4.0478
2966.00,3.9939
2965.00,4.0034
2964.00,3.9905
2963.00,3.9605
2962.00,3.9304
2961.00,3.8893
2960.00,3.8524
2959.00,3.8061
2958.00,3.7534
2957.00,3.7245
2956.00,3.7442
2955.00,3.8175
2954.00,3.9183
2953.00,3.9753
2952.00,3.9688
2951.00,3.9457
2950.00,3.9023
2949.00,3.8138
2948.00,3.7293
2947.00,3.7266
2946.00,3.8452
2945.00,4.0912
2944.00,4.3389
2943.00,4.4005
2942.00,4.4442
2941.00,4.4634
2940.00,4.3290
2939.00,4.1319
2938.00,4.0219
2937.00,3.9792
2936.00,3.9414
2935.00,3.9417
2934.00,3.9927
2933.00,4.1476
2932.00,4.3275
2931.00,4.2403
2930.00,4.1271
2929.00,4.1059
2928.00,4.0670
2927.00,3.9338
2926.00,3.8541
2925.00,3.9441
2924.00,4.1532
2923.00,4.2018
2922.00,4.0887
2921.00,4.0104
2920.00,4.0034
2919.00,3.9526
2918.00,3.8538
2917.00,3.8206
2916.00,3.8869
2915.00,4.0435
2914.00,4.1762
2913.00,4.2095
2912.00,4.2125
2911.00,4.4089
2910.00,4.5025
2909.00,4.1322
2908.00,3.9436
2907.00,4.0134
2906.00,4.3881
2905.00,4.4761
2904.00,4.1934
2903.00,4.0191
2902.00,3.9528
2901.00,3.9477
2900.00,3.9552
2899.00,4.0397
2898.00,4.2518
2897.00,4.3692
2896.00,4.2626
2895.00,4.1780
2894.00,4.3711
2893.00,4.9095
2892.00,4.7494
2891.00,4.4948
2890.00,4.3292
2889.00,4.3219
2888.00,4.3569
2887.00,4.2096
2886.00,4.0246
2885.00,3.9317
2884.00,3.9652
2883.00,4.1574
2882.00,4.4730
2881.00,4.4160
2880.00,4.2494
2879.00,4.2871
2878.00,4.5976
2877.00,4.6929
2876.00,4.2193
2875.00,4.0046
2874.00,3.9230
2873.00,4.0527
2872.00,4.4239
2871.00,4.2386
2870.00,3.9636
2869.00,3.8588
2868.00,3.9987
2867.00,4.1124
2866.00,4.0724
2865.00,4.0787
2864.00,4.0045
2863.00,3.9023
2862.00,3.8415
2861.00,3.9896
2860.00,4.4374
2859.00,4.7553
2858.00,4.4177
2857.00,4.1376
2856.00,4.0729
2855.00,4.0575
2854.00,3.9954
2853.00,3.9145
2852.00,3.8540
2851.00,3.8663
2850.00,3.9308
2849.00,3.9800
2848.00,3.9982
2847.00,3.9790
2846.00,3.9249
2845.00,3.8517
2844.00,3.8311
2843.00,3.8654
2842.00,3.9785
2841.00,4.2562
2840.00,4.1694
2839.00,3.7691
2838.00,3.4745
2837.00,3.2694
2836.00,3.0647
2835.00,2.8484
2834.00,2.6473
2833.00,2.4666
2832.00,2.3078
2831.00,2.1687
2830.00,2.0451
2829.00,1.9344
2828.00,1.8354
2827.00,1.7471
2826.00,1.6682
2825.00,1.5970
2824.00,1.5321
2823.00,1.4727
2822.00,1.4183
2821.00,1.3682
2820.00,1.3221
2819.00,1.2796
2818.00,1.2405
2817.00,1.2043
2816.00,1.1705
2815.00,1.1389
2814.00,1.1092
2813.00,1.0813
2812.00,1.0549
2811.00,1.0299
2810.00,1.0063
2809.00,0.9838
2808.00,0.9625
2807.00,0.9421
2806.00,0.9227
2805.00,0.9043
2804.00,0.8869
2803.00,0.8705
2802.00,0.8548
2801.00,0.8398
2800.00,0.8253
2799.00,0.8115
2798.00,0.7984
2797.00,0.7859
2796.00,0.7739
2795.00,0.7623
2794.00,0.7511
2793.00,0.7403
2792.00,0.7298
2791.00,0.7195
2790.00,0.7094
2789.00,0.6994
2788.00,0.6897
2787.00,0.6802
2786.00,0.6710
2785.00,0.6620
2784.00,0.6533
2783.00,0.6448
2782.00,0.6367
2781.00,0.6289
2780.00,0.6215
2779.00,0.6144
2778.00,0.6076
2777.00,0.6011
2776.00,0.5951
2775.00,0.5893
2774.00,0.5840
2773.00,0.5789
2772.00,0.5740
2771.00,0.5696
2770.00,0.5655
2769.00,0.5618
2768.00,0.5585
2767.00,0.5556
2766.00,0.5529
2765.00,0.5506
2764.00,0.5485
2763.00,0.5465
2762.00,0.5448
2761.00,0.5433
2760.00,0.5420
2759.00,0.5409
2758.00,0.5398
2757.00,0.5388
2756.00,0.5378
2755.00,0.5367
2754.00,0.5358
2753.00,0.5350
2752.00,0.5344
2751.00,0.5342
2750.00,0.5341
2749.00,0.5343
2748.00,0.5348
2747.00,0.5353
2746.00,0.5361
2745.00,0.5371
2744.00,0.5383
2743.00,0.5400
2742.00,0.5420
2741.00,0.5445
2740.00,0.5475
2739.00,0.5509
2738.00,0.5549
2737.00,0.5594
2736.00,0.5644
2735.00,0.5698
2734.00,0.5754
2733.00,0.5809
2732.00,0.5859
2731.00,0.5901
2730.00,0.5933
2729.00,0.5952
2728.00,0.5959
2727.00,0.5956
2726.00,0.5945
2725.00,0.5928
2724.00,0.5905
2723.00,0.5879
2722.00,0.5850
2721.00,0.5819
2720.00,0.5784
2719.00,0.5747
2718.00,0.5706
2717.00,0.5663
2716.00,0.5617
2715.00,0.5569
2714.00,0.5521
2713.00,0.5475
2712.00,0.5431
2711.00,0.5391
2710.00,0.5356
2709.00,0.5324
2708.00,0.5298
2707.00,0.5275
2706.00,0.5256
2705.00,0.5240
2704.00,0.5227
2703.00,0.5218
2702.00,0.5211
2701.00,0.5206
2700.00,0.5203
2699.00,0.5202
2698.00,0.5203
2697.00,0.5207
2696.00,0.5212
2695.00,0.5219
2694.00,0.5227
2693.00,0.5235
2692.00,0.5243
2691.00,0.5251
2690.00,0.5260
2689.00,0.5267
2688.00,0.5275
2687.00,0.5281
2686.00,0.5287
2685.00,0.5291
2684.00,0.5294
2683.00,0.5296
2682.00,0.5298
2681.00,0.5300
2680.00,0.5303
2679.00,0.5306
2678.00,0.5309
2677.00,0.5312
2676.00,0.5316
2675.00,0.5320
2674.00,0.5323
2673.00,0.5326
2672.00,0.5328
2671.00,0.5328
2670.00,0.5325
2669.00,0.5319
2668.00,0.5311
2667.00,0.5299
2666.00,0.5286
2665.00,0.5271
2664.00,0.5253
2663.00,0.5235
2662.00,0.5215
2661.00,0.5195
2660.00,0.5174
2659.00,0.5153
2658.00,0.5132
2657.00,0.5111
2656.00,0.5091
2655.00,0.5071
2654.00,0.5051
2653.00,0.5033
2652.00,0.5015
2651.00,0.4999
2650.00,0.4984
2649.00,0.4970
2648.00,0.4956
2647.00,0.4942
2646.00,0.4929
2645.00,0.4915
2644.00,0.4903
2643.00,0.4891
2642.00,0.4879
2641.00,0.4869
2640.00,0.4859
2639.00,0.4850
2638.00,0.4841
2637.00,0.4832
2636.00,0.4823
2635.00,0.4815
2634.00,0.4806
2633.00,0.4798
2632.00,0.4789
2631.00,0.4781
2630.00,0.4772
2629.00,0.4764
2628.00,0.4756
2627.00,0.4748
2626.00,0.4740
2625.00,0.4732
2624.00,0.4723
2623.00,0.4713
2622.00,0.4703
2621.00,0.4693
2620.00,0.4683
2619.00,0.4674
2618.00,0.4665
2617.00,0.4656
2616.00,0.4647
2615.00,0.4638
2614.00,0.4629
2613.00,0.4619
2612.00,0.4610
2611.00,0.4601
2610.00,0.4591
2609.00,0.4581
2608.00,0.4572
2607.00,0.4562
2606.00,0.4552
2605.00,0.4543
2604.00,0.4533
2603.00,0.4523
2602.00,0.4513
2601.00,0.4502
2600.00,0.4491
2599.00,0.4479
2598.00,0.4466
2597.00,0.4453
2596.00,0.4439
2595.00,0.4424
2594.00,0.4408
2593.00,0.4393
2592.00,0.4376
2591.00,0.4360
2590.00,0.4343
2589.00,0.4327
2588.00,0.4311
2587.00,0.4294
2586.00,0.4278
2585.00,0.4261
2584.00,0.4244
2583.00,0.4226
2582.00,0.4208
2581.00,0.4190
2580.00,0.4172
2579.00,0.4155
2578.00,0.4137
2577.00,0.4120
2576.00,0.4103
2575.00,0.4086
2574.00,0.4069
2573.00,0.4053
2572.00,0.4038
2571.00,0.4023
2570.00,0.4008
2569.00,0.3993
2568.00,0.3979
2567.00,0.3964
2566.00,0.3950
2565.00,0.3936
2564.00,0.3922
2563.00,0.3908
2562.00,0.3894
2561.00,0.3880
2560.00,0.3867
2559.00,0.3854
2558.00,0.3842
2557.00,0.3831
2556.00,0.3819
2555.00,0.3808
2554.00,0.3796
2553.00,0.3785
2552.00,0.3774
2551.00,0.3763
2550.00,0.3752
2549.00,0.3741
2548.00,0.3732
2547.00,0.3723
2546.00,0.3714
2545.00,0.3705
2544.00,0.3696
2543.00,0.3688
2542.00,0.3679
2541.00,0.3671
2540.00,0.3664
2539.00,0.3657
2538.00,0.3650
2537.00,0.3643
2536.00,0.3636
2535.00,0.3630
2534.00,0.3624
2533.00,0.3617
2532.00,0.3611
2531.00,0.3603
2530.00,0.3596
2529.00,0.3588
2528.00,0.3579
2527.00,0.3570
2526.00,0.3560
2525.00,0.3550
2524.00,0.3540
2523.00,0.3531
2522.00,0.3521
2521.00,0.3512
2520.00,0.3502
2519.00,0.3493
2518.00,0.3484
2517.00,0.3476
2516.00,0.3467
2515.00,0.3459
2514.00,0.3452
2513.00,0.3444
2512.00,0.3437
2511.00,0.3430
2510.00,0.3423
2509.00,0.3417
2508.00,0.3411
2507.00,0.3406
2506.00,0.3400
2505.00,0.3394
2504.00,0.3388
2503.00,0.3383
2502.00,0.3379
2501.00,0.3375
2500.00,0.3371
2499.00,0.3367
2498.00,0.3363
2497.00,0.3359
2496.00,0.3355
2495.00,0.3352
2494.00,0.3348
2493.00,0.3345
2492.00,0.3341
2491.00,0.3337
2490.00,0.3333
2489.00,0.3328
2488.00,0.3325
2487.00,0.3321
2486.00,0.3317
2485.00,0.3314
2484.00,0.3310
2483.00,0.3306
2482.00,0.3302
2481.00,0.3298
2480.00,0.3294
2479.00,0.3291
2478.00,0.3288
2477.00,0.3285
2476.00,0.3282
2475.00,0.3279
2474.00,0.3276
2473.00,0.3273
2472.00,0.3271
2471.00,0.3269
2470.00,0.3266
2469.00,0.3264
2468.00,0.3262
2467.00,0.3259
2466.00,0.3257
2465.00,0.3254
2464.00,0.3251
2463.00,0.3249
2462.00,0.3247
2461.00,0.3244
2460.00,0.3242
2459.00,0.3240
2458.00,0.3238
2457.00,0.3237
2456.00,0.3235
2455.00,0.3234
2454.00,0.3232
2453.00,0.3231
2452.00,0.3230
2451.00,0.3228
2450.00,0.3228
2449.00,0.3227
2448.00,0.3227
2447.00,0.3226
2446.00,0.3226
2445.00,0.3226
2444.00,0.3226
2443.00,0.3226
2442.00,0.3227
2441.00,0.3227
2440.00,0.3228
2439.00,0.3228
2438.00,0.3229
2437.00,0.3230
2436.00,0.3231
2435.00,0.3233
2434.00,0.3234
2433.00,0.3235
2432.00,0.3236
2431.00,0.3237
2430.00,0.3237
2429.00,0.3238
2428.00,0.3239
2427.00,0.3239
2426.00,0.3240
2425.00,0.3241
2424.00,0.3242
2423.00,0.3242
2422.00,0.3243
2421.00,0.3244
2420.00,0.3244
2419.00,0.3245
2418.00,0.3245
2417.00,0.3245
2416.00,0.3245
2415.00,0.3246
2414.00,0.3246
2413.00,0.3247
2412.00,0.3248
2411.00,0.3249
2410.00,0.3249
2409.00,0.3249
2408.00,0.3249
2407.00,0.3249
2406.00,0.3249
2405.00,0.3248
2404.00,0.3248
2403.00,0.3247
2402.00,0.3247
2401.00,0.3247
2400.00,0.3246
2399.00,0.3245
2398.00,0.3243
2397.00,0.3242
2396.00,0.3241
2395.00,0.3239
2394.00,0.3237
2393.00,0.3236
2392.00,0.3235
2391.00,0.3234
2390.00,0.3233
2389.00,0.3233
2388.00,0.3232
2387.00,0.3232
2386.00,0.3231
2385.00,0.3231
2384.00,0.3231
2383.00,0.3231
2382.00,0.3231
2381.00,0.3231
2380.00,0.3231
2379.00,0.3231
2378.00,0.3231
2377.00,0.3231
2376.00,0.3231
2375.00,0.3231
2374.00,0.3229
2373.00,0.3228
2372.00,0.3227
2371.00,0.3227
2370.00,0.3226
2369.00,0.3226
2368.00,0.3226
2367.00,0.3226
2366.00,0.3225
2365.00,0.3225
2364.00,0.3225
2363.00,0.3225
2362.00,0.3224
2361.00,0.3224
2360.00,0.3224
2359.00,0.3223
2358.00,0.3222
2357.00,0.3221
2356.00,0.3220
2355.00,0.3219
2354.00,0.3219
2353.00,0.3218
2352.00,0.3217
2351.00,0.3216
2350.00,0.3215
2349.00,0.3215
2348.00,0.3216
2347.00,0.3217
2346.00,0.3217
2345.00,0.3215
2344.00,0.3212
2343.00,0.3209
2342.00,0.3207
2341.00,0.3205
2340.00,0.3204
2339.00,0.3203
2338.00,0.3203
2337.00,0.3202
2336.00,0.3201
2335.00,0.3200
2334.00,0.3199
2333.00,0.3197
2332.00,0.3196
2331.00,0.3193
2330.00,0.3190
2329.00,0.3187
2328.00,0.3185
2327.00,0.3183
2326.00,0.3181
2325.00,0.3179
2324.00,0.3177
2323.00,0.3175
2322.00,0.3172
2321.00,0.3169
2320.00,0.3166
2319.00,0.3163
2318.00,0.3161
2317.00,0.3160
2316.00,0.3158
2315.00,0.3156
2314.00,0.3154
2313.00,0.3151
2312.00,0.3148
2311.00,0.3144
2310.00,0.3141
2309.00,0.3138
2308.00,0.3134
2307.00,0.3131
2306.00,0.3128
2305.00,0.3124
2304.00,0.3122
2303.00,0.3119
2302.00,0.3117
2301.00,0.3115
2300.00,0.3112
2299.00,0.3110
2298.00,0.3107
2297.00,0.3104
2296.00,0.3101
2295.00,0.3098
2294.00,0.3095
2293.00,0.3093
2292.00,0.3090
2291.00,0.3087
2290.00,0.3084
2289.00,0.3081
2288.00,0.3078
2287.00,0.3076
2286.00,0.3073
2285.00,0.3071
2284.00,0.3068
2283.00,0.3066
2282.00,0.3063
2281.00,0.3059
2280.00,0.3056
2279.00,0.3052
2278.00,0.3049
2277.00,0.3046
2276.00,0.3044
2275.00,0.3041
2274.00,0.3038
2273.00,0.3035
2272.00,0.3032
2271.00,0.3030
2270.00,0.3029
2269.00,0.3028
2268.00,0.3026
2267.00,0.3025
2266.00,0.3023
2265.00,0.3021
2264.00,0.3019
2263.00,0.3017
2262.00,0.3014
2261.00,0.3012
2260.00,0.3010
2259.00,0.3007
2258.00,0.3005
2257.00,0.3002
2256.00,0.2998
2255.00,0.2995
2254.00,0.2991
2253.00,0.2989
2252.00,0.2987
2251.00,0.2985
2250.00,0.2983
2249.00,0.2980
2248.00,0.2978
2247.00,0.2976
2246.00,0.2974
2245.00,0.2972
2244.00,0.2970
2243.00,0.2968
2242.00,0.2967
2241.00,0.2965
2240.00,0.2964
2239.00,0.2962
2238.00,0.2961
2237.00,0.2960
2236.00,0.2959
2235.00,0.2958
2234.00,0.2957
2233.00,0.2956
2232.00,0.2955
2231.00,0.2953
2230.00,0.2952
2229.00,0.2951
2228.00,0.2950
2227.00,0.2949
2226.00,0.2947
2225.00,0.2945
2224.00,0.2943
2223.00,0.2942
2222.00,0.2941
2221.00,0.2940
2220.00,0.2939
2219.00,0.2937
2218.00,0.2936
2217.00,0.2935
2216.00,0.2934
2215.00,0.2933
2214.00,0.2932
2213.00,0.2932
2212.00,0.2931
2211.00,0.2931
2210.00,0.2931
2209.00,0.2931
2208.00,0.2931
2207.00,0.2932
2206.00,0.2932
2205.00,0.2932
2204.00,0.2932
2203.00,0.2932
2202.00,0.2932
2201.00,0.2932
2200.00,0.2933
2199.00,0.2934
2198.00,0.2934
2197.00,0.2934
2196.00,0.2934
2195.00,0.2934
2194.00,0.2935
2193.00,0.2935
2192.00,0.2935
2191.00,0.2934
2190.00,0.2934
2189.00,0.2933
2188.00,0.2933
2187.00,0.2933
2186.00,0.2932
2185.00,0.2931
2184.00,0.2930
2183.00,0.2928
2182.00,0.2927
2181.00,0.2925
2180.00,0.2924
2179.00,0.2923
2178.00,0.2923
2177.00,0.2922
2176.00,0.2921
2175.00,0.2920
2174.00,0.2919
2173.00,0.2918
2172.00,0.2918
2171.00,0.2917
2170.00,0.2916
2169.00,0.2915
2168.00,0.2915
2167.00,0.2914
2166.00,0.2912
2165.00,0.2911
2164.00,0.2910
2163.00,0.2909
2162.00,0.2908
2161.00,0.2907
2160.00,0.2906
2159.00,0.2905
2158.00,0.2903
2157.00,0.2900
2156.00,0.2898
2155.00,0.2896
2154.00,0.2894
2153.00,0.2893
2152.00,0.2890
2151.00,0.2888
2150.00,0.2885
2149.00,0.2881
2148.00,0.2878
2147.00,0.2874
2146.00,0.2870
2145.00,0.2866
2144.00,0.2862
2143.00,0.2857
2142.00,0.2853
2141.00,0.2849
2140.00,0.2845
2139.00,0.2842
2138.00,0.2839
2137.00,0.2837
2136.00,0.2835
2135.00,0.2833
2134.00,0.2831
2133.00,0.2830
2132.00,0.2828
2131.00,0.2827
2130.00,0.2825
2129.00,0.2824
2128.00,0.2823
2127.00,0.2822
2126.00,0.2820
2125.00,0.2819
2124.00,0.2817
2123.00,0.2816
2122.00,0.2814
2121.00,0.2812
2120.00,0.2811
2119.00,0.2810
2118.00,0.2808
2117.00,0.2806
2116.00,0.2804
2115.00,0.2802
2114.00,0.2801
2113.00,0.2800
2112.00,0.2799
2111.00,0.2797
2110.00,0.2795
2109.00,0.2794
2108.00,0.2793
2107.00,0.2792
2106.00,0.2792
2105.00,0.2791
2104.00,0.2791
2103.00,0.2791
2102.00,0.2791
2101.00,0.2792
2100.00,0.2792
2099.00,0.2791
2098.00,0.2791
2097.00,0.2791
2096.00,0.2791
2095.00,0.2791
2094.00,0.2791
2093.00,0.2792
2092.00,0.2792
2091.00,0.2792
2090.00,0.2792
2089.00,0.2792
2088.00,0.2791
2087.00,0.2791
2086.00,0.2790
2085.00,0.2790
2084.00,0.2789
2083.00,0.2788
2082.00,0.2788
2081.00,0.2788
2080.00,0.2787
2079.00,0.2786
2078.00,0.2786
2077.00,0.2785
2076.00,0.2785
2075.00,0.2785
2074.00,0.2785
2073.00,0.2785
2072.00,0.2786
2071.00,0.2786
2070.00,0.2787
2069.00,0.2788
2068.00,0.2790
2067.00,0.2792
2066.00,0.2793
2065.00,0.2795
2064.00,0.2797
2063.00,0.2798
2062.00,0.2800
2061.00,0.2801
2060.00,0.2803
2059.00,0.2804
2058.00,0.2805
2057.00,0.2807
2056.00,0.2809
2055.00,0.2810
2054.00,0.2811
2053.00,0.2812
2052.00,0.2813
2051.00,0.2814
2050.00,0.2815
2049.00,0.2817
2048.00,0.2819
2047.00,0.2820
2046.00,0.2821
2045.00,0.2822
2044.00,0.2823
2043.00,0.2825
2042.00,0.2826
2041.00,0.2826
2040.00,0.2827
2039.00,0.2827
2038.00,0.2828
2037.00,0.2829
2036.00,0.2829
2035.00,0.2830
2034.00,0.2831
2033.00,0.2831
2032.00,0.2831
2031.00,0.2832
2030.00,0.2832
2029.00,0.2832
2028.00,0.2833
2027.00,0.2833
2026.00,0.2833
2025.00,0.2832
2024.00,0.2831
2023.00,0.2830
2022.00,0.2827
2021.00,0.2824
2020.00,0.2820
2019.00,0.2816
2018.00,0.2812
2017.00,0.2806
2016.00,0.2800
2015.00,0.2793
2014.00,0.2786
2013.00,0.2780
2012.00,0.2775
2011.00,0.2770
2010.00,0.2765
2009.00,0.2760
2008.00,0.2755
2007.00,0.2751
2006.00,0.2746
2005.00,0.2743
2004.00,0.2741
2003.00,0.2738
2002.00,0.2736
2001.00,0.2734
2000.00,0.2733
1999.00,0.2732
1998.00,0.2730
1997.00,0.2729
1996.00,0.2729
1995.00,0.2728
1994.00,0.2727
1993.00,0.2727
1992.00,0.2726
1991.00,0.2725
1990.00,0.2724
1989.00,0.2724
1988.00,0.2723
1987.00,0.2723
1986.00,0.2722
1985.00,0.2723
1984.00,0.2723
1983.00,0.2724
1982.00,0.2723
1981.00,0.2723
1980.00,0.2722
1979.00,0.2722
1978.00,0.2721
1977.00,0.2721
1976.00,0.2720
1975.00,0.2720
1974.00,0.2719
1973.00,0.2719
1972.00,0.2719
1971.00,0.2719
1970.00,0.2719
1969.00,0.2719
1968.00,0.2720
1967.00,0.2720
1966.00,0.2719
1965.00,0.2718
1964.00,0.2718
1963.00,0.2718
1962.00,0.2718
1961.00,0.2719
1960.00,0.2720
1959.00,0.2722
1958.00,0.2723
1957.00,0.2725
1956.00,0.2728
1955.00,0.2730
1954.00,0.2731
1953.00,0.2734
1952.00,0.2735
1951.00,0.2737
1950.00,0.2737
1949.00,0.2738
1948.00,0.2740
1947.00,0.2742
1946.00,0.2744
1945.00,0.2748
1944.00,0.2753
1943.00,0.2757
1942.00,0.2762
1941.00,0.2767
1940.00,0.2771
1939.00,0.2775
1938.00,0.2777
1937.00,0.2777
1936.00,0.2776
1935.00,0.2775
1934.00,0.2773
1933.00,0.2772
1932.00,0.2771
1931.00,0.2770
1930.00,0.2770
1929.00,0.2771
1928.00,0.2772
1927.00,0.2773
1926.00,0.2774
1925.00,0.2776
1924.00,0.2779
1923.00,0.2783
1922.00,0.2786
1921.00,0.2790
1920.00,0.2793
1919.00,0.2797
1918.00,0.2801
1917.00,0.2803
1916.00,0.2806
1915.00,0.2808
1914.00,0.2810
1913.00,0.2812
1912.00,0.2815
1911.00,0.2817
1910.00,0.2819
1909.00,0.2820
1908.00,0.2821
1907.00,0.2821
1906.00,0.2820
1905.00,0.2820
1904.00,0.2820
1903.00,0.2820
1902.00,0.2820
1901.00,0.2820
1900.00,0.2820
1899.00,0.2820
1898.00,0.2821
1897.00,0.2823
1896.00,0.2825
1895.00,0.2826
1894.00,0.2827
1893.00,0.2828
1892.00,0.2829
1891.00,0.2831
1890.00,0.2832
1889.00,0.2833
1888.00,0.2834
1887.00,0.2834
1886.00,0.2835
1885.00,0.2836
1884.00,0.2837
1883.00,0.2837
1882.00,0.2837
1881.00,0.2837
1880.00,0.2837
1879.00,0.2837
1878.00,0.2836
1877.00,0.2835
1876.00,0.2834
1875.00,0.2833
1874.00,0.2831
1873.00,0.2829
1872.00,0.2827
1871.00,0.2826
1870.00,0.2825
1869.00,0.2824
1868.00,0.2823
1867.00,0.2820
1866.00,0.2817
1865.00,0.2814
1864.00,0.2811
1863.00,0.2808
1862.00,0.2805
1861.00,0.2802
1860.00,0.2800
1859.00,0.2797
1858.00,0.2794
1857.00,0.2791
1856.00,0.2788
1855.00,0.2786
1854.00,0.2784
1853.00,0.2782
1852.00,0.2781
1851.00,0.2780
1850.00,0.2780
1849.00,0.2780
1848.00,0.2780
1847.00,0.2779
1846.00,0.2778
1845.00,0.2778
1844.00,0.2777
1843.00,0.2775
1842.00,0.2773
1841.00,0.2772
1840.00,0.2772
1839.00,0.2772
1838.00,0.2772
1837.00,0.2772
1836.00,0.2771
1835.00,0.2770
1834.00,0.2769
1833.00,0.2768
1832.00,0.2767
1831.00,0.2767
1830.00,0.2767
1829.00,0.2765
1828.00,0.2763
1827.00,0.2761
1826.00,0.2760
1825.00,0.2760
1824.00,0.2760
1823.00,0.2759
1822.00,0.2759
1821.00,0.2759
1820.00,0.2759
1819.00,0.2759
1818.00,0.2759
1817.00,0.2760
1816.00,0.2762
1815.00,0.2764
1814.00,0.2766
1813.00,0.2768
1812.00,0.2772
1811.00,0.2774
1810.00,0.2777
1809.00,0.2780
1808.00,0.2783
1807.00,0.2787
1806.00,0.2791
1805.00,0.2796
1804.00,0.2801
1803.00,0.2806
1802.00,0.2812
1801.00,0.2818
1800.00,0.2824
1799.00,0.2830
1798.00,0.2836
1797.00,0.2842
1796.00,0.2848
1795.00,0.2852
1794.00,0.2855
1793.00,0.2859
1792.00,0.2863
1791.00,0.2866
1790.00,0.2869
1789.00,0.2873
1788.00,0.2878
1787.00,0.2882
1786.00,0.2886
1785.00,0.2890
1784.00,0.2894
1783.00,0.2899
1782.00,0.2904
1781.00,0.2910
1780.00,0.2915
1779.00,0.2919
1778.00,0.2924
1777.00,0.2929
1776.00,0.2936
1775.00,0.2944
1774.00,0.2952
1773.00,0.2960
1772.00,0.2966
1771.00,0.2969
1770.00,0.2972
1769.00,0.2979
1768.00,0.2987
1767.00,0.2995
1766.00,0.3002
1765.00,0.3010
1764.00,0.3020
1763.00,0.3031
1762.00,0.3041
1761.00,0.3053
1760.00,0.3066
1759.00,0.3079
1758.00,0.3095
1757.00,0.3113
1756.00,0.3133
1755.00,0.3154
1754.00,0.3178
1753.00,0.3206
1752.00,0.3239
1751.00,0.3275
1750.00,0.3312
1749.00,0.3350
1748.00,0.3391
1747.00,0.3432
1746.00,0.3474
1745.00,0.3517
1744.00,0.3557
1743.00,0.3592
1742.00,0.3621
1741.00,0.3645
1740.00,0.3664
1739.00,0.3675
1738.00,0.3680
1737.00,0.3685
1736.00,0.3690
1735.00,0.3692
1734.00,0.3687
1733.00,0.3678
1732.00,0.3665
1731.00,0.3650
1730.00,0.3634
1729.00,0.3618
1728.00,0.3602
1727.00,0.3587
1726.00,0.3575
1725.00,0.3566
1724.00,0.3562
1723.00,0.3560
1722.00,0.3561
1721.00,0.3568
1720.00,0.3581
1719.00,0.3603
1718.00,0.3631
1717.00,0.3660
1716.00,0.3685
1715.00,0.3710
1714.00,0.3739
1713.00,0.3773
1712.00,0.3808
1711.00,0.3842
1710.00,0.3871
1709.00,0.3893
1708.00,0.3904
1707.00,0.3903
1706.00,0.3892
1705.00,0.3869
1704.00,0.3840
1703.00,0.3808
1702.00,0.3770
1701.00,0.3722
1700.00,0.3672
1699.00,0.3635
1698.00,0.3611
1697.00,0.3592
1696.00,0.3566
1695.00,0.3533
1694.00,0.3503
1693.00,0.3483
1692.00,0.3469
1691.00,0.3459
1690.00,0.3449
1689.00,0.3441
1688.00,0.3437
1687.00,0.3438
1686.00,0.3439
1685.00,0.3436
1684.00,0.3424
1683.00,0.3407
1682.00,0.3395
1681.00,0.3391
1680.00,0.3389
1679.00,0.3386
1678.00,0.3382
1677.00,0.3380
1676.00,0.3380
1675.00,0.3381
1674.00,0.3383
1673.00,0.3387
1672.00,0.3392
1671.00,0.3397
1670.00,0.3401
1669.00,0.3406
1668.00,0.3410
1667.00,0.3414
1666.00,0.3419
1665.00,0.3426
1664.00,0.3433
1663.00,0.3439
1662.00,0.3446
1661.00,0.3453
1660.00,0.3461
1659.00,0.3469
1658.00,0.3477
1657.00,0.3488
1656.00,0.3502
1655.00,0.3522
1654.00,0.3545
1653.00,0.3565
1652.00,0.3577
1651.00,0.3581
1650.00,0.3584
1649.00,0.3596
1648.00,0.3617
1647.00,0.3640
1646.00,0.3660
1645.00,0.3678
1644.00,0.3697
1643.00,0.3715
1642.00,0.3736
1641.00,0.3760
1640.00,0.3785
1639.00,0.3810
1638.00,0.3837
1637.00,0.3867
1636.00,0.3898
1635.00,0.3923
1634.00,0.3946
1633.00,0.3971
1632.00,0.3997
1631.00,0.4022
1630.00,0.4048
1629.00,0.4077
1628.00,0.4108
1627.00,0.4138
1626.00,0.4169
1625.00,0.4206
1624.00,0.4249
1623.00,0.4297
1622.00,0.4348
1621.00,0.4405
1620.00,0.4472
1619.00,0.4549
1618.00,0.4645
1617.00,0.4759
1616.00,0.4879
1615.00,0.4987
1614.00,0.5087
1613.00,0.5190
1612.00,0.5302
1611.00,0.5416
1610.00,0.5528
1609.00,0.5640
1608.00,0.5750
1607.00,0.5849
1606.00,0.5936
1605.00,0.6017
1604.00,0.6097
1603.00,0.6172
1602.00,0.6243
1601.00,0.6320
1600.00,0.6407
1599.00,0.6502
1598.00,0.6611
1597.00,0.6749
1596.00,0.6927
1595.00,0.7150
1594.00,0.7427
1593.00,0.7781
1592.00,0.8233
1591.00,0.8798
1590.00,0.9506
1589.00,1.0407
1588.00,1.1561
1587.00,1.3005
1586.00,1.4773
1585.00,1.6943
1584.00,1.9646
1583.00,2.2793
1582.00,2.5455
1581.00,2.6281
1580.00,2.5225
1579.00,2.2840
1578.00,2.0010
1577.00,1.7440
1576.00,1.5355
1575.00,1.3783
1574.00,1.2660
1573.00,1.1862
1572.00,1.1267
1571.00,1.0808
1570.00,1.0485
1569.00,1.0343
1568.00,1.0399
1567.00,1.0640
1566.00,1.1074
1565.00,1.1732
1564.00,1.2599
1563.00,1.3550
1562.00,1.4416
1561.00,1.5022
1560.00,1.4991
1559.00,1.3998
1558.00,1.2617
1557.00,1.1448
1556.00,1.0492
1555.00,0.9624
1554.00,0.8851
1553.00,0.8231
1552.00,0.7766
1551.00,0.7399
1550.00,0.7094
1549.00,0.6849
1548.00,0.6660
1547.00,0.6510
1546.00,0.6378
1545.00,0.6260
1544.00,0.6158
1543.00,0.6067
1542.00,0.5980
1541.00,0.5892
1540.00,0.5797
1539.00,0.5694
1538.00,0.5602
1537.00,0.5530
1536.00,0.5471
1535.00,0.5416
1534.00,0.5363
1533.00,0.5320
1532.00,0.5294
1531.00,0.5284
1530.00,0.5283
1529.00,0.5288
1528.00,0.5294
1527.00,0.5292
1526.00,0.5279
1525.00,0.5264
1524.00,0.5254
1523.00,0.5250
1522.00,0.5253
1521.00,0.5264
1520.00,0.5283
1519.00,0.5307
1518.00,0.5341
1517.00,0.5383
1516.00,0.5424
1515.00,0.5454
1514.00,0.5473
1513.00,0.5488
1512.00,0.5505
1511.00,0.5526
1510.00,0.5557
1509.00,0.5608
1508.00,0.5686
1507.00,0.5786
1506.00,0.5894
1505.00,0.6004
1504.00,0.6104
1503.00,0.6192
1502.00,0.6275
1501.00,0.6355
1500.00,0.6431
1499.00,0.6502
1498.00,0.6578
1497.00,0.6672
1496.00,0.6782
1495.00,0.6891
1494.00,0.6998
1493.00,0.7115
1492.00,0.7248
1491.00,0.7398
1490.00,0.7564
1489.00,0.7749
1488.00,0.7949
1487.00,0.8163
1486.00,0.8405
1485.00,0.8689
1484.00,0.9019
1483.00,0.9400
1482.00,0.9849
1481.00,1.0379
1480.00,1.0980
1479.00,1.1644
1478.00,1.2402
1477.00,1.3301
1476.00,1.4356
1475.00,1.5569
1474.00,1.7031
1473.00,1.8928
1472.00,2.1378
1471.00,2.4271
1470.00,2.7450
1469.00,3.0971
1468.00,3.4335
1467.00,3.5462
1466.00,3.5551
1465.00,3.7403
1464.00,3.9823
1463.00,4.0096
1462.00,4.0183
1461.00,4.0840
1460.00,4.2565
1459.00,4.3202
1458.00,4.4129
1457.00,3.8129
1456.00,3.6057
1455.00,3.8831
1454.00,4.5636
1453.00,4.7324
1452.00,4.4704
1451.00,4.0512
1450.00,3.7437
1449.00,3.6520
1448.00,3.5990
1447.00,3.4284
1446.00,3.2373
1445.00,3.0941
1444.00,2.9272
1443.00,2.7372
1442.00,2.5743
1441.00,2.4402
1440.00,2.3144
1439.00,2.1875
1438.00,2.0603
1437.00,1.9329
1436.00,1.8094
1435.00,1.6984
1434.00,1.6002
1433.00,1.5081
1432.00,1.4177
1431.00,1.3313
1430.00,1.2536
1429.00,1.1870
1428.00,1.1321
1427.00,1.0878
1426.00,1.0517
1425.00,1.0214
1424.00,0.9961
1423.00,0.9763
1422.00,0.9612
1421.00,0.9485
1420.00,0.9362
1419.00,0.9242
1418.00,0.9133
1417.00,0.9039
1416.00,0.8961
1415.00,0.8898
1414.00,0.8849
1413.00,0.8814
1412.00,0.8790
1411.00,0.8773
1410.00,0.8748
1409.00,0.8704
1408.00,0.8631
1407.00,0.8526
1406.00,0.8387
1405.00,0.8220
1404.00,0.8040
1403.00,0.7867
1402.00,0.7711
1401.00,0.7570
1400.00,0.7446
1399.00,0.7346
1398.00,0.7273
1397.00,0.7228
1396.00,0.7213
1395.00,0.7235
1394.00,0.7299
1393.00,0.7414
1392.00,0.7595
1391.00,0.7864
1390.00,0.8243
1389.00,0.8765
1388.00,0.9466
1387.00,1.0353
1386.00,1.1376
1385.00,1.2469
1384.00,1.3610
1383.00,1.4830
1382.00,1.6170
1381.00,1.7671
1380.00,1.9357
1379.00,2.1104
1378.00,2.2481
1377.00,2.2947
1376.00,2.2347
1375.00,2.0956
1374.00,1.9241
1373.00,1.7618
1372.00,1.6275
1371.00,1.5230
1370.00,1.4464
1369.00,1.3956
1368.00,1.3651
1367.00,1.3430
1366.00,1.3134
1365.00,1.2653
1364.00,1.1991
1363.00,1.1256
1362.00,1.0575
1361.00,1.0019
1360.00,0.9596
1359.00,0.9283
1358.00,0.9054
1357.00,0.8892
1356.00,0.8787
1355.00,0.8727
1354.00,0.8698
1353.00,0.8686
1352.00,0.8678
1351.00,0.8666
1350.00,0.8646
1349.00,0.8620
1348.00,0.8593
1347.00,0.8569
1346.00,0.8550
1345.00,0.8534
1344.00,0.8519
1343.00,0.8500
1342.00,0.8470
1341.00,0.8421
1340.00,0.8347
1339.00,0.8247
1338.00,0.8122
1337.00,0.7978
1336.00,0.7821
1335.00,0.7660
1334.00,0.7502
1333.00,0.7356
1332.00,0.7228
1331.00,0.7120
1330.00,0.7034
1329.00,0.6968
1328.00,0.6921
1327.00,0.6891
1326.00,0.6877
1325.00,0.6874
1324.00,0.6880
1323.00,0.6890
1322.00,0.6899
1321.00,0.6906
1320.00,0.6911
1319.00,0.6916
1318.00,0.6924
1317.00,0.6936
1316.00,0.6954
1315.00,0.6979
1314.00,0.7010
1313.00,0.7047
1312.00,0.7088
1311.00,0.7128
1310.00,0.7167
1309.00,0.7202
1308.00,0.7231
1307.00,0.7253
1306.00,0.7264
1305.00,0.7262
1304.00,0.7245
1303.00,0.7212
1302.00,0.7167
1301.00,0.7114
1300.00,0.7056
1299.00,0.6997
1298.00,0.6939
1297.00,0.6881
1296.00,0.6827
1295.00,0.6778
1294.00,0.6737
1293.00,0.6701
1292.00,0.6669
1291.00,0.6639
1290.00,0.6611
1289.00,0.6583
1288.00,0.6554
1287.00,0.6523
1286.00,0.6486
1285.00,0.6443
1284.00,0.6396
1283.00,0.6350
1282.00,0.6309
1281.00,0.6275
1280.00,0.6248
1279.00,0.6225
1278.00,0.6201
1277.00,0.6176
1276.00,0.6149
1275.00,0.6123
1274.00,0.6099
1273.00,0.6078
1272.00,0.6064
1271.00,0.6058
1270.00,0.6057
1269.00,0.6056
1268.00,0.6045
1267.00,0.6018
1266.00,0.5977
1265.00,0.5926
1264.00,0.5876
1263.00,0.5834
1262.00,0.5801
1261.00,0.5776
1260.00,0.5757
1259.00,0.5740
1258.00,0.5723
1257.00,0.5703
1256.00,0.5678
1255.00,0.5653
1254.00,0.5629
1253.00,0.5608
1252.00,0.5591
1251.00,0.5577
1250.00,0.5562
1249.00,0.5545
1248.00,0.5525
1247.00,0.5502
1246.00,0.5474
1245.00,0.5441
1244.00,0.5406
1243.00,0.5370
1242.00,0.5334
1241.00,0.5298
1240.00,0.5262
1239.00,0.5231
1238.00,0.5204
1237.00,0.5183
1236.00,0.5167
1235.00,0.5158
1234.00,0.5155
1233.00,0.5156
1232.00,0.5163
1231.00,0.5175
1230.00,0.5186
1229.00,0.5190
1228.00,0.5182
1227.00,0.5162
1226.00,0.5131
1225.00,0.5095
1224.00,0.5058
1223.00,0.5025
1222.00,0.4999
1221.00,0.4979
1220.00,0.4966
1219.00,0.4960
1218.00,0.4960
1217.00,0.4966
1216.00,0.4976
1215.00,0.4990
1214.00,0.5004
1213.00,0.5013
1212.00,0.5012
1211.00,0.5004
1210.00,0.4991
1209.00,0.4975
1208.00,0.4959
1207.00,0.4944
1206.00,0.4928
1205.00,0.4913
1204.00,0.4899
1203.00,0.4887
1202.00,0.4881
1201.00,0.4878
1200.00,0.4880
1199.00,0.4883
1198.00,0.4886
1197.00,0.4884
1196.00,0.4876
1195.00,0.4866
1194.00,0.4856
1193.00,0.4845
1192.00,0.4837
1191.00,0.4830
1190.00,0.4825
1189.00,0.4821
1188.00,0.4818
1187.00,0.4815
1186.00,0.4812
1185.00,0.4810
1184.00,0.4810
1183.00,0.4811
1182.00,0.4813
1181.00,0.4817
1180.00,0.4822
1179.00,0.4831
1178.00,0.4844
1177.00,0.4860
1176.00,0.4883
1175.00,0.4914
1174.00,0.4954
1173.00,0.5002
1172.00,0.5053
1171.00,0.5099
1170.00,0.5132
1169.00,0.5146
1168.00,0.5145
1167.00,0.5134
1166.00,0.5121
1165.00,0.5108
1164.00,0.5101
1163.00,0.5101
1162.00,0.5108
1161.00,0.5119
1160.00,0.5133
1159.00,0.5149
1158.00,0.5165
1157.00,0.5179
1156.00,0.5187
1155.00,0.5190
1154.00,0.5188
1153.00,0.5179
1152.00,0.5166
1151.00,0.5149
1150.00,0.5130
1149.00,0.5110
1148.00,0.5093
1147.00,0.5080
1146.00,0.5072
1145.00,0.5069
1144.00,0.5073
1143.00,0.5087
1142.00,0.5112
1141.00,0.5151
1140.00,0.5204
1139.00,0.5271
1138.00,0.5351
1137.00,0.5445
1136.00,0.5549
1135.00,0.5659
1134.00,0.5757
1133.00,0.5818
1132.00,0.5822
1131.00,0.5771
1130.00,0.5682
1129.00,0.5583
1128.00,0.5495
1127.00,0.5428
1126.00,0.5384
1125.00,0.5357
1124.00,0.5340
1123.00,0.5324
1122.00,0.5305
1121.00,0.5284
1120.00,0.5267
1119.00,0.5260
1118.00,0.5268
1117.00,0.5291
1116.00,0.5326
1115.00,0.5359
1114.00,0.5373
1113.00,0.5354
1112.00,0.5298
1111.00,0.5218
1110.00,0.5133
1109.00,0.5057
1108.00,0.4998
1107.00,0.4959
1106.00,0.4936
1105.00,0.4922
1104.00,0.4914
1103.00,0.4908
1102.00,0.4901
1101.00,0.4892
1100.00,0.4879
1099.00,0.4865
1098.00,0.4851
1097.00,0.4838
1096.00,0.4827
1095.00,0.4823
1094.00,0.4824
1093.00,0.4828
1092.00,0.4836
1091.00,0.4847
1090.00,0.4861
1089.00,0.4881
1088.00,0.4906
1087.00,0.4940
1086.00,0.4984
1085.00,0.5038
1084.00,0.5103
1083.00,0.5179
1082.00,0.5266
1081.00,0.5360
1080.00,0.5454
1079.00,0.5541
1078.00,0.5608
1077.00,0.5644
1076.00,0.5643
1075.00,0.5609
1074.00,0.5549
1073.00,0.5475
1072.00,0.5400
1071.00,0.5335
1070.00,0.5284
1069.00,0.5245
1068.00,0.5217
1067.00,0.5196
1066.00,0.5179
1065.00,0.5166
1064.00,0.5158
1063.00,0.5154
1062.00,0.5156
1061.00,0.5160
1060.00,0.5164
1059.00,0.5165
1058.00,0.5160
1057.00,0.5147
1056.00,0.5129
1055.00,0.5108
1054.00,0.5091
1053.00,0.5077
1052.00,0.5070
1051.00,0.5071
1050.00,0.5081
1049.00,0.5097
1048.00,0.5117
1047.00,0.5139
1046.00,0.5157
1045.00,0.5168
1044.00,0.5171
1043.00,0.5172
1042.00,0.5172
1041.00,0.5172
1040.00,0.5172
1039.00,0.5170
1038.00,0.5164
1037.00,0.5156
1036.00,0.5149
1035.00,0.5147
1034.00,0.5154
1033.00,0.5169
1032.00,0.5192
1031.00,0.5218
1030.00,0.5241
1029.00,0.5255
1028.00,0.5256
1027.00,0.5239
1026.00,0.5202
1025.00,0.5147
1024.00,0.5081
1023.00,0.5015
1022.00,0.4953
1021.00,0.4898
1020.00,0.4850
1019.00,0.4808
1018.00,0.4772
1017.00,0.4739
1016.00,0.4709
1015.00,0.4683
1014.00,0.4659
1013.00,0.4638
1012.00,0.4621
1011.00,0.4610
1010.00,0.4605
1009.00,0.4605
1008.00,0.4609
1007.00,0.4617
1006.00,0.4631
1005.00,0.4648
1004.00,0.4667
1003.00,0.4686
1002.00,0.4706
1001.00,0.4725
1000.00,0.4743
999.00,0.4755
998.00,0.4759
997.00,0.4752
996.00,0.4734
995.00,0.4710
994.00,0.4680
993.00,0.4646
992.00,0.4610
991.00,0.4572
990.00,0.4535
989.00,0.4502
988.00,0.4476
987.00,0.4458
986.00,0.4449
985.00,0.4450
984.00,0.4459
983.00,0.4476
982.00,0.4498
981.00,0.4522
980.00,0.4546
979.00,0.4568
978.00,0.4587
977.00,0.4603
976.00,0.4617
975.00,0.4628
974.00,0.4634
973.00,0.4637
972.00,0.4636
971.00,0.4634
970.00,0.4632
969.00,0.4630
968.00,0.4628
967.00,0.4626
966.00,0.4621
965.00,0.4612
964.00,0.4599
963.00,0.4585
962.00,0.4568
961.00,0.4550
960.00,0.4531
959.00,0.4515
958.00,0.4503
957.00,0.4495
956.00,0.4488
955.00,0.4481
954.00,0.4470
953.00,0.4454
952.00,0.4437
951.00,0.4420
950.00,0.4407
949.00,0.4400
948.00,0.4400
947.00,0.4404
946.00,0.4413
945.00,0.4424
944.00,0.4440
943.00,0.4458
942.00,0.4478
941.00,0.4497
940.00,0.4513
939.00,0.4522
938.00,0.4523
937.00,0.4517
936.00,0.4505
935.00,0.4488
934.00,0.4465
933.00,0.4439
932.00,0.4413
931.00,0.4389
930.00,0.4371
929.00,0.4359
928.00,0.4356
927.00,0.4365
926.00,0.4389
925.00,0.4432
924.00,0.4490
923.00,0.4558
922.00,0.4622
921.00,0.4661
920.00,0.4660
919.00,0.4614
918.00,0.4535
917.00,0.4437
916.00,0.4340
915.00,0.4254
914.00,0.4184
913.00,0.4129
912.00,0.4087
911.00,0.4054
910.00,0.4029
909.00,0.4008
908.00,0.3992
907.00,0.3981
906.00,0.3975
905.00,0.3973
904.00,0.3976
903.00,0.3983
902.00,0.3997
901.00,0.4017
900.00,0.4043
899.00,0.4075
898.00,0.4109
897.00,0.4145
896.00,0.4182
895.00,0.4222
894.00,0.4265
893.00,0.4308
892.00,0.4352
891.00,0.4393
890.00,0.4429
889.00,0.4451
888.00,0.4456
887.00,0.4445
886.00,0.4426
885.00,0.4404
884.00,0.4388
883.00,0.4382
882.00,0.4387
881.00,0.4403
880.00,0.4423
879.00,0.4443
878.00,0.4457
877.00,0.4460
876.00,0.4457
875.00,0.4452
874.00,0.4449
873.00,0.4449
872.00,0.4454
871.00,0.4464
870.00,0.4479
869.00,0.4498
868.00,0.4522
867.00,0.4554
866.00,0.4596
865.00,0.4645
864.00,0.4695
863.00,0.4735
862.00,0.4749
861.00,0.4726
860.00,0.4665
859.00,0.4582
858.00,0.4497
857.00,0.4423
856.00,0.4366
855.00,0.4325
854.00,0.4296
853.00,0.4276
852.00,0.4258
851.00,0.4242
850.00,0.4224
849.00,0.4202
848.00,0.4177
847.00,0.4151
846.00,0.4125
845.00,0.4100
844.00,0.4078
843.00,0.4062
842.00,0.4060
841.00,0.4077
840.00,0.4117
839.00,0.4183
838.00,0.4265
837.00,0.4346
836.00,0.4403
835.00,0.4418
834.00,0.4388
833.00,0.4330
832.00,0.4270
831.00,0.4229
830.00,0.4214
829.00,0.4224
828.00,0.4251
827.00,0.4292
826.00,0.4343
825.00,0.4401
824.00,0.4463
823.00,0.4529
822.00,0.4598
821.00,0.4667
820.00,0.4736
819.00,0.4801
818.00,0.4857
817.00,0.4900
816.00,0.4924
815.00,0.4929
814.00,0.4915
813.00,0.4880
812.00,0.4827
811.00,0.4765
810.00,0.4699
809.00,0.4636
808.00,0.4579
807.00,0.4529
806.00,0.4484
805.00,0.4439
804.00,0.4388
803.00,0.4330
802.00,0.4268
801.00,0.4208
800.00,0.4156
799.00,0.4117
798.00,0.4090
797.00,0.4072
796.00,0.4061
795.00,0.4058
794.00,0.4061
793.00,0.4070
792.00,0.4083
791.00,0.4101
790.00,0.4126
789.00,0.4155
788.00,0.4187
787.00,0.4223
786.00,0.4264
785.00,0.4311
784.00,0.4359
783.00,0.4404
782.00,0.4442
781.00,0.4471
780.00,0.4491
779.00,0.4508
778.00,0.4524
777.00,0.4540
776.00,0.4558
775.00,0.4579
774.00,0.4604
773.00,0.4633
772.00,0.4664
771.00,0.4697
770.00,0.4730
769.00,0.4763
768.00,0.4795
767.00,0.4825
766.00,0.4851
765.00,0.4870
764.00,0.4887
763.00,0.4908
762.00,0.4940
761.00,0.4982
760.00,0.5029
759.00,0.5076
758.00,0.5116
757.00,0.5147
756.00,0.5170
755.00,0.5190
754.00,0.5216
753.00,0.5252
752.00,0.5298
751.00,0.5352
750.00,0.5409
749.00,0.5464
748.00,0.5514
747.00,0.5559
746.00,0.5604
745.00,0.5652
744.00,0.5706
743.00,0.5764
742.00,0.5823
741.00,0.5880
740.00,0.5929
739.00,0.5971
738.00,0.6008
737.00,0.6042
736.00,0.6074
735.00,0.6113
734.00,0.6163
733.00,0.6226
732.00,0.6303
731.00,0.6400
730.00,0.6526
729.00,0.6687
728.00,0.6888
727.00,0.7131
726.00,0.7420
725.00,0.7748
724.00,0.8086
723.00,0.8372
722.00,0.8514
721.00,0.8426
720.00,0.8100
719.00,0.7624
718.00,0.7113
717.00,0.6646
716.00,0.6255
715.00,0.5944
714.00,0.5700
713.00,0.5509
712.00,0.5356
711.00,0.5232
710.00,0.5133
709.00,0.5052
708.00,0.4984
707.00,0.4929
706.00,0.4882
705.00,0.4839
704.00,0.4800
703.00,0.4768
702.00,0.4748
701.00,0.4734
700.00,0.4710
699.00,0.4652
698.00,0.4544
697.00,0.4391
696.00,0.4219
695.00,0.4059
694.00,0.3930
693.00,0.3833
692.00,0.3761
691.00,0.3709
690.00,0.3673
689.00,0.3646
688.00,0.3623
687.00,0.3602
686.00,0.3583
685.00,0.3568
684.00,0.3557
683.00,0.3551
682.00,0.3548
681.00,0.3545
680.00,0.3543
679.00,0.3542
678.00,0.3544
677.00,0.3549
676.00,0.3554
675.00,0.3559
674.00,0.3564
673.00,0.3569
672.00,0.3573
671.00,0.3573
670.00,0.3573
669.00,0.3575
668.00,0.3579
667.00,0.3585
666.00,0.3596
665.00,0.3605
664.00,0.3611
663.00,0.3616
662.00,0.3623
661.00,0.3634
660.00,0.3644
659.00,0.3653
658.00,0.3659
657.00,0.3665
656.00,0.3671
655.00,0.3680
654.00,0.3691
653.00,0.3700
652.00,0.3706
651.00,0.3712
650.00,0.3718
649.00,0.3725
648.00,0.3733
647.00,0.3743
646.00,0.3755
645.00,0.3769
644.00,0.3785
643.00,0.3803
642.00,0.3821
641.00,0.3836
640.00,0.3847
639.00,0.3856
638.00,0.3863
637.00,0.3872
636.00,0.3882
635.00,0.3892
634.00,0.3898
633.00,0.3903
632.00,0.3910
631.00,0.3922
630.00,0.3935
629.00,0.3946
628.00,0.3956
627.00,0.3970
626.00,0.3991
625.00,0.4018
624.00,0.4045
623.00,0.4070
622.00,0.4092
621.00,0.4111
620.00,0.4128
619.00,0.4140
618.00,0.4147
617.00,0.4150
616.00,0.4151
615.00,0.4151
614.00,0.4149
613.00,0.4141
612.00,0.4128
611.00,0.4112
610.00,0.4094
609.00,0.4076
608.00,0.4062
607.00,0.4054
606.00,0.4051
605.00,0.4052
604.00,0.4054
603.00,0.4056
602.00,0.4061
601.00,0.4068
600.00,0.4077
599.00,0.4085
598.00,0.4094
597.00,0.4106
596.00,0.4124
595.00,0.4148
594.00,0.4175
593.00,0.4203
592.00,0.4232
591.00,0.4259
590.00,0.4283
589.00,0.4304
588.00,0.4324
587.00,0.4346
586.00,0.4369
585.00,0.4391
584.00,0.4414
583.00,0.4439
582.00,0.4466
581.00,0.4490
580.00,0.4513
579.00,0.4537
578.00,0.4560
577.00,0.4582
576.00,0.4602
575.00,0.4620
574.00,0.4639
573.00,0.4659
572.00,0.4679
571.00,0.4700
570.00,0.4720
569.00,0.4739
568.00,0.4757
567.00,0.4776
566.00,0.4794
565.00,0.4809
564.00,0.4821
563.00,0.4834
562.00,0.4850
561.00,0.4871
560.00,0.4894
559.00,0.4919
558.00,0.4942
557.00,0.4961
556.00,0.4972
555.00,0.4979
554.00,0.4987
553.00,0.4998
552.00,0.5012
551.00,0.5031
550.00,0.5051
