Created as New Dataset,
cm-1,A
4000.00,0.3507
3999.00,0.3505
3998.00,0.3503
3997.00,0.3500
3996.00,0.3497
3995.00,0.3493
3994.00,0.3490
3993.00,0.3486
3992.00,0.3482
3991.00,0.3478
3990.00,0.3473
3989.00,0.3469
3988.00,0.3465
3987.00,0.3461
3986.00,0.3457
3985.00,0.3453
3984.00,0.3448
3983.00,0.3444
3982.00,0.3439
3981.00,0.3435
3980.00,0.3431
3979.00,0.3427
3978.00,0.3423
3977.00,0.3420
3976.00,0.3417
3975.00,0.3414
3974.00,0.3411
3973.00,0.3409
3972.00,0.3406
3971.00,0.3405
3970.00,0.3403
3969.00,0.3401
3968.00,0.3399
3967.00,0.3397
3966.00,0.3394
3965.00,0.3392
3964.00,0.3390
3963.00,0.3388
3962.00,0.3385
3961.00,0.3383
3960.00,0.3380
3959.00,0.3378
3958.00,0.3376
3957.00,0.3373
3956.00,0.3370
3955.00,0.3368
3954.00,0.3366
3953.00,0.3364
3952.00,0.3363
3951.00,0.3360
3950.00,0.3358
3949.00,0.3356
3948.00,0.3354
3947.00,0.3351
3946.00,0.3349
3945.00,0.3347
3944.00,0.3346
3943.00,0.3344
3942.00,0.3343
3941.00,0.3342
3940.00,0.3341
3939.00,0.3340
3938.00,0.3340
3937.00,0.3339
3936.00,0.3339
3935.00,0.3338
3934.00,0.3339
3933.00,0.3339
3932.00,0.3339
3931.00,0.3339
3930.00,0.3338
3929.00,0.3337
3928.00,0.3337
3927.00,0.3337
3926.00,0.3337
3925.00,0.3337
3924.00,0.3337
3923.00,0.3337
3922.00,0.3337
3921.00,0.3337
3920.00,0.3336
3919.00,0.3336
3918.00,0.3335
3917.00,0.3335
3916.00,0.3334
3915.00,0.3333
3914.00,0.3332
3913.00,0.3331
3912.00,0.3330
3911.00,0.3329
3910.00,0.3327
3909.00,0.3325
3908.00,0.3323
3907.00,0.3322
3906.00,0.3322
3905.00,0.3321
3904.00,0.3321
3903.00,0.3321
3902.00,0.3321
3901.00,0.3322
3900.00,0.3323
3899.00,0.3323
3898.00,0.3323
3897.00,0.3323
3896.00,0.3322
3895.00,0.3321
3894.00,0.3320
3893.00,0.3318
3892.00,0.3317
3891.00,0.3315
3890.00,0.3313
3889.00,0.3311
3888.00,0.3310
3887.00,0.3310
3886.00,0.3310
3885.00,0.3308
3884.00,0.3306
3883.00,0.3305
3882.00,0.3305
3881.00,0.3304
3880.00,0.3304
3879.00,0.3302
3878.00,0.3301
3877.00,0.3300
3876.00,0.3300
3875.00,0.3300
3874.00,0.3299
3873.00,0.3297
3872.00,0.3295
3871.00,0.3295
3870.00,0.3294
3869.00,0.3292
3868.00,0.3290
3867.00,0.3289
3866.00,0.3288
3865.00,0.3288
3864.00,0.3287
3863.00,0.3286
3862.00,0.3285
3861.00,0.3284
3860.00,0.3283
3859.00,0.3281
3858.00,0.3278
3857.00,0.3274
3856.00,0.3271
3855.00,0.3270
3854.00,0.3270
3853.00,0.3269
3852.00,0.3268
3851.00,0.3268
3850.00,0.3269
3849.00,0.3270
3848.00,0.3271
3847.00,0.3271
3846.00,0.3270
3845.00,0.3269
3844.00,0.3267
3843.00,0.3266
3842.00,0.3264
3841.00,0.3262
3840.00,0.3261
3839.00,0.3261
3838.00,0.3261
3837.00,0.3260
3836.00,0.3260
3835.00,0.3260
3834.00,0.3261
3833.00,0.3261
3832.00,0.3261
3831.00,0.3260
3830.00,0.3259
3829.00,0.3258
3828.00,0.3257
3827.00,0.3256
3826.00,0.3254
3825.00,0.3252
3824.00,0.3250
3823.00,0.3249
3822.00,0.3249
3821.00,0.3248
3820.00,0.3245
3819.00,0.3242
3818.00,0.3241
3817.00,0.3241
3816.00,0.3241
3815.00,0.3238
3814.00,0.3235
3813.00,0.3233
3812.00,0.3232
3811.00,0.3230
3810.00,0.3228
3809.00,0.3226
3808.00,0.3224
3807.00,0.3222
3806.00,0.3219
3805.00,0.3217
3804.00,0.3216
3803.00,0.3216
3802.00,0.3216
3801.00,0.3215
3800.00,0.3213
3799.00,0.3212
3798.00,0.3213
3797.00,0.3213
3796.00,0.3213
3795.00,0.3212
3794.00,0.3210
3793.00,0.3208
3792.00,0.3206
3791.00,0.3203
3790.00,0.3201
3789.00,0.3198
3788.00,0.3196
3787.00,0.3195
3786.00,0.3193
3785.00,0.3192
3784.00,0.3189
3783.00,0.3187
3782.00,0.3185
3781.00,0.3183
3780.00,0.3181
3779.00,0.3180
3778.00,0.3178
3777.00,0.3177
3776.00,0.3176
3775.00,0.3175
3774.00,0.3173
3773.00,0.3171
3772.00,0.3169
3771.00,0.3168
3770.00,0.3167
3769.00,0.3166
3768.00,0.3165
3767.00,0.3164
3766.00,0.3164
3765.00,0.3163
3764.00,0.3162
3763.00,0.3160
3762.00,0.3159
3761.00,0.3158
3760.00,0.3157
3759.00,0.3156
3758.00,0.3154
3757.00,0.3151
3756.00,0.3149
3755.00,0.3146
3754.00,0.3144
3753.00,0.3142
3752.00,0.3139
3751.00,0.3137
3750.00,0.3135
3749.00,0.3133
3748.00,0.3131
3747.00,0.3130
3746.00,0.3130
3745.00,0.3131
3744.00,0.3130
3743.00,0.3129
3742.00,0.3127
3741.00,0.3126
3740.00,0.3126
3739.00,0.3124
3738.00,0.3123
3737.00,0.3123
3736.00,0.3123
3735.00,0.3122
3734.00,0.3122
3733.00,0.3122
3732.00,0.3122
3731.00,0.3122
3730.00,0.3121
3729.00,0.3120
3728.00,0.3119
3727.00,0.3119
3726.00,0.3117
3725.00,0.3115
3724.00,0.3113
3723.00,0.3112
3722.00,0.3111
3721.00,0.3110
3720.00,0.3109
3719.00,0.3107
3718.00,0.3106
3717.00,0.3103
3716.00,0.3100
3715.00,0.3098
3714.00,0.3096
3713.00,0.3095
3712.00,0.3094
3711.00,0.3094
3710.00,0.3094
3709.00,0.3094
3708.00,0.3095
3707.00,0.3096
3706.00,0.3096
3705.00,0.3096
3704.00,0.3097
3703.00,0.3097
3702.00,0.3098
3701.00,0.3098
3700.00,0.3098
3699.00,0.3099
3698.00,0.3100
3697.00,0.3101
3696.00,0.3101
3695.00,0.3101
3694.00,0.3100
3693.00,0.3099
3692.00,0.3098
3691.00,0.3099
3690.00,0.3100
3689.00,0.3101
3688.00,0.3102
3687.00,0.3103
3686.00,0.3103
3685.00,0.3104
3684.00,0.3104
3683.00,0.3104
3682.00,0.3102
3681.00,0.3101
3680.00,0.3098
3679.00,0.3095
3678.00,0.3093
3677.00,0.3092
3676.00,0.3093
3675.00,0.3093
3674.00,0.3092
3673.00,0.3092
3672.00,0.3093
3671.00,0.3096
3670.00,0.3098
3669.00,0.3100
3668.00,0.3103
3667.00,0.3107
3666.00,0.3111
3665.00,0.3117
3664.00,0.3122
3663.00,0.3128
3662.00,0.3136
3661.00,0.3145
3660.00,0.3155
3659.00,0.3168
3658.00,0.3184
3657.00,0.3206
3656.00,0.3230
3655.00,0.3254
3654.00,0.3276
3653.00,0.3297
3652.00,0.3317
3651.00,0.3333
3650.00,0.3345
3649.00,0.3348
3648.00,0.3344
3647.00,0.3334
3646.00,0.3320
3645.00,0.3305
3644.00,0.3289
3643.00,0.3272
3642.00,0.3256
3641.00,0.3241
3640.00,0.3228
3639.00,0.3217
3638.00,0.3207
3637.00,0.3200
3636.00,0.3193
3635.00,0.3187
3634.00,0.3182
3633.00,0.3177
3632.00,0.3172
3631.00,0.3170
3630.00,0.3169
3629.00,0.3169
3628.00,0.3169
3627.00,0.3170
3626.00,0.3172
3625.00,0.3174
3624.00,0.3175
3623.00,0.3174
3622.00,0.3172
3621.00,0.3168
3620.00,0.3164
3619.00,0.3159
3618.00,0.3155
3617.00,0.3151
3616.00,0.3149
3615.00,0.3147
3614.00,0.3144
3613.00,0.3142
3612.00,0.3139
3611.00,0.3138
3610.00,0.3138
3609.00,0.3138
3608.00,0.3138
3607.00,0.3137
3606.00,0.3134
3605.00,0.3132
3604.00,0.3128
3603.00,0.3123
3602.00,0.3116
3601.00,0.3109
3600.00,0.3100
3599.00,0.3091
3598.00,0.3082
3597.00,0.3073
3596.00,0.3065
3595.00,0.3057
3594.00,0.3050
3593.00,0.3043
3592.00,0.3036
3591.00,0.3030
3590.00,0.3025
3589.00,0.3021
3588.00,0.3019
3587.00,0.3016
3586.00,0.3014
3585.00,0.3011
3584.00,0.3010
3583.00,0.3008
3582.00,0.3006
3581.00,0.3004
3580.00,0.3001
3579.00,0.2999
3578.00,0.2998
3577.00,0.2996
3576.00,0.2995
3575.00,0.2993
3574.00,0.2992
3573.00,0.2991
3572.00,0.2990
3571.00,0.2989
3570.00,0.2988
3569.00,0.2988
3568.00,0.2989
3567.00,0.2989
3566.00,0.2988
3565.00,0.2989
3564.00,0.2989
3563.00,0.2990
3562.00,0.2990
3561.00,0.2990
3560.00,0.2990
3559.00,0.2990
3558.00,0.2991
3557.00,0.2992
3556.00,0.2993
3555.00,0.2995
3554.00,0.2997
3553.00,0.3000
3552.00,0.3001
3551.00,0.3003
3550.00,0.3005
3549.00,0.3006
3548.00,0.3009
3547.00,0.3012
3546.00,0.3014
3545.00,0.3017
3544.00,0.3019
3543.00,0.3022
3542.00,0.3024
3541.00,0.3026
3540.00,0.3028
3539.00,0.3029
3538.00,0.3031
3537.00,0.3032
3536.00,0.3034
3535.00,0.3036
3534.00,0.3038
3533.00,0.3040
3532.00,0.3043
3531.00,0.3045
3530.00,0.3047
3529.00,0.3050
3528.00,0.3052
3527.00,0.3055
3526.00,0.3058
3525.00,0.3061
3524.00,0.3064
3523.00,0.3068
3522.00,0.3071
3521.00,0.3075
3520.00,0.3078
3519.00,0.3081
3518.00,0.3084
3517.00,0.3088
3516.00,0.3093
3515.00,0.3097
3514.00,0.3101
3513.00,0.3105
3512.00,0.3108
3511.00,0.3112
3510.00,0.3116
3509.00,0.3120
3508.00,0.3124
3507.00,0.3128
3506.00,0.3132
3505.00,0.3136
3504.00,0.3141
3503.00,0.3145
3502.00,0.3149
3501.00,0.3154
3500.00,0.3159
3499.00,0.3164
3498.00,0.3169
3497.00,0.3174
3496.00,0.3180
3495.00,0.3186
3494.00,0.3191
3493.00,0.3197
3492.00,0.3204
3491.00,0.3211
3490.00,0.3217
3489.00,0.3224
3488.00,0.3230
3487.00,0.3236
3486.00,0.3242
3485.00,0.3248
3484.00,0.3254
3483.00,0.3260
3482.00,0.3266
3481.00,0.3271
3480.00,0.3276
3479.00,0.3282
3478.00,0.3287
3477.00,0.3292
3476.00,0.3296
3475.00,0.3301
3474.00,0.3306
3473.00,0.3311
3472.00,0.3317
3471.00,0.3323
3470.00,0.3329
3469.00,0.3334
3468.00,0.3340
3467.00,0.3346
3466.00,0.3352
3465.00,0.3357
3464.00,0.3363
3463.00,0.3370
3462.00,0.3377
3461.00,0.3384
3460.00,0.3392
3459.00,0.3399
3458.00,0.3407
3457.00,0.3414
3456.00,0.3422
3455.00,0.3430
3454.00,0.3438
3453.00,0.3447
3452.00,0.3457
3451.00,0.3466
3450.00,0.3476
3449.00,0.3486
3448.00,0.3497
3447.00,0.3509
3446.00,0.3522
3445.00,0.3535
3444.00,0.3548
3443.00,0.3561
3442.00,0.3575
3441.00,0.3588
3440.00,0.3601
3439.00,0.3614
3438.00,0.3626
3437.00,0.3637
3436.00,0.3647
3435.00,0.3655
3434.00,0.3663
3433.00,0.3669
3432.00,0.3675
3431.00,0.3682
3430.00,0.3689
3429.00,0.3696
3428.00,0.3704
3427.00,0.3712
3426.00,0.3719
3425.00,0.3726
3424.00,0.3734
3423.00,0.3742
3422.00,0.3751
3421.00,0.3759
3420.00,0.3768
3419.00,0.3776
3418.00,0.3785
3417.00,0.3794
3416.00,0.3804
3415.00,0.3813
3414.00,0.3823
3413.00,0.3834
3412.00,0.3845
3411.00,0.3856
3410.00,0.3867
3409.00,0.3878
3408.00,0.3890
3407.00,0.3901
3406.00,0.3913
3405.00,0.3925
3404.00,0.3937
3403.00,0.3950
3402.00,0.3962
3401.00,0.3974
3400.00,0.3986
3399.00,0.3998
3398.00,0.4010
3397.00,0.4022
3396.00,0.4035
3395.00,0.4049
3394.00,0.4062
3393.00,0.4075
3392.00,0.4088
3391.00,0.4101
3390.00,0.4114
3389.00,0.4127
3388.00,0.4139
3387.00,0.4152
3386.00,0.4165
3385.00,0.4179
3384.00,0.4192
3383.00,0.4206
3382.00,0.4220
3381.00,0.4234
3380.00,0.4249
3379.00,0.4264
3378.00,0.4279
3377.00,0.4295
3376.00,0.4310
3375.00,0.4326
3374.00,0.4342
3373.00,0.4358
3372.00,0.4376
3371.00,0.4393
3370.00,0.4411
3369.00,0.4429
3368.00,0.4447
3367.00,0.4465
3366.00,0.4483
3365.00,0.4501
3364.00,0.4519
3363.00,0.4538
3362.00,0.4557
3361.00,0.4577
3360.00,0.4596
3359.00,0.4615
3358.00,0.4634
3357.00,0.4654
3356.00,0.4673
3355.00,0.4693
3354.00,0.4712
3353.00,0.4731
3352.00,0.4750
3351.00,0.4769
3350.00,0.4787
3349.00,0.4804
3348.00,0.4821
3347.00,0.4837
3346.00,0.4853
3345.00,0.4869
3344.00,0.4884
3343.00,0.4899
3342.00,0.4912
3341.00,0.4925
3340.00,0.4937
3339.00,0.4948
3338.00,0.4959
3337.00,0.4968
3336.00,0.4976
3335.00,0.4983
3334.00,0.4989
3333.00,0.4993
3332.00,0.4997
3331.00,0.5000
3330.00,0.5002
3329.00,0.5004
3328.00,0.5004
3327.00,0.5003
3326.00,0.5002
3325.00,0.5000
3324.00,0.4997
3323.00,0.4993
3322.00,0.4987
3321.00,0.4982
3320.00,0.4975
3319.00,0.4969
3318.00,0.4962
3317.00,0.4955
3316.00,0.4947
3315.00,0.4938
3314.00,0.4929
3313.00,0.4919
3312.00,0.4910
3311.00,0.4901
3310.00,0.4891
3309.00,0.4882
3308.00,0.4872
3307.00,0.4863
3306.00,0.4853
3305.00,0.4843
3304.00,0.4833
3303.00,0.4824
3302.00,0.4815
3301.00,0.4807
3300.00,0.4799
3299.00,0.4792
3298.00,0.4785
3297.00,0.4779
3296.00,0.4773
3295.00,0.4767
3294.00,0.4760
3293.00,0.4754
3292.00,0.4748
3291.00,0.4744
3290.00,0.4741
3289.00,0.4739
3288.00,0.4737
3287.00,0.4735
3286.00,0.4733
3285.00,0.4731
3284.00,0.4731
3283.00,0.4731
3282.00,0.4731
3281.00,0.4732
3280.00,0.4733
3279.00,0.4733
3278.00,0.4734
3277.00,0.4736
3276.00,0.4738
3275.00,0.4740
3274.00,0.4743
3273.00,0.4746
3272.00,0.4749
3271.00,0.4753
3270.00,0.4756
3269.00,0.4760
3268.00,0.4763
3267.00,0.4767
3266.00,0.4771
3265.00,0.4775
3264.00,0.4778
3263.00,0.4782
3262.00,0.4786
3261.00,0.4790
3260.00,0.4795
3259.00,0.4799
3258.00,0.4804
3257.00,0.4808
3256.00,0.4813
3255.00,0.4817
3254.00,0.4821
3253.00,0.4825
3252.00,0.4828
3251.00,0.4831
3250.00,0.4833
3249.00,0.4835
3248.00,0.4837
3247.00,0.4839
3246.00,0.4839
3245.00,0.4840
3244.00,0.4840
3243.00,0.4840
3242.00,0.4839
3241.00,0.4839
3240.00,0.4838
3239.00,0.4837
3238.00,0.4835
3237.00,0.4834
3236.00,0.4833
3235.00,0.4831
3234.00,0.4829
3233.00,0.4825
3232.00,0.4822
3231.00,0.4818
3230.00,0.4814
3229.00,0.4811
3228.00,0.4807
3227.00,0.4804
3226.00,0.4800
3225.00,0.4796
3224.00,0.4792
3223.00,0.4787
3222.00,0.4781
3221.00,0.4776
3220.00,0.4771
3219.00,0.4766
3218.00,0.4761
3217.00,0.4755
3216.00,0.4750
3215.00,0.4745
3214.00,0.4740
3213.00,0.4734
3212.00,0.4728
3211.00,0.4722
3210.00,0.4718
3209.00,0.4713
3208.00,0.4708
3207.00,0.4703
3206.00,0.4698
3205.00,0.4693
3204.00,0.4688
3203.00,0.4682
3202.00,0.4676
3201.00,0.4670
3200.00,0.4664
3199.00,0.4659
3198.00,0.4653
3197.00,0.4647
3196.00,0.4641
3195.00,0.4635
3194.00,0.4629
3193.00,0.4624
3192.00,0.4618
3191.00,0.4612
3190.00,0.4606
3189.00,0.4599
3188.00,0.4592
3187.00,0.4585
3186.00,0.4578
3185.00,0.4572
3184.00,0.4565
3183.00,0.4558
3182.00,0.4550
3181.00,0.4541
3180.00,0.4532
3179.00,0.4524
3178.00,0.4515
3177.00,0.4507
3176.00,0.4499
3175.00,0.4490
3174.00,0.4481
3173.00,0.4473
3172.00,0.4465
3171.00,0.4456
3170.00,0.4448
3169.00,0.4439
3168.00,0.4431
3167.00,0.4422
3166.00,0.4414
3165.00,0.4405
3164.00,0.4397
3163.00,0.4389
3162.00,0.4381
3161.00,0.4373
3160.00,0.4365
3159.00,0.4357
3158.00,0.4349
3157.00,0.4341
3156.00,0.4333
3155.00,0.4326
3154.00,0.4318
3153.00,0.4311
3152.00,0.4304
3151.00,0.4297
3150.00,0.4290
3149.00,0.4284
3148.00,0.4278
3147.00,0.4273
3146.00,0.4267
3145.00,0.4261
3144.00,0.4255
3143.00,0.4249
3142.00,0.4244
3141.00,0.4239
3140.00,0.4234
3139.00,0.4230
3138.00,0.4225
3137.00,0.4221
3136.00,0.4217
3135.00,0.4213
3134.00,0.4209
3133.00,0.4205
3132.00,0.4202
3131.00,0.4199
3130.00,0.4197
3129.00,0.4196
3128.00,0.4195
3127.00,0.4194
3126.00,0.4193
3125.00,0.4193
3124.00,0.4193
3123.00,0.4193
3122.00,0.4194
3121.00,0.4195
3120.00,0.4196
3119.00,0.4198
3118.00,0.4200
3117.00,0.4203
3116.00,0.4205
3115.00,0.4208
3114.00,0.4212
3113.00,0.4216
3112.00,0.4221
3111.00,0.4226
3110.00,0.4232
3109.00,0.4239
3108.00,0.4247
3107.00,0.4255
3106.00,0.4264
3105.00,0.4274
3104.00,0.4284
3103.00,0.4294
3102.00,0.4304
3101.00,0.4314
3100.00,0.4324
3099.00,0.4334
3098.00,0.4344
3097.00,0.4355
3096.00,0.4366
3095.00,0.4377
3094.00,0.4389
3093.00,0.4402
3092.00,0.4417
3091.00,0.4433
3090.00,0.4450
3089.00,0.4469
3088.00,0.4488
3087.00,0.4508
3086.00,0.4529
3085.00,0.4551
3084.00,0.4574
3083.00,0.4598
3082.00,0.4624
3081.00,0.4651
3080.00,0.4681
3079.00,0.4712
3078.00,0.4744
3077.00,0.4778
3076.00,0.4812
3075.00,0.4847
3074.00,0.4884
3073.00,0.4920
3072.00,0.4958
3071.00,0.4996
3070.00,0.5034
3069.00,0.5073
3068.00,0.5111
3067.00,0.5150
3066.00,0.5187
3065.00,0.5224
3064.00,0.5260
3063.00,0.5295
3062.00,0.5330
3061.00,0.5363
3060.00,0.5395
3059.00,0.5426
3058.00,0.5456
3057.00,0.5486
3056.00,0.5517
3055.00,0.5548
3054.00,0.5579
3053.00,0.5610
3052.00,0.5642
3051.00,0.5676
3050.00,0.5712
3049.00,0.5750
3048.00,0.5789
3047.00,0.5830
3046.00,0.5872
3045.00,0.5915
3044.00,0.5957
3043.00,0.6000
3042.00,0.6042
3041.00,0.6086
3040.00,0.6131
3039.00,0.6178
3038.00,0.6227
3037.00,0.6280
3036.00,0.6335
3035.00,0.6392
3034.00,0.6452
3033.00,0.6515
3032.00,0.6582
3031.00,0.6651
3030.00,0.6722
3029.00,0.6795
3028.00,0.6870
3027.00,0.6948
3026.00,0.7029
3025.00,0.7111
3024.00,0.7197
3023.00,0.7286
3022.00,0.7379
3021.00,0.7475
3020.00,0.7574
3019.00,0.7675
3018.00,0.7777
3017.00,0.7882
3016.00,0.7989
3015.00,0.8099
3014.00,0.8215
3013.00,0.8335
3012.00,0.8460
3011.00,0.8593
3010.00,0.8733
3009.00,0.8883
3008.00,0.9042
3007.00,0.9208
3006.00,0.9381
3005.00,0.9561
3004.00,0.9748
3003.00,0.9941
3002.00,1.0141
3001.00,1.0349
3000.00,1.0567
2999.00,1.0798
2998.00,1.1045
2997.00,1.1313
2996.00,1.1603
2995.00,1.1920
2994.00,1.2268
2993.00,1.2649
2992.00,1.3067
2991.00,1.3528
2990.00,1.4039
2989.00,1.4602
2988.00,1.5218
2987.00,1.5891
2986.00,1.6631
2985.00,1.7455
2984.00,1.8379
2983.00,1.9418
2982.00,2.0577
2981.00,2.1843
2980.00,2.3199
2979.00,2.4641
2978.00,2.6185
2977.00,2.7831
2976.00,2.9564
2975.00,3.1404
2974.00,3.3414
2973.00,3.5445
2972.00,3.6900
2971.00,3.7677
2970.00,3.8656
2969.00,3.9491
2968.00,3.8752
2967.00,3.7714
2966.00,3.7408
2965.00,3.7514
2964.00,3.7191
2963.00,3.6676
2962.00,3.6601
2961.00,3.7040
2960.00,3.8272
2959.00,4.0848
2958.00,4.4901
2957.00,4.6193
2956.00,4.3647
2955.00,4.2250
2954.00,4.1873
2953.00,4.1616
2952.00,4.1526
2951.00,4.1420
2950.00,4.0507
2949.00,3.9079
2948.00,3.7821
2947.00,3.7013
2946.00,3.6753
2945.00,3.7301
2944.00,3.9174
2943.00,4.1433
2942.00,4.0648
2941.00,3.8781
2940.00,3.8168
2939.00,3.9267
2938.00,4.0684
2937.00,4.0757
2936.00,4.0356
2935.00,3.9425
2934.00,3.8815
2933.00,3.8239
2932.00,3.9531
2931.00,4.3364
2930.00,4.1630
2929.00,3.9179
2928.00,3.8438
2927.00,4.0958
2926.00,4.4555
2925.00,4.3474
2924.00,4.2280
2923.00,4.0948
2922.00,4.0502
2921.00,4.0833
2920.00,4.1421
2919.00,4.1036
2918.00,4.0177
2917.00,4.0488
2916.00,4.3077
2915.00,4.3778
2914.00,4.0540
2913.00,3.8350
2912.00,3.8108
2911.00,3.9571
2910.00,4.1716
2909.00,4.3033
2908.00,4.2725
2907.00,4.2722
2906.00,4.3671
2905.00,4.3687
2904.00,4.2184
2903.00,4.0584
2902.00,3.9458
2901.00,3.9752
2900.00,4.1415
2899.00,4.1996
2898.00,4.1370
2897.00,4.2233
2896.00,4.6570
2895.00,4.7210
2894.00,4.4297
2893.00,4.3625
2892.00,4.3558
2891.00,4.2593
2890.00,4.1483
2889.00,4.0462
2888.00,3.9528
2887.00,3.9467
2886.00,4.0586
2885.00,4.2624
2884.00,4.5020
2883.00,4.6493
2882.00,4.4271
2881.00,4.1345
2880.00,3.9460
2879.00,3.8455
2878.00,3.7797
2877.00,3.7253
2876.00,3.7177
2875.00,3.8072
2874.00,4.0211
2873.00,4.2939
2872.00,4.2827
2871.00,4.0509
2870.00,3.8820
2869.00,3.8120
2868.00,3.8034
2867.00,3.8751
2866.00,4.0678
2865.00,4.1497
2864.00,4.0166
2863.00,3.9835
2862.00,4.1838
2861.00,4.3701
2860.00,4.1965
2859.00,4.0646
2858.00,4.0776
2857.00,4.1431
2856.00,4.1754
2855.00,4.0753
2854.00,3.9263
2853.00,3.8371
2852.00,3.8776
2851.00,4.0732
2850.00,4.4932
2849.00,5.0084
2848.00,4.3000
2847.00,4.0101
2846.00,3.9078
2845.00,3.9416
2844.00,3.9670
2843.00,3.9447
2842.00,3.9279
2841.00,3.8178
2840.00,3.6733
2839.00,3.5445
2838.00,3.3872
2837.00,3.1698
2836.00,2.9395
2835.00,2.7314
2834.00,2.5473
2833.00,2.3832
2832.00,2.2375
2831.00,2.1080
2830.00,1.9926
2829.00,1.8894
2828.00,1.7973
2827.00,1.7147
2826.00,1.6400
2825.00,1.5721
2824.00,1.5104
2823.00,1.4548
2822.00,1.4043
2821.00,1.3582
2820.00,1.3156
2819.00,1.2760
2818.00,1.2392
2817.00,1.2047
2816.00,1.1726
2815.00,1.1425
2814.00,1.1143
2813.00,1.0875
2812.00,1.0620
2811.00,1.0378
2810.00,1.0148
2809.00,0.9930
2808.00,0.9723
2807.00,0.9525
2806.00,0.9334
2805.00,0.9150
2804.00,0.8974
2803.00,0.8808
2802.00,0.8651
2801.00,0.8501
2800.00,0.8356
2799.00,0.8217
2798.00,0.8084
2797.00,0.7955
2796.00,0.7831
2795.00,0.7710
2794.00,0.7593
2793.00,0.7480
2792.00,0.7369
2791.00,0.7262
2790.00,0.7157
2789.00,0.7056
2788.00,0.6957
2787.00,0.6861
2786.00,0.6768
2785.00,0.6676
2784.00,0.6586
2783.00,0.6498
2782.00,0.6412
2781.00,0.6330
2780.00,0.6252
2779.00,0.6176
2778.00,0.6104
2777.00,0.6035
2776.00,0.5970
2775.00,0.5910
2774.00,0.5853
2773.00,0.5800
2772.00,0.5751
2771.00,0.5706
2770.00,0.5666
2769.00,0.5629
2768.00,0.5594
2767.00,0.5563
2766.00,0.5536
2765.00,0.5512
2764.00,0.5492
2763.00,0.5474
2762.00,0.5458
2761.00,0.5444
2760.00,0.5432
2759.00,0.5421
2758.00,0.5410
2757.00,0.5401
2756.00,0.5391
2755.00,0.5383
2754.00,0.5376
2753.00,0.5370
2752.00,0.5366
2751.00,0.5363
2750.00,0.5364
2749.00,0.5367
2748.00,0.5372
2747.00,0.5378
2746.00,0.5386
2745.00,0.5396
2744.00,0.5409
2743.00,0.5425
2742.00,0.5445
2741.00,0.5468
2740.00,0.5494
2739.00,0.5525
2738.00,0.5560
2737.00,0.5599
2736.00,0.5641
2735.00,0.5687
2734.00,0.5736
2733.00,0.5784
2732.00,0.5827
2731.00,0.5862
2730.00,0.5885
2729.00,0.5895
2728.00,0.5893
2727.00,0.5882
2726.00,0.5864
2725.00,0.5841
2724.00,0.5815
2723.00,0.5787
2722.00,0.5759
2721.00,0.5730
2720.00,0.5699
2719.00,0.5667
2718.00,0.5632
2717.00,0.5595
2716.00,0.5556
2715.00,0.5515
2714.00,0.5475
2713.00,0.5435
2712.00,0.5397
2711.00,0.5363
2710.00,0.5332
2709.00,0.5305
2708.00,0.5282
2707.00,0.5262
2706.00,0.5245
2705.00,0.5231
2704.00,0.5218
2703.00,0.5208
2702.00,0.5201
2701.00,0.5198
2700.00,0.5198
2699.00,0.5199
2698.00,0.5203
2697.00,0.5208
2696.00,0.5216
2695.00,0.5225
2694.00,0.5236
2693.00,0.5248
2692.00,0.5261
2691.00,0.5274
2690.00,0.5287
2689.00,0.5299
2688.00,0.5310
2687.00,0.5320
2686.00,0.5329
2685.00,0.5337
2684.00,0.5343
2683.00,0.5347
2682.00,0.5351
2681.00,0.5354
2680.00,0.5356
2679.00,0.5359
2678.00,0.5361
2677.00,0.5364
2676.00,0.5367
2675.00,0.5369
2674.00,0.5371
2673.00,0.5371
2672.00,0.5369
2671.00,0.5365
2670.00,0.5357
2669.00,0.5347
2668.00,0.5334
2667.00,0.5317
2666.00,0.5299
2665.00,0.5278
2664.00,0.5256
2663.00,0.5232
2662.00,0.5208
2661.00,0.5184
2660.00,0.5160
2659.00,0.5136
2658.00,0.5113
2657.00,0.5090
2656.00,0.5068
2655.00,0.5047
2654.00,0.5027
2653.00,0.5008
2652.00,0.4991
2651.00,0.4974
2650.00,0.4958
2649.00,0.4942
2648.00,0.4926
2647.00,0.4911
2646.00,0.4897
2645.00,0.4882
2644.00,0.4869
2643.00,0.4855
2642.00,0.4842
2641.00,0.4830
2640.00,0.4818
2639.00,0.4807
2638.00,0.4796
2637.00,0.4787
2636.00,0.4777
2635.00,0.4768
2634.00,0.4759
2633.00,0.4750
2632.00,0.4740
2631.00,0.4730
2630.00,0.4720
2629.00,0.4711
2628.00,0.4701
2627.00,0.4691
2626.00,0.4680
2625.00,0.4670
2624.00,0.4660
2623.00,0.4650
2622.00,0.4640
2621.00,0.4630
2620.00,0.4619
2619.00,0.4609
2618.00,0.4599
2617.00,0.4588
2616.00,0.4577
2615.00,0.4567
2614.00,0.4557
2613.00,0.4547
2612.00,0.4537
2611.00,0.4528
2610.00,0.4519
2609.00,0.4510
2608.00,0.4500
2607.00,0.4491
2606.00,0.4482
2605.00,0.4472
2604.00,0.4462
2603.00,0.4451
2602.00,0.4440
2601.00,0.4428
2600.00,0.4415
2599.00,0.4402
2598.00,0.4388
2597.00,0.4373
2596.00,0.4358
2595.00,0.4343
2594.00,0.4326
2593.00,0.4310
2592.00,0.4294
2591.00,0.4278
2590.00,0.4261
2589.00,0.4245
2588.00,0.4229
2587.00,0.4212
2586.00,0.4196
2585.00,0.4180
2584.00,0.4163
2583.00,0.4146
2582.00,0.4129
2581.00,0.4113
2580.00,0.4096
2579.00,0.4079
2578.00,0.4063
2577.00,0.4047
2576.00,0.4032
2575.00,0.4016
2574.00,0.4001
2573.00,0.3986
2572.00,0.3972
2571.00,0.3958
2570.00,0.3944
2569.00,0.3931
2568.00,0.3918
2567.00,0.3906
2566.00,0.3893
2565.00,0.3880
2564.00,0.3867
2563.00,0.3853
2562.00,0.3840
2561.00,0.3826
2560.00,0.3812
2559.00,0.3799
2558.00,0.3786
2557.00,0.3774
2556.00,0.3762
2555.00,0.3750
2554.00,0.3738
2553.00,0.3727
2552.00,0.3717
2551.00,0.3707
2550.00,0.3697
2549.00,0.3688
2548.00,0.3679
2547.00,0.3670
2546.00,0.3661
2545.00,0.3653
2544.00,0.3645
2543.00,0.3637
2542.00,0.3629
2541.00,0.3622
2540.00,0.3615
2539.00,0.3609
2538.00,0.3602
2537.00,0.3595
2536.00,0.3589
2535.00,0.3583
2534.00,0.3577
2533.00,0.3570
2532.00,0.3563
2531.00,0.3555
2530.00,0.3546
2529.00,0.3538
2528.00,0.3528
2527.00,0.3518
2526.00,0.3507
2525.00,0.3495
2524.00,0.3483
2523.00,0.3472
2522.00,0.3461
2521.00,0.3451
2520.00,0.3441
2519.00,0.3431
2518.00,0.3422
2517.00,0.3412
2516.00,0.3403
2515.00,0.3394
2514.00,0.3386
2513.00,0.3378
2512.00,0.3370
2511.00,0.3363
2510.00,0.3356
2509.00,0.3350
2508.00,0.3344
2507.00,0.3339
2506.00,0.3334
2505.00,0.3330
2504.00,0.3325
2503.00,0.3322
2502.00,0.3318
2501.00,0.3316
2500.00,0.3314
2499.00,0.3311
2498.00,0.3309
2497.00,0.3306
2496.00,0.3304
2495.00,0.3301
2494.00,0.3298
2493.00,0.3294
2492.00,0.3290
2491.00,0.3285
2490.00,0.3280
2489.00,0.3275
2488.00,0.3270
2487.00,0.3264
2486.00,0.3258
2485.00,0.3252
2484.00,0.3246
2483.00,0.3240
2482.00,0.3235
2481.00,0.3229
2480.00,0.3225
2479.00,0.3220
2478.00,0.3215
2477.00,0.3211
2476.00,0.3206
2475.00,0.3202
2474.00,0.3198
2473.00,0.3194
2472.00,0.3190
2471.00,0.3187
2470.00,0.3184
2469.00,0.3181
2468.00,0.3179
2467.00,0.3176
2466.00,0.3174
2465.00,0.3172
2464.00,0.3169
2463.00,0.3166
2462.00,0.3163
2461.00,0.3161
2460.00,0.3158
2459.00,0.3156
2458.00,0.3155
2457.00,0.3154
2456.00,0.3152
2455.00,0.3150
2454.00,0.3148
2453.00,0.3147
2452.00,0.3146
2451.00,0.3145
2450.00,0.3144
2449.00,0.3143
2448.00,0.3142
2447.00,0.3142
2446.00,0.3143
2445.00,0.3143
2444.00,0.3143
2443.00,0.3144
2442.00,0.3145
2441.00,0.3145
2440.00,0.3146
2439.00,0.3146
2438.00,0.3147
2437.00,0.3148
2436.00,0.3150
2435.00,0.3151
2434.00,0.3152
2433.00,0.3153
2432.00,0.3153
2431.00,0.3154
2430.00,0.3155
2429.00,0.3156
2428.00,0.3158
2427.00,0.3159
2426.00,0.3160
2425.00,0.3162
2424.00,0.3163
2423.00,0.3163
2422.00,0.3164
2421.00,0.3165
2420.00,0.3165
2419.00,0.3166
2418.00,0.3167
2417.00,0.3168
2416.00,0.3169
2415.00,0.3169
2414.00,0.3170
2413.00,0.3171
2412.00,0.3172
2411.00,0.3173
2410.00,0.3174
2409.00,0.3174
2408.00,0.3175
2407.00,0.3175
2406.00,0.3176
2405.00,0.3176
2404.00,0.3177
2403.00,0.3177
2402.00,0.3177
2401.00,0.3177
2400.00,0.3178
2399.00,0.3178
2398.00,0.3178
2397.00,0.3178
2396.00,0.3177
2395.00,0.3177
2394.00,0.3176
2393.00,0.3176
2392.00,0.3176
2391.00,0.3177
2390.00,0.3177
2389.00,0.3178
2388.00,0.3178
2387.00,0.3179
2386.00,0.3180
2385.00,0.3182
2384.00,0.3184
2383.00,0.3187
2382.00,0.3190
2381.00,0.3194
2380.00,0.3197
2379.00,0.3201
2378.00,0.3203
2377.00,0.3206
2376.00,0.3208
2375.00,0.3208
2374.00,0.3208
2373.00,0.3206
2372.00,0.3204
2371.00,0.3202
2370.00,0.3200
2369.00,0.3199
2368.00,0.3199
2367.00,0.3199
2366.00,0.3199
2365.00,0.3200
2364.00,0.3200
2363.00,0.3200
2362.00,0.3199
2361.00,0.3199
2360.00,0.3199
2359.00,0.3199
2358.00,0.3198
2357.00,0.3196
2356.00,0.3195
2355.00,0.3193
2354.00,0.3192
2353.00,0.3193
2352.00,0.3194
2351.00,0.3197
2350.00,0.3199
2349.00,0.3199
2348.00,0.3196
2347.00,0.3190
2346.00,0.3185
2345.00,0.3184
2344.00,0.3183
2343.00,0.3182
2342.00,0.3179
2341.00,0.3177
2340.00,0.3175
2339.00,0.3174
2338.00,0.3174
2337.00,0.3174
2336.00,0.3173
2335.00,0.3171
2334.00,0.3169
2333.00,0.3166
2332.00,0.3162
2331.00,0.3159
2330.00,0.3155
2329.00,0.3152
2328.00,0.3149
2327.00,0.3146
2326.00,0.3143
2325.00,0.3140
2324.00,0.3138
2323.00,0.3135
2322.00,0.3133
2321.00,0.3129
2320.00,0.3126
2319.00,0.3122
2318.00,0.3117
2317.00,0.3114
2316.00,0.3111
2315.00,0.3108
2314.00,0.3106
2313.00,0.3104
2312.00,0.3102
2311.00,0.3099
2310.00,0.3095
2309.00,0.3090
2308.00,0.3086
2307.00,0.3081
2306.00,0.3077
2305.00,0.3074
2304.00,0.3071
2303.00,0.3068
2302.00,0.3065
2301.00,0.3062
2300.00,0.3060
2299.00,0.3057
2298.00,0.3055
2297.00,0.3051
2296.00,0.3048
2295.00,0.3044
2294.00,0.3041
2293.00,0.3037
2292.00,0.3033
2291.00,0.3029
2290.00,0.3025
2289.00,0.3021
2288.00,0.3017
2287.00,0.3012
2286.00,0.3008
2285.00,0.3004
2284.00,0.3000
2283.00,0.2996
2282.00,0.2992
2281.00,0.2988
2280.00,0.2985
2279.00,0.2981
2278.00,0.2978
2277.00,0.2975
2276.00,0.2972
2275.00,0.2969
2274.00,0.2967
2273.00,0.2965
2272.00,0.2963
2271.00,0.2962
2270.00,0.2961
2269.00,0.2960
2268.00,0.2959
2267.00,0.2958
2266.00,0.2957
2265.00,0.2956
2264.00,0.2955
2263.00,0.2953
2262.00,0.2950
2261.00,0.2948
2260.00,0.2945
2259.00,0.2942
2258.00,0.2939
2257.00,0.2935
2256.00,0.2931
2255.00,0.2927
2254.00,0.2923
2253.00,0.2920
2252.00,0.2916
2251.00,0.2914
2250.00,0.2911
2249.00,0.2909
2248.00,0.2906
2247.00,0.2904
2246.00,0.2902
2245.00,0.2900
2244.00,0.2898
2243.00,0.2896
2242.00,0.2895
2241.00,0.2893
2240.00,0.2891
2239.00,0.2889
2238.00,0.2887
2237.00,0.2886
2236.00,0.2885
2235.00,0.2884
2234.00,0.2883
2233.00,0.2883
2232.00,0.2883
2231.00,0.2882
2230.00,0.2880
2229.00,0.2879
2228.00,0.2877
2227.00,0.2875
2226.00,0.2873
2225.00,0.2871
2224.00,0.2869
2223.00,0.2868
2222.00,0.2867
2221.00,0.2866
2220.00,0.2865
2219.00,0.2864
2218.00,0.2862
2217.00,0.2861
2216.00,0.2860
2215.00,0.2859
2214.00,0.2858
2213.00,0.2858
2212.00,0.2858
2211.00,0.2857
2210.00,0.2857
2209.00,0.2857
2208.00,0.2857
2207.00,0.2857
2206.00,0.2858
2205.00,0.2859
2204.00,0.2860
2203.00,0.2861
2202.00,0.2861
2201.00,0.2861
2200.00,0.2862
2199.00,0.2863
2198.00,0.2864
2197.00,0.2864
2196.00,0.2865
2195.00,0.2865
2194.00,0.2866
2193.00,0.2866
2192.00,0.2867
2191.00,0.2868
2190.00,0.2869
2189.00,0.2869
2188.00,0.2870
2187.00,0.2870
2186.00,0.2870
2185.00,0.2869
2184.00,0.2868
2183.00,0.2868
2182.00,0.2867
2181.00,0.2866
2180.00,0.2866
2179.00,0.2865
2178.00,0.2864
2177.00,0.2864
2176.00,0.2864
2175.00,0.2863
2174.00,0.2862
2173.00,0.2861
2172.00,0.2861
2171.00,0.2860
2170.00,0.2860
2169.00,0.2860
2168.00,0.2860
2167.00,0.2860
2166.00,0.2859
2165.00,0.2859
2164.00,0.2858
2163.00,0.2858
2162.00,0.2857
2161.00,0.2857
2160.00,0.2855
2159.00,0.2854
2158.00,0.2852
2157.00,0.2851
2156.00,0.2849
2155.00,0.2848
2154.00,0.2846
2153.00,0.2845
2152.00,0.2843
2151.00,0.2841
2150.00,0.2838
2149.00,0.2836
2148.00,0.2833
2147.00,0.2829
2146.00,0.2824
2145.00,0.2820
2144.00,0.2815
2143.00,0.2809
2142.00,0.2804
2141.00,0.2799
2140.00,0.2794
2139.00,0.2789
2138.00,0.2786
2137.00,0.2783
2136.00,0.2780
2135.00,0.2777
2134.00,0.2774
2133.00,0.2772
2132.00,0.2769
2131.00,0.2767
2130.00,0.2765
2129.00,0.2763
2128.00,0.2761
2127.00,0.2760
2126.00,0.2758
2125.00,0.2756
2124.00,0.2755
2123.00,0.2753
2122.00,0.2752
2121.00,0.2751
2120.00,0.2751
2119.00,0.2750
2118.00,0.2748
2117.00,0.2747
2116.00,0.2746
2115.00,0.2745
2114.00,0.2744
2113.00,0.2743
2112.00,0.2742
2111.00,0.2741
2110.00,0.2739
2109.00,0.2738
2108.00,0.2737
2107.00,0.2737
2106.00,0.2736
2105.00,0.2735
2104.00,0.2735
2103.00,0.2734
2102.00,0.2734
2101.00,0.2733
2100.00,0.2732
2099.00,0.2732
2098.00,0.2731
2097.00,0.2731
2096.00,0.2731
2095.00,0.2731
2094.00,0.2730
2093.00,0.2730
2092.00,0.2730
2091.00,0.2729
2090.00,0.2728
2089.00,0.2727
2088.00,0.2727
2087.00,0.2726
2086.00,0.2726
2085.00,0.2726
2084.00,0.2727
2083.00,0.2727
2082.00,0.2727
2081.00,0.2727
2080.00,0.2727
2079.00,0.2727
2078.00,0.2726
2077.00,0.2727
2076.00,0.2727
2075.00,0.2728
2074.00,0.2728
2073.00,0.2728
2072.00,0.2729
2071.00,0.2730
2070.00,0.2731
2069.00,0.2733
2068.00,0.2735
2067.00,0.2737
2066.00,0.2739
2065.00,0.2740
2064.00,0.2741
2063.00,0.2743
2062.00,0.2744
2061.00,0.2746
2060.00,0.2748
2059.00,0.2749
2058.00,0.2751
2057.00,0.2753
2056.00,0.2754
2055.00,0.2756
2054.00,0.2757
2053.00,0.2758
2052.00,0.2760
2051.00,0.2762
2050.00,0.2765
2049.00,0.2767
2048.00,0.2770
2047.00,0.2773
2046.00,0.2775
2045.00,0.2777
2044.00,0.2780
2043.00,0.2782
2042.00,0.2783
2041.00,0.2785
2040.00,0.2788
2039.00,0.2789
2038.00,0.2791
2037.00,0.2792
2036.00,0.2793
2035.00,0.2794
2034.00,0.2795
2033.00,0.2796
2032.00,0.2797
2031.00,0.2798
2030.00,0.2799
2029.00,0.2800
2028.00,0.2801
2027.00,0.2801
2026.00,0.2801
2025.00,0.2801
2024.00,0.2800
2023.00,0.2798
2022.00,0.2795
2021.00,0.2791
2020.00,0.2786
2019.00,0.2780
2018.00,0.2773
2017.00,0.2765
2016.00,0.2757
2015.00,0.2750
2014.00,0.2742
2013.00,0.2735
2012.00,0.2727
2011.00,0.2720
2010.00,0.2714
2009.00,0.2708
2008.00,0.2702
2007.00,0.2697
2006.00,0.2693
2005.00,0.2689
2004.00,0.2686
2003.00,0.2683
2002.00,0.2680
2001.00,0.2678
2000.00,0.2677
1999.00,0.2675
1998.00,0.2674
1997.00,0.2674
1996.00,0.2673
1995.00,0.2673
1994.00,0.2672
1993.00,0.2670
1992.00,0.2669
1991.00,0.2669
1990.00,0.2668
1989.00,0.2668
1988.00,0.2668
1987.00,0.2667
1986.00,0.2667
1985.00,0.2666
1984.00,0.2666
1983.00,0.2665
1982.00,0.2664
1981.00,0.2664
1980.00,0.2664
1979.00,0.2664
1978.00,0.2663
1977.00,0.2663
1976.00,0.2662
1975.00,0.2661
1974.00,0.2660
1973.00,0.2660
1972.00,0.2660
1971.00,0.2659
1970.00,0.2659
1969.00,0.2659
1968.00,0.2659
1967.00,0.2658
1966.00,0.2659
1965.00,0.2660
1964.00,0.2661
1963.00,0.2662
1962.00,0.2663
1961.00,0.2665
1960.00,0.2667
1959.00,0.2668
1958.00,0.2670
1957.00,0.2672
1956.00,0.2674
1955.00,0.2675
1954.00,0.2677
1953.00,0.2679
1952.00,0.2680
1951.00,0.2681
1950.00,0.2682
1949.00,0.2684
1948.00,0.2685
1947.00,0.2686
1946.00,0.2687
1945.00,0.2688
1944.00,0.2690
1943.00,0.2692
1942.00,0.2695
1941.00,0.2700
1940.00,0.2705
1939.00,0.2709
1938.00,0.2711
1937.00,0.2712
1936.00,0.2714
1935.00,0.2714
1934.00,0.2714
1933.00,0.2714
1932.00,0.2714
1931.00,0.2714
1930.00,0.2713
1929.00,0.2713
1928.00,0.2713
1927.00,0.2712
1926.00,0.2712
1925.00,0.2712
1924.00,0.2712
1923.00,0.2713
1922.00,0.2715
1921.00,0.2719
1920.00,0.2723
1919.00,0.2727
1918.00,0.2730
1917.00,0.2734
1916.00,0.2738
1915.00,0.2741
1914.00,0.2742
1913.00,0.2742
1912.00,0.2742
1911.00,0.2741
1910.00,0.2741
1909.00,0.2741
1908.00,0.2741
1907.00,0.2742
1906.00,0.2743
1905.00,0.2743
1904.00,0.2744
1903.00,0.2743
1902.00,0.2743
1901.00,0.2742
1900.00,0.2742
1899.00,0.2741
1898.00,0.2741
1897.00,0.2740
1896.00,0.2740
1895.00,0.2740
1894.00,0.2741
1893.00,0.2742
1892.00,0.2743
1891.00,0.2743
1890.00,0.2744
1889.00,0.2746
1888.00,0.2749
1887.00,0.2752
1886.00,0.2754
1885.00,0.2756
1884.00,0.2757
1883.00,0.2757
1882.00,0.2759
1881.00,0.2760
1880.00,0.2761
1879.00,0.2761
1878.00,0.2760
1877.00,0.2759
1876.00,0.2758
1875.00,0.2757
1874.00,0.2755
1873.00,0.2753
1872.00,0.2751
1871.00,0.2747
1870.00,0.2742
1869.00,0.2737
1868.00,0.2732
1867.00,0.2730
1866.00,0.2729
1865.00,0.2728
1864.00,0.2727
1863.00,0.2724
1862.00,0.2721
1861.00,0.2718
1860.00,0.2715
1859.00,0.2713
1858.00,0.2710
1857.00,0.2708
1856.00,0.2705
1855.00,0.2703
1854.00,0.2701
1853.00,0.2700
1852.00,0.2699
1851.00,0.2697
1850.00,0.2695
1849.00,0.2694
1848.00,0.2692
1847.00,0.2691
1846.00,0.2690
1845.00,0.2691
1844.00,0.2693
1843.00,0.2691
1842.00,0.2691
1841.00,0.2690
1840.00,0.2690
1839.00,0.2689
1838.00,0.2688
1837.00,0.2688
1836.00,0.2688
1835.00,0.2688
1834.00,0.2687
1833.00,0.2687
1832.00,0.2687
1831.00,0.2686
1830.00,0.2685
1829.00,0.2685
1828.00,0.2684
1827.00,0.2684
1826.00,0.2683
1825.00,0.2679
1824.00,0.2681
1823.00,0.2682
1822.00,0.2683
1821.00,0.2684
1820.00,0.2684
1819.00,0.2685
1818.00,0.2686
1817.00,0.2688
1816.00,0.2690
1815.00,0.2692
1814.00,0.2694
1813.00,0.2696
1812.00,0.2698
1811.00,0.2699
1810.00,0.2701
1809.00,0.2706
1808.00,0.2713
1807.00,0.2721
1806.00,0.2728
1805.00,0.2737
1804.00,0.2746
1803.00,0.2755
1802.00,0.2762
1801.00,0.2768
1800.00,0.2773
1799.00,0.2777
1798.00,0.2783
1797.00,0.2788
1796.00,0.2793
1795.00,0.2797
1794.00,0.2800
1793.00,0.2804
1792.00,0.2809
1791.00,0.2814
1790.00,0.2820
1789.00,0.2824
1788.00,0.2827
1787.00,0.2830
1786.00,0.2832
1785.00,0.2837
1784.00,0.2841
1783.00,0.2843
1782.00,0.2844
1781.00,0.2846
1780.00,0.2848
1779.00,0.2853
1778.00,0.2859
1777.00,0.2864
1776.00,0.2868
1775.00,0.2871
1774.00,0.2876
1773.00,0.2881
1772.00,0.2886
1771.00,0.2891
1770.00,0.2899
1769.00,0.2907
1768.00,0.2916
1767.00,0.2924
1766.00,0.2930
1765.00,0.2934
1764.00,0.2939
1763.00,0.2943
1762.00,0.2950
1761.00,0.2958
1760.00,0.2969
1759.00,0.2979
1758.00,0.2989
1757.00,0.3001
1756.00,0.3017
1755.00,0.3036
1754.00,0.3056
1753.00,0.3082
1752.00,0.3115
1751.00,0.3152
1750.00,0.3194
1749.00,0.3241
1748.00,0.3296
1747.00,0.3359
1746.00,0.3429
1745.00,0.3501
1744.00,0.3570
1743.00,0.3629
1742.00,0.3673
1741.00,0.3700
1740.00,0.3708
1739.00,0.3696
1738.00,0.3673
1737.00,0.3642
1736.00,0.3606
1735.00,0.3559
1734.00,0.3506
1733.00,0.3458
1732.00,0.3419
1731.00,0.3381
1730.00,0.3345
1729.00,0.3318
1728.00,0.3301
1727.00,0.3290
1726.00,0.3282
1725.00,0.3277
1724.00,0.3275
1723.00,0.3274
1722.00,0.3276
1721.00,0.3279
1720.00,0.3284
1719.00,0.3290
1718.00,0.3299
1717.00,0.3311
1716.00,0.3324
1715.00,0.3334
1714.00,0.3342
1713.00,0.3352
1712.00,0.3365
1711.00,0.3379
1710.00,0.3394
1709.00,0.3409
1708.00,0.3422
1707.00,0.3431
1706.00,0.3436
1705.00,0.3438
1704.00,0.3438
1703.00,0.3434
1702.00,0.3428
1701.00,0.3414
1700.00,0.3393
1699.00,0.3375
1698.00,0.3361
1697.00,0.3348
1696.00,0.3336
1695.00,0.3329
1694.00,0.3325
1693.00,0.3317
1692.00,0.3305
1691.00,0.3297
1690.00,0.3293
1689.00,0.3293
1688.00,0.3295
1687.00,0.3299
1686.00,0.3304
1685.00,0.3305
1684.00,0.3299
1683.00,0.3295
1682.00,0.3295
1681.00,0.3294
1680.00,0.3293
1679.00,0.3295
1678.00,0.3300
1677.00,0.3309
1676.00,0.3319
1675.00,0.3330
1674.00,0.3341
1673.00,0.3349
1672.00,0.3355
1671.00,0.3359
1670.00,0.3366
1669.00,0.3381
1668.00,0.3401
1667.00,0.3420
1666.00,0.3436
1665.00,0.3451
1664.00,0.3467
1663.00,0.3484
1662.00,0.3505
1661.00,0.3531
1660.00,0.3558
1659.00,0.3584
1658.00,0.3608
1657.00,0.3633
1656.00,0.3660
1655.00,0.3694
1654.00,0.3735
1653.00,0.3783
1652.00,0.3835
1651.00,0.3874
1650.00,0.3885
1649.00,0.3890
1648.00,0.3907
1647.00,0.3939
1646.00,0.3986
1645.00,0.4040
1644.00,0.4089
1643.00,0.4125
1642.00,0.4156
1641.00,0.4191
1640.00,0.4227
1639.00,0.4261
1638.00,0.4294
1637.00,0.4332
1636.00,0.4376
1635.00,0.4423
1634.00,0.4470
1633.00,0.4512
1632.00,0.4547
1631.00,0.4581
1630.00,0.4618
1629.00,0.4662
1628.00,0.4712
1627.00,0.4766
1626.00,0.4823
1625.00,0.4887
1624.00,0.4960
1623.00,0.5040
1622.00,0.5127
1621.00,0.5221
1620.00,0.5318
1619.00,0.5423
1618.00,0.5549
1617.00,0.5707
1616.00,0.5887
1615.00,0.6067
1614.00,0.6243
1613.00,0.6433
1612.00,0.6654
1611.00,0.6898
1610.00,0.7151
1609.00,0.7403
1608.00,0.7642
1607.00,0.7852
1606.00,0.8036
1605.00,0.8217
1604.00,0.8419
1603.00,0.8650
1602.00,0.8922
1601.00,0.9258
1600.00,0.9670
1599.00,1.0154
1598.00,1.0723
1597.00,1.1417
1596.00,1.2279
1595.00,1.3325
1594.00,1.4568
1593.00,1.6081
1592.00,1.7960
1591.00,2.0209
1590.00,2.2728
1589.00,2.5686
1588.00,2.9861
1587.00,3.5729
1586.00,3.7252
1585.00,3.7726
1584.00,3.8417
1583.00,3.7274
1582.00,3.9051
1581.00,3.7086
1580.00,3.7125
1579.00,3.3504
1578.00,2.7935
1577.00,2.4099
1576.00,2.1298
1575.00,1.9156
1574.00,1.7585
1573.00,1.6493
1572.00,1.5751
1571.00,1.5287
1570.00,1.5132
1569.00,1.5369
1568.00,1.6018
1567.00,1.7030
1566.00,1.8409
1565.00,2.0290
1564.00,2.2817
1563.00,2.5771
1562.00,2.8180
1561.00,2.9201
1560.00,2.7573
1559.00,2.3500
1558.00,2.0077
1557.00,1.7726
1556.00,1.5852
1555.00,1.4149
1554.00,1.2688
1553.00,1.1572
1552.00,1.0767
1551.00,1.0170
1550.00,0.9733
1549.00,0.9458
1548.00,0.9337
1547.00,0.9334
1546.00,0.9414
1545.00,0.9553
1544.00,0.9721
1543.00,0.9867
1542.00,0.9947
1541.00,0.9932
1540.00,0.9802
1539.00,0.9583
1538.00,0.9337
1537.00,0.9099
1536.00,0.8859
1535.00,0.8599
1534.00,0.8317
1533.00,0.8052
1532.00,0.7838
1531.00,0.7668
1530.00,0.7524
1529.00,0.7400
1528.00,0.7290
1527.00,0.7187
1526.00,0.7093
1525.00,0.7019
1524.00,0.6975
1523.00,0.6960
1522.00,0.6982
1521.00,0.7050
1520.00,0.7147
1519.00,0.7246
1518.00,0.7334
1517.00,0.7411
1516.00,0.7453
1515.00,0.7428
1514.00,0.7326
1513.00,0.7162
1512.00,0.6961
1511.00,0.6753
1510.00,0.6566
1509.00,0.6414
1508.00,0.6296
1507.00,0.6209
1506.00,0.6166
1505.00,0.6174
1504.00,0.6202
1503.00,0.6230
1502.00,0.6263
1501.00,0.6311
1500.00,0.6375
1499.00,0.6448
1498.00,0.6535
1497.00,0.6649
1496.00,0.6788
1495.00,0.6934
1494.00,0.7080
1493.00,0.7241
1492.00,0.7429
1491.00,0.7634
1490.00,0.7832
1489.00,0.8004
1488.00,0.8156
1487.00,0.8307
1486.00,0.8488
1485.00,0.8719
1484.00,0.9001
1483.00,0.9329
1482.00,0.9717
1481.00,1.0178
1480.00,1.0713
1479.00,1.1317
1478.00,1.2026
1477.00,1.2892
1476.00,1.3934
1475.00,1.5157
1474.00,1.6648
1473.00,1.8601
1472.00,2.1175
1471.00,2.4298
1470.00,2.7774
1469.00,3.1717
1468.00,3.6311
1467.00,3.8681
1466.00,3.7888
1465.00,3.8739
1464.00,4.0819
1463.00,4.0849
1462.00,4.0752
1461.00,3.9685
1460.00,3.7991
1459.00,3.9491
1458.00,4.6281
1457.00,4.4208
1456.00,4.2394
1455.00,4.0497
1454.00,3.7287
1453.00,3.7040
1452.00,3.8191
1451.00,3.7807
1450.00,3.6732
1449.00,3.7227
1448.00,3.8186
1447.00,3.8040
1446.00,3.9158
1445.00,4.1951
1444.00,4.3813
1443.00,4.0916
1442.00,3.6175
1441.00,3.4096
1440.00,3.2101
1439.00,2.9678
1438.00,2.7421
1437.00,2.5303
1436.00,2.3254
1435.00,2.1401
1434.00,1.9828
1433.00,1.8445
1432.00,1.7155
1431.00,1.5952
1430.00,1.4881
1429.00,1.3970
1428.00,1.3220
1427.00,1.2613
1426.00,1.2120
1425.00,1.1720
1424.00,1.1404
1423.00,1.1170
1422.00,1.1006
1421.00,1.0892
1420.00,1.0821
1419.00,1.0797
1418.00,1.0828
1417.00,1.0917
1416.00,1.1060
1415.00,1.1253
1414.00,1.1479
1413.00,1.1707
1412.00,1.1899
1411.00,1.2017
1410.00,1.2033
1409.00,1.1944
1408.00,1.1755
1407.00,1.1474
1406.00,1.1111
1405.00,1.0692
1404.00,1.0257
1403.00,0.9844
1402.00,0.9470
1401.00,0.9134
1400.00,0.8834
1399.00,0.8582
1398.00,0.8390
1397.00,0.8253
1396.00,0.8156
1395.00,0.8086
1394.00,0.8040
1393.00,0.8026
1392.00,0.8063
1391.00,0.8170
1390.00,0.8369
1389.00,0.8691
1388.00,0.9173
1387.00,0.9831
1386.00,1.0634
1385.00,1.1536
1384.00,1.2527
1383.00,1.3639
1382.00,1.4913
1381.00,1.6386
1380.00,1.8058
1379.00,1.9749
1378.00,2.0966
1377.00,2.1204
1376.00,2.0486
1375.00,1.9193
1374.00,1.7730
1373.00,1.6401
1372.00,1.5330
1371.00,1.4516
1370.00,1.3929
1369.00,1.3550
1368.00,1.3336
1367.00,1.3184
1366.00,1.2956
1365.00,1.2554
1364.00,1.1977
1363.00,1.1314
1362.00,1.0686
1361.00,1.0164
1360.00,0.9763
1359.00,0.9462
1358.00,0.9241
1357.00,0.9088
1356.00,0.8999
1355.00,0.8964
1354.00,0.8967
1353.00,0.8997
1352.00,0.9043
1351.00,0.9106
1350.00,0.9194
1349.00,0.9321
1348.00,0.9505
1347.00,0.9745
1346.00,1.0003
1345.00,1.0203
1344.00,1.0260
1343.00,1.0134
1342.00,0.9858
1341.00,0.9504
1340.00,0.9135
1339.00,0.8788
1338.00,0.8474
1337.00,0.8193
1336.00,0.7944
1335.00,0.7724
1334.00,0.7534
1333.00,0.7375
1332.00,0.7247
1331.00,0.7153
1330.00,0.7089
1329.00,0.7056
1328.00,0.7049
1327.00,0.7063
1326.00,0.7088
1325.00,0.7115
1324.00,0.7139
1323.00,0.7163
1322.00,0.7188
1321.00,0.7216
1320.00,0.7249
1319.00,0.7288
1318.00,0.7332
1317.00,0.7380
1316.00,0.7434
1315.00,0.7493
1314.00,0.7558
1313.00,0.7629
1312.00,0.7705
1311.00,0.7783
1310.00,0.7860
1309.00,0.7929
1308.00,0.7980
1307.00,0.8005
1306.00,0.8002
1305.00,0.7973
1304.00,0.7930
1303.00,0.7882
1302.00,0.7837
1301.00,0.7799
1300.00,0.7768
1299.00,0.7739
1298.00,0.7703
1297.00,0.7658
1296.00,0.7609
1295.00,0.7560
1294.00,0.7515
1293.00,0.7468
1292.00,0.7408
1291.00,0.7328
1290.00,0.7227
1289.00,0.7116
1288.00,0.7007
1287.00,0.6910
1286.00,0.6829
1285.00,0.6765
1284.00,0.6722
1283.00,0.6708
1282.00,0.6730
1281.00,0.6790
1280.00,0.6874
1279.00,0.6952
1278.00,0.6983
1277.00,0.6940
1276.00,0.6828
1275.00,0.6678
1274.00,0.6527
1273.00,0.6399
1272.00,0.6303
1271.00,0.6237
1270.00,0.6194
1269.00,0.6161
1268.00,0.6130
1267.00,0.6095
1266.00,0.6053
1265.00,0.6010
1264.00,0.5971
1263.00,0.5939
1262.00,0.5914
1261.00,0.5897
1260.00,0.5889
1259.00,0.5891
1258.00,0.5902
1257.00,0.5920
1256.00,0.5941
1255.00,0.5965
1254.00,0.5992
1253.00,0.6017
1252.00,0.6036
1251.00,0.6042
1250.00,0.6033
1249.00,0.6011
1248.00,0.5981
1247.00,0.5947
1246.00,0.5910
1245.00,0.5873
1244.00,0.5838
1243.00,0.5807
1242.00,0.5778
1241.00,0.5746
1240.00,0.5713
1239.00,0.5683
1238.00,0.5664
1237.00,0.5665
1236.00,0.5690
1235.00,0.5736
1234.00,0.5798
1233.00,0.5865
1232.00,0.5929
1231.00,0.5979
1230.00,0.6004
1229.00,0.5990
1228.00,0.5931
1227.00,0.5835
1226.00,0.5715
1225.00,0.5587
1224.00,0.5468
1223.00,0.5366
1222.00,0.5283
1221.00,0.5218
1220.00,0.5167
1219.00,0.5130
1218.00,0.5107
1217.00,0.5100
1216.00,0.5106
1215.00,0.5122
1214.00,0.5142
1213.00,0.5158
1212.00,0.5167
1211.00,0.5167
1210.00,0.5159
1209.00,0.5142
1208.00,0.5116
1207.00,0.5088
1206.00,0.5063
1205.00,0.5051
1204.00,0.5059
1203.00,0.5093
1202.00,0.5153
1201.00,0.5231
1200.00,0.5308
1199.00,0.5362
1198.00,0.5385
1197.00,0.5386
1196.00,0.5388
1195.00,0.5408
1194.00,0.5451
1193.00,0.5512
1192.00,0.5579
1191.00,0.5640
1190.00,0.5677
1189.00,0.5679
1188.00,0.5646
1187.00,0.5588
1186.00,0.5516
1185.00,0.5441
1184.00,0.5368
1183.00,0.5301
1182.00,0.5241
1181.00,0.5191
1180.00,0.5150
1179.00,0.5122
1178.00,0.5105
1177.00,0.5098
1176.00,0.5102
1175.00,0.5117
1174.00,0.5143
1173.00,0.5176
1172.00,0.5214
1171.00,0.5254
1170.00,0.5289
1169.00,0.5316
1168.00,0.5334
1167.00,0.5348
1166.00,0.5362
1165.00,0.5379
1164.00,0.5402
1163.00,0.5433
1162.00,0.5467
1161.00,0.5496
1160.00,0.5512
1159.00,0.5511
1158.00,0.5496
1157.00,0.5477
1156.00,0.5458
1155.00,0.5445
1154.00,0.5436
1153.00,0.5427
1152.00,0.5416
1151.00,0.5403
1150.00,0.5388
1149.00,0.5370
1148.00,0.5351
1147.00,0.5332
1146.00,0.5314
1145.00,0.5299
1144.00,0.5290
1143.00,0.5292
1142.00,0.5304
1141.00,0.5328
1140.00,0.5364
1139.00,0.5414
1138.00,0.5478
1137.00,0.5556
1136.00,0.5643
1135.00,0.5732
1134.00,0.5803
1133.00,0.5837
1132.00,0.5821
1131.00,0.5762
1130.00,0.5682
1129.00,0.5611
1128.00,0.5569
1127.00,0.5561
1126.00,0.5573
1125.00,0.5582
1124.00,0.5568
1123.00,0.5527
1122.00,0.5470
1121.00,0.5415
1120.00,0.5379
1119.00,0.5368
1118.00,0.5381
1117.00,0.5410
1116.00,0.5442
1115.00,0.5458
1114.00,0.5445
1113.00,0.5392
1112.00,0.5307
1111.00,0.5205
1110.00,0.5104
1109.00,0.5019
1108.00,0.4957
1107.00,0.4922
1106.00,0.4914
1105.00,0.4931
1104.00,0.4969
1103.00,0.5025
1102.00,0.5092
1101.00,0.5159
1100.00,0.5215
1099.00,0.5244
1098.00,0.5237
1097.00,0.5196
1096.00,0.5139
1095.00,0.5084
1094.00,0.5040
1093.00,0.5008
1092.00,0.4982
1091.00,0.4961
1090.00,0.4946
1089.00,0.4936
1088.00,0.4935
1087.00,0.4943
1086.00,0.4964
1085.00,0.4998
1084.00,0.5048
1083.00,0.5111
1082.00,0.5184
1081.00,0.5262
1080.00,0.5336
1079.00,0.5399
1078.00,0.5441
1077.00,0.5451
1076.00,0.5426
1075.00,0.5371
1074.00,0.5296
1073.00,0.5212
1072.00,0.5130
1071.00,0.5056
1070.00,0.4992
1069.00,0.4936
1068.00,0.4884
1067.00,0.4840
1066.00,0.4802
1065.00,0.4770
1064.00,0.4745
1063.00,0.4726
1062.00,0.4712
1061.00,0.4698
1060.00,0.4681
1059.00,0.4661
1058.00,0.4638
1057.00,0.4612
1056.00,0.4584
1055.00,0.4555
1054.00,0.4528
1053.00,0.4502
1052.00,0.4479
1051.00,0.4462
1050.00,0.4448
1049.00,0.4439
1048.00,0.4434
1047.00,0.4433
1046.00,0.4434
1045.00,0.4434
1044.00,0.4431
1043.00,0.4428
1042.00,0.4427
1041.00,0.4428
1040.00,0.4433
1039.00,0.4440
1038.00,0.4449
1037.00,0.4460
1036.00,0.4474
1035.00,0.4495
1034.00,0.4525
1033.00,0.4564
1032.00,0.4612
1031.00,0.4666
1030.00,0.4723
1029.00,0.4775
1028.00,0.4812
1027.00,0.4823
1026.00,0.4805
1025.00,0.4758
1024.00,0.4690
1023.00,0.4611
1022.00,0.4535
1021.00,0.4468
1020.00,0.4416
1019.00,0.4380
1018.00,0.4356
1017.00,0.4340
1016.00,0.4330
1015.00,0.4325
1014.00,0.4321
1013.00,0.4316
1012.00,0.4311
1011.00,0.4310
1010.00,0.4316
1009.00,0.4329
1008.00,0.4342
1007.00,0.4353
1006.00,0.4359
1005.00,0.4362
1004.00,0.4363
1003.00,0.4365
1002.00,0.4370
1001.00,0.4377
1000.00,0.4383
999.00,0.4388
998.00,0.4388
997.00,0.4383
996.00,0.4372
995.00,0.4359
994.00,0.4344
993.00,0.4329
992.00,0.4316
991.00,0.4304
990.00,0.4296
989.00,0.4287
988.00,0.4276
987.00,0.4261
986.00,0.4247
985.00,0.4238
984.00,0.4240
983.00,0.4259
982.00,0.4293
981.00,0.4343
980.00,0.4410
979.00,0.4496
978.00,0.4611
977.00,0.4768
976.00,0.4982
975.00,0.5268
974.00,0.5640
973.00,0.6108
972.00,0.6669
971.00,0.7296
970.00,0.7914
969.00,0.8402
968.00,0.8623
967.00,0.8500
966.00,0.8072
965.00,0.7474
964.00,0.6845
963.00,0.6283
962.00,0.5837
961.00,0.5527
960.00,0.5350
959.00,0.5288
958.00,0.5310
957.00,0.5372
956.00,0.5426
955.00,0.5432
954.00,0.5372
953.00,0.5255
952.00,0.5110
951.00,0.4966
950.00,0.4842
949.00,0.4749
948.00,0.4690
947.00,0.4665
946.00,0.4671
945.00,0.4701
944.00,0.4747
943.00,0.4802
942.00,0.4857
941.00,0.4903
940.00,0.4936
939.00,0.4953
938.00,0.4953
937.00,0.4940
936.00,0.4916
935.00,0.4885
934.00,0.4846
933.00,0.4799
932.00,0.4744
931.00,0.4684
930.00,0.4623
929.00,0.4565
928.00,0.4516
927.00,0.4482
926.00,0.4468
925.00,0.4473
924.00,0.4499
923.00,0.4540
922.00,0.4583
921.00,0.4610
920.00,0.4604
919.00,0.4558
918.00,0.4478
917.00,0.4379
916.00,0.4281
915.00,0.4195
914.00,0.4126
913.00,0.4075
912.00,0.4038
911.00,0.4014
910.00,0.4001
909.00,0.4001
908.00,0.4015
907.00,0.4050
906.00,0.4104
905.00,0.4169
904.00,0.4226
903.00,0.4254
902.00,0.4245
901.00,0.4211
900.00,0.4174
899.00,0.4150
898.00,0.4144
897.00,0.4152
896.00,0.4170
895.00,0.4196
894.00,0.4231
893.00,0.4272
892.00,0.4316
891.00,0.4358
890.00,0.4392
889.00,0.4411
888.00,0.4410
887.00,0.4388
886.00,0.4350
885.00,0.4305
884.00,0.4261
883.00,0.4225
882.00,0.4199
881.00,0.4183
880.00,0.4175
879.00,0.4173
878.00,0.4171
877.00,0.4170
876.00,0.4171
875.00,0.4174
874.00,0.4179
873.00,0.4183
872.00,0.4185
871.00,0.4187
870.00,0.4191
869.00,0.4197
868.00,0.4211
867.00,0.4236
866.00,0.4274
865.00,0.4322
864.00,0.4375
863.00,0.4420
862.00,0.4442
861.00,0.4428
860.00,0.4377
859.00,0.4302
858.00,0.4222
857.00,0.4148
856.00,0.4089
855.00,0.4045
854.00,0.4014
853.00,0.3994
852.00,0.3980
851.00,0.3971
850.00,0.3964
849.00,0.3957
848.00,0.3949
847.00,0.3941
846.00,0.3935
845.00,0.3931
844.00,0.3931
843.00,0.3942
842.00,0.3968
841.00,0.4016
840.00,0.4090
839.00,0.4188
838.00,0.4298
837.00,0.4394
836.00,0.4448
835.00,0.4448
834.00,0.4401
833.00,0.4332
832.00,0.4271
831.00,0.4239
830.00,0.4242
829.00,0.4277
828.00,0.4332
827.00,0.4395
826.00,0.4460
825.00,0.4527
824.00,0.4600
823.00,0.4674
822.00,0.4739
821.00,0.4780
820.00,0.4789
819.00,0.4769
818.00,0.4729
817.00,0.4679
816.00,0.4630
815.00,0.4588
814.00,0.4551
813.00,0.4518
812.00,0.4486
811.00,0.4455
810.00,0.4425
809.00,0.4395
808.00,0.4364
807.00,0.4334
806.00,0.4302
805.00,0.4269
804.00,0.4234
803.00,0.4198
802.00,0.4163
801.00,0.4133
800.00,0.4108
799.00,0.4088
798.00,0.4070
797.00,0.4053
796.00,0.4036
795.00,0.4022
794.00,0.4015
793.00,0.4014
792.00,0.4020
791.00,0.4033
790.00,0.4050
789.00,0.4067
788.00,0.4083
787.00,0.4103
786.00,0.4132
785.00,0.4174
784.00,0.4231
783.00,0.4304
782.00,0.4398
781.00,0.4511
780.00,0.4640
779.00,0.4766
778.00,0.4862
777.00,0.4899
776.00,0.4873
775.00,0.4805
774.00,0.4726
773.00,0.4664
772.00,0.4630
771.00,0.4622
770.00,0.4633
769.00,0.4653
768.00,0.4675
767.00,0.4695
766.00,0.4710
765.00,0.4721
764.00,0.4732
763.00,0.4750
762.00,0.4780
761.00,0.4820
760.00,0.4865
759.00,0.4904
758.00,0.4934
757.00,0.4958
756.00,0.4985
755.00,0.5019
754.00,0.5063
753.00,0.5111
752.00,0.5162
751.00,0.5213
750.00,0.5266
749.00,0.5320
748.00,0.5376
747.00,0.5436
746.00,0.5501
745.00,0.5572
744.00,0.5650
743.00,0.5737
742.00,0.5833
741.00,0.5934
740.00,0.6039
739.00,0.6149
738.00,0.6265
737.00,0.6389
736.00,0.6519
735.00,0.6656
734.00,0.6798
733.00,0.6946
732.00,0.7103
731.00,0.7279
730.00,0.7489
729.00,0.7744
728.00,0.8055
727.00,0.8438
726.00,0.8912
725.00,0.9479
724.00,1.0098
723.00,1.0659
722.00,1.0987
721.00,1.0932
720.00,1.0503
719.00,0.9867
718.00,0.9203
717.00,0.8612
716.00,0.8127
715.00,0.7752
714.00,0.7467
713.00,0.7245
712.00,0.7058
711.00,0.6887
710.00,0.6720
709.00,0.6547
708.00,0.6368
707.00,0.6187
706.00,0.6012
705.00,0.5845
704.00,0.5687
703.00,0.5542
702.00,0.5413
701.00,0.5295
700.00,0.5181
699.00,0.5065
698.00,0.4943
697.00,0.4816
696.00,0.4691
695.00,0.4578
694.00,0.4484
693.00,0.4409
692.00,0.4351
691.00,0.4312
690.00,0.4289
689.00,0.4271
688.00,0.4248
687.00,0.4212
686.00,0.4165
685.00,0.4113
684.00,0.4064
683.00,0.4024
682.00,0.3992
681.00,0.3970
680.00,0.3956
679.00,0.3949
678.00,0.3948
677.00,0.3945
676.00,0.3941
675.00,0.3935
674.00,0.3931
673.00,0.3930
672.00,0.3933
671.00,0.3938
670.00,0.3940
669.00,0.3943
668.00,0.3945
667.00,0.3945
666.00,0.3954
665.00,0.3969
664.00,0.3983
663.00,0.3995
662.00,0.4009
661.00,0.4023
660.00,0.4035
659.00,0.4045
658.00,0.4054
657.00,0.4063
656.00,0.4071
655.00,0.4078
654.00,0.4085
653.00,0.4092
652.00,0.4101
651.00,0.4110
650.00,0.4121
649.00,0.4132
648.00,0.4143
647.00,0.4155
646.00,0.4169
645.00,0.4183
644.00,0.4196
643.00,0.4210
642.00,0.4227
641.00,0.4246
640.00,0.4265
639.00,0.4285
638.00,0.4304
637.00,0.4320
636.00,0.4332
635.00,0.4341
634.00,0.4352
633.00,0.4370
632.00,0.4394
631.00,0.4418
630.00,0.4440
629.00,0.4463
628.00,0.4488
627.00,0.4519
626.00,0.4552
625.00,0.4583
624.00,0.4610
623.00,0.4634
622.00,0.4655
621.00,0.4673
620.00,0.4687
619.00,0.4697
618.00,0.4704
617.00,0.4705
616.00,0.4703
615.00,0.4698
614.00,0.4690
613.00,0.4679
612.00,0.4668
611.00,0.4658
610.00,0.4649
609.00,0.4641
608.00,0.4635
607.00,0.4631
606.00,0.4629
605.00,0.4626
604.00,0.4624
603.00,0.4622
602.00,0.4617
601.00,0.4608
600.00,0.4599
599.00,0.4595
598.00,0.4596
597.00,0.4597
596.00,0.4596
595.00,0.4594
594.00,0.4595
593.00,0.4598
592.00,0.4603
591.00,0.4611
590.00,0.4624
589.00,0.4642
588.00,0.4662
587.00,0.4685
586.00,0.4712
585.00,0.4745
584.00,0.4782
583.00,0.4820
582.00,0.4855
581.00,0.4881
580.00,0.4897
579.00,0.4910
578.00,0.4924
577.00,0.4941
576.00,0.4959
575.00,0.4977
574.00,0.4995
573.00,0.5017
572.00,0.5046
571.00,0.5082
570.00,0.5120
569.00,0.5159
568.00,0.5197
567.00,0.5235
566.00,0.5273
565.00,0.5308
564.00,0.5341
563.00,0.5372
562.00,0.5402
561.00,0.5432
560.00,0.5462
559.00,0.5495
558.00,0.5533
557.00,0.5579
556.00,0.5631
555.00,0.5684
554.00,0.5736
553.00,0.5789
552.00,0.5844
551.00,0.5899
550.00,0.5950
