Created as New Dataset,
cm-1,A
4000.00,0.5068
3999.00,0.5065
3998.00,0.5063
3997.00,0.5060
3996.00,0.5057
3995.00,0.5052
3994.00,0.5047
3993.00,0.5042
3992.00,0.5038
3991.00,0.5034
3990.00,0.5031
3989.00,0.5028
3988.00,0.5025
3987.00,0.5021
3986.00,0.5017
3985.00,0.5012
3984.00,0.5008
3983.00,0.5004
3982.00,0.5000
3981.00,0.4995
3980.00,0.4991
3979.00,0.4987
3978.00,0.4983
3977.00,0.4979
3976.00,0.4976
3975.00,0.4974
3974.00,0.4971
3973.00,0.4969
3972.00,0.4966
3971.00,0.4963
3970.00,0.4961
3969.00,0.4957
3968.00,0.4954
3967.00,0.4949
3966.00,0.4945
3965.00,0.4941
3964.00,0.4937
3963.00,0.4933
3962.00,0.4930
3961.00,0.4926
3960.00,0.4923
3959.00,0.4920
3958.00,0.4917
3957.00,0.4914
3956.00,0.4911
3955.00,0.4908
3954.00,0.4904
3953.00,0.4902
3952.00,0.4899
3951.00,0.4898
3950.00,0.4897
3949.00,0.4895
3948.00,0.4894
3947.00,0.4892
3946.00,0.4890
3945.00,0.4888
3944.00,0.4886
3943.00,0.4884
3942.00,0.4882
3941.00,0.4880
3940.00,0.4878
3939.00,0.4876
3938.00,0.4873
3937.00,0.4871
3936.00,0.4870
3935.00,0.4870
3934.00,0.4870
3933.00,0.4870
3932.00,0.4871
3931.00,0.4870
3930.00,0.4870
3929.00,0.4870
3928.00,0.4870
3927.00,0.4869
3926.00,0.4868
3925.00,0.4867
3924.00,0.4867
3923.00,0.4866
3922.00,0.4867
3921.00,0.4867
3920.00,0.4867
3919.00,0.4867
3918.00,0.4866
3917.00,0.4865
3916.00,0.4864
3915.00,0.4864
3914.00,0.4863
3913.00,0.4862
3912.00,0.4860
3911.00,0.4857
3910.00,0.4855
3909.00,0.4854
3908.00,0.4853
3907.00,0.4853
3906.00,0.4854
3905.00,0.4856
3904.00,0.4857
3903.00,0.4859
3902.00,0.4861
3901.00,0.4862
3900.00,0.4862
3899.00,0.4861
3898.00,0.4857
3897.00,0.4853
3896.00,0.4848
3895.00,0.4845
3894.00,0.4842
3893.00,0.4840
3892.00,0.4838
3891.00,0.4836
3890.00,0.4834
3889.00,0.4834
3888.00,0.4833
3887.00,0.4833
3886.00,0.4831
3885.00,0.4830
3884.00,0.4829
3883.00,0.4829
3882.00,0.4829
3881.00,0.4829
3880.00,0.4828
3879.00,0.4826
3878.00,0.4823
3877.00,0.4822
3876.00,0.4821
3875.00,0.4821
3874.00,0.4822
3873.00,0.4822
3872.00,0.4822
3871.00,0.4822
3870.00,0.4823
3869.00,0.4824
3868.00,0.4824
3867.00,0.4822
3866.00,0.4820
3865.00,0.4817
3864.00,0.4815
3863.00,0.4811
3862.00,0.4806
3861.00,0.4802
3860.00,0.4799
3859.00,0.4798
3858.00,0.4799
3857.00,0.4802
3856.00,0.4804
3855.00,0.4805
3854.00,0.4807
3853.00,0.4810
3852.00,0.4814
3851.00,0.4814
3850.00,0.4812
3849.00,0.4807
3848.00,0.4802
3847.00,0.4796
3846.00,0.4790
3845.00,0.4786
3844.00,0.4784
3843.00,0.4783
3842.00,0.4783
3841.00,0.4785
3840.00,0.4786
3839.00,0.4788
3838.00,0.4790
3837.00,0.4792
3836.00,0.4793
3835.00,0.4793
3834.00,0.4791
3833.00,0.4787
3832.00,0.4783
3831.00,0.4777
3830.00,0.4772
3829.00,0.4768
3828.00,0.4764
3827.00,0.4761
3826.00,0.4759
3825.00,0.4758
3824.00,0.4757
3823.00,0.4758
3822.00,0.4758
3821.00,0.4760
3820.00,0.4761
3819.00,0.4761
3818.00,0.4760
3817.00,0.4758
3816.00,0.4756
3815.00,0.4753
3814.00,0.4749
3813.00,0.4744
3812.00,0.4740
3811.00,0.4738
3810.00,0.4736
3809.00,0.4733
3808.00,0.4731
3807.00,0.4730
3806.00,0.4731
3805.00,0.4732
3804.00,0.4734
3803.00,0.4734
3802.00,0.4734
3801.00,0.4734
3800.00,0.4732
3799.00,0.4730
3798.00,0.4726
3797.00,0.4722
3796.00,0.4718
3795.00,0.4712
3794.00,0.4706
3793.00,0.4700
3792.00,0.4694
3791.00,0.4690
3790.00,0.4686
3789.00,0.4682
3788.00,0.4679
3787.00,0.4676
3786.00,0.4674
3785.00,0.4673
3784.00,0.4672
3783.00,0.4671
3782.00,0.4671
3781.00,0.4671
3780.00,0.4671
3779.00,0.4671
3778.00,0.4670
3777.00,0.4669
3776.00,0.4669
3775.00,0.4668
3774.00,0.4668
3773.00,0.4667
3772.00,0.4667
3771.00,0.4666
3770.00,0.4665
3769.00,0.4665
3768.00,0.4665
3767.00,0.4664
3766.00,0.4664
3765.00,0.4663
3764.00,0.4662
3763.00,0.4660
3762.00,0.4659
3761.00,0.4657
3760.00,0.4656
3759.00,0.4654
3758.00,0.4653
3757.00,0.4652
3756.00,0.4652
3755.00,0.4653
3754.00,0.4654
3753.00,0.4655
3752.00,0.4657
3751.00,0.4659
3750.00,0.4662
3749.00,0.4666
3748.00,0.4670
3747.00,0.4672
3746.00,0.4672
3745.00,0.4671
3744.00,0.4668
3743.00,0.4664
3742.00,0.4660
3741.00,0.4656
3740.00,0.4654
3739.00,0.4652
3738.00,0.4651
3737.00,0.4649
3736.00,0.4649
3735.00,0.4649
3734.00,0.4650
3733.00,0.4650
3732.00,0.4648
3731.00,0.4645
3730.00,0.4641
3729.00,0.4635
3728.00,0.4629
3727.00,0.4624
3726.00,0.4619
3725.00,0.4616
3724.00,0.4613
3723.00,0.4610
3722.00,0.4608
3721.00,0.4605
3720.00,0.4602
3719.00,0.4600
3718.00,0.4597
3717.00,0.4596
3716.00,0.4596
3715.00,0.4597
3714.00,0.4598
3713.00,0.4599
3712.00,0.4601
3711.00,0.4603
3710.00,0.4605
3709.00,0.4606
3708.00,0.4606
3707.00,0.4605
3706.00,0.4604
3705.00,0.4603
3704.00,0.4601
3703.00,0.4600
3702.00,0.4598
3701.00,0.4597
3700.00,0.4596
3699.00,0.4595
3698.00,0.4595
3697.00,0.4596
3696.00,0.4597
3695.00,0.4598
3694.00,0.4601
3693.00,0.4604
3692.00,0.4608
3691.00,0.4611
3690.00,0.4613
3689.00,0.4615
3688.00,0.4617
3687.00,0.4618
3686.00,0.4618
3685.00,0.4616
3684.00,0.4613
3683.00,0.4610
3682.00,0.4608
3681.00,0.4606
3680.00,0.4606
3679.00,0.4608
3678.00,0.4611
3677.00,0.4614
3676.00,0.4618
3675.00,0.4624
3674.00,0.4629
3673.00,0.4633
3672.00,0.4636
3671.00,0.4637
3670.00,0.4636
3669.00,0.4633
3668.00,0.4629
3667.00,0.4626
3666.00,0.4624
3665.00,0.4623
3664.00,0.4621
3663.00,0.4619
3662.00,0.4619
3661.00,0.4619
3660.00,0.4621
3659.00,0.4624
3658.00,0.4627
3657.00,0.4630
3656.00,0.4634
3655.00,0.4639
3654.00,0.4645
3653.00,0.4651
3652.00,0.4657
3651.00,0.4663
3650.00,0.4668
3649.00,0.4672
3648.00,0.4676
3647.00,0.4679
3646.00,0.4679
3645.00,0.4678
3644.00,0.4676
3643.00,0.4674
3642.00,0.4672
3641.00,0.4673
3640.00,0.4675
3639.00,0.4679
3638.00,0.4685
3637.00,0.4691
3636.00,0.4697
3635.00,0.4705
3634.00,0.4714
3633.00,0.4724
3632.00,0.4735
3631.00,0.4748
3630.00,0.4761
3629.00,0.4776
3628.00,0.4790
3627.00,0.4802
3626.00,0.4808
3625.00,0.4810
3624.00,0.4809
3623.00,0.4803
3622.00,0.4795
3621.00,0.4783
3620.00,0.4770
3619.00,0.4756
3618.00,0.4745
3617.00,0.4736
3616.00,0.4729
3615.00,0.4724
3614.00,0.4721
3613.00,0.4719
3612.00,0.4719
3611.00,0.4719
3610.00,0.4720
3609.00,0.4721
3608.00,0.4722
3607.00,0.4722
3606.00,0.4720
3605.00,0.4717
3604.00,0.4713
3603.00,0.4707
3602.00,0.4698
3601.00,0.4688
3600.00,0.4677
3599.00,0.4666
3598.00,0.4655
3597.00,0.4645
3596.00,0.4634
3595.00,0.4623
3594.00,0.4613
3593.00,0.4603
3592.00,0.4595
3591.00,0.4588
3590.00,0.4582
3589.00,0.4576
3588.00,0.4570
3587.00,0.4565
3586.00,0.4560
3585.00,0.4555
3584.00,0.4550
3583.00,0.4545
3582.00,0.4540
3581.00,0.4535
3580.00,0.4530
3579.00,0.4526
3578.00,0.4523
3577.00,0.4520
3576.00,0.4517
3575.00,0.4514
3574.00,0.4513
3573.00,0.4513
3572.00,0.4513
3571.00,0.4514
3570.00,0.4515
3569.00,0.4516
3568.00,0.4518
3567.00,0.4519
3566.00,0.4520
3565.00,0.4521
3564.00,0.4521
3563.00,0.4521
3562.00,0.4520
3561.00,0.4519
3560.00,0.4518
3559.00,0.4518
3558.00,0.4519
3557.00,0.4521
3556.00,0.4523
3555.00,0.4525
3554.00,0.4525
3553.00,0.4526
3552.00,0.4528
3551.00,0.4531
3550.00,0.4535
3549.00,0.4539
3548.00,0.4543
3547.00,0.4547
3546.00,0.4551
3545.00,0.4555
3544.00,0.4559
3543.00,0.4562
3542.00,0.4565
3541.00,0.4568
3540.00,0.4571
3539.00,0.4574
3538.00,0.4577
3537.00,0.4581
3536.00,0.4585
3535.00,0.4589
3534.00,0.4592
3533.00,0.4596
3532.00,0.4600
3531.00,0.4604
3530.00,0.4609
3529.00,0.4614
3528.00,0.4619
3527.00,0.4624
3526.00,0.4629
3525.00,0.4635
3524.00,0.4640
3523.00,0.4645
3522.00,0.4650
3521.00,0.4654
3520.00,0.4659
3519.00,0.4665
3518.00,0.4670
3517.00,0.4676
3516.00,0.4682
3515.00,0.4688
3514.00,0.4694
3513.00,0.4699
3512.00,0.4705
3511.00,0.4711
3510.00,0.4717
3509.00,0.4724
3508.00,0.4730
3507.00,0.4736
3506.00,0.4743
3505.00,0.4750
3504.00,0.4758
3503.00,0.4765
3502.00,0.4772
3501.00,0.4780
3500.00,0.4786
3499.00,0.4793
3498.00,0.4800
3497.00,0.4807
3496.00,0.4814
3495.00,0.4822
3494.00,0.4830
3493.00,0.4838
3492.00,0.4846
3491.00,0.4855
3490.00,0.4864
3489.00,0.4872
3488.00,0.4881
3487.00,0.4890
3486.00,0.4899
3485.00,0.4907
3484.00,0.4916
3483.00,0.4925
3482.00,0.4933
3481.00,0.4942
3480.00,0.4951
3479.00,0.4960
3478.00,0.4968
3477.00,0.4976
3476.00,0.4984
3475.00,0.4993
3474.00,0.5002
3473.00,0.5011
3472.00,0.5021
3471.00,0.5031
3470.00,0.5041
3469.00,0.5051
3468.00,0.5061
3467.00,0.5069
3466.00,0.5079
3465.00,0.5089
3464.00,0.5100
3463.00,0.5111
3462.00,0.5122
3461.00,0.5133
3460.00,0.5143
3459.00,0.5154
3458.00,0.5165
3457.00,0.5176
3456.00,0.5188
3455.00,0.5200
3454.00,0.5213
3453.00,0.5226
3452.00,0.5239
3451.00,0.5252
3450.00,0.5265
3449.00,0.5280
3448.00,0.5294
3447.00,0.5309
3446.00,0.5325
3445.00,0.5341
3444.00,0.5358
3443.00,0.5374
3442.00,0.5390
3441.00,0.5406
3440.00,0.5422
3439.00,0.5437
3438.00,0.5452
3437.00,0.5466
3436.00,0.5479
3435.00,0.5492
3434.00,0.5504
3433.00,0.5516
3432.00,0.5527
3431.00,0.5537
3430.00,0.5548
3429.00,0.5559
3428.00,0.5570
3427.00,0.5582
3426.00,0.5592
3425.00,0.5603
3424.00,0.5614
3423.00,0.5626
3422.00,0.5638
3421.00,0.5650
3420.00,0.5661
3419.00,0.5672
3418.00,0.5683
3417.00,0.5694
3416.00,0.5707
3415.00,0.5720
3414.00,0.5734
3413.00,0.5748
3412.00,0.5761
3411.00,0.5775
3410.00,0.5788
3409.00,0.5801
3408.00,0.5815
3407.00,0.5829
3406.00,0.5843
3405.00,0.5858
3404.00,0.5874
3403.00,0.5889
3402.00,0.5904
3401.00,0.5919
3400.00,0.5933
3399.00,0.5947
3398.00,0.5961
3397.00,0.5976
3396.00,0.5991
3395.00,0.6007
3394.00,0.6023
3393.00,0.6038
3392.00,0.6054
3391.00,0.6069
3390.00,0.6085
3389.00,0.6101
3388.00,0.6117
3387.00,0.6133
3386.00,0.6150
3385.00,0.6167
3384.00,0.6184
3383.00,0.6201
3382.00,0.6219
3381.00,0.6237
3380.00,0.6255
3379.00,0.6273
3378.00,0.6291
3377.00,0.6310
3376.00,0.6328
3375.00,0.6346
3374.00,0.6366
3373.00,0.6386
3372.00,0.6407
3371.00,0.6428
3370.00,0.6449
3369.00,0.6471
3368.00,0.6493
3367.00,0.6514
3366.00,0.6535
3365.00,0.6556
3364.00,0.6577
3363.00,0.6598
3362.00,0.6619
3361.00,0.6641
3360.00,0.6662
3359.00,0.6683
3358.00,0.6703
3357.00,0.6723
3356.00,0.6742
3355.00,0.6762
3354.00,0.6781
3353.00,0.6800
3352.00,0.6818
3351.00,0.6835
3350.00,0.6852
3349.00,0.6868
3348.00,0.6884
3347.00,0.6897
3346.00,0.6910
3345.00,0.6922
3344.00,0.6933
3343.00,0.6944
3342.00,0.6953
3341.00,0.6960
3340.00,0.6966
3339.00,0.6971
3338.00,0.6976
3337.00,0.6980
3336.00,0.6983
3335.00,0.6985
3334.00,0.6986
3333.00,0.6986
3332.00,0.6984
3331.00,0.6981
3330.00,0.6978
3329.00,0.6974
3328.00,0.6969
3327.00,0.6965
3326.00,0.6959
3325.00,0.6954
3324.00,0.6947
3323.00,0.6941
3322.00,0.6934
3321.00,0.6926
3320.00,0.6919
3319.00,0.6913
3318.00,0.6907
3317.00,0.6901
3316.00,0.6894
3315.00,0.6886
3314.00,0.6879
3313.00,0.6872
3312.00,0.6867
3311.00,0.6863
3310.00,0.6860
3309.00,0.6857
3308.00,0.6854
3307.00,0.6850
3306.00,0.6846
3305.00,0.6843
3304.00,0.6841
3303.00,0.6841
3302.00,0.6841
3301.00,0.6841
3300.00,0.6842
3299.00,0.6843
3298.00,0.6845
3297.00,0.6849
3296.00,0.6853
3295.00,0.6857
3294.00,0.6861
3293.00,0.6864
3292.00,0.6867
3291.00,0.6872
3290.00,0.6877
3289.00,0.6883
3288.00,0.6889
3287.00,0.6895
3286.00,0.6901
3285.00,0.6908
3284.00,0.6917
3283.00,0.6926
3282.00,0.6934
3281.00,0.6941
3280.00,0.6948
3279.00,0.6955
3278.00,0.6962
3277.00,0.6969
3276.00,0.6977
3275.00,0.6985
3274.00,0.6992
3273.00,0.6999
3272.00,0.7007
3271.00,0.7014
3270.00,0.7021
3269.00,0.7027
3268.00,0.7032
3267.00,0.7037
3266.00,0.7042
3265.00,0.7046
3264.00,0.7050
3263.00,0.7054
3262.00,0.7058
3261.00,0.7062
3260.00,0.7066
3259.00,0.7068
3258.00,0.7069
3257.00,0.7069
3256.00,0.7068
3255.00,0.7066
3254.00,0.7065
3253.00,0.7062
3252.00,0.7058
3251.00,0.7052
3250.00,0.7047
3249.00,0.7041
3248.00,0.7035
3247.00,0.7028
3246.00,0.7020
3245.00,0.7012
3244.00,0.7003
3243.00,0.6993
3242.00,0.6983
3241.00,0.6972
3240.00,0.6961
3239.00,0.6949
3238.00,0.6935
3237.00,0.6922
3236.00,0.6909
3235.00,0.6896
3234.00,0.6884
3233.00,0.6871
3232.00,0.6857
3231.00,0.6843
3230.00,0.6829
3229.00,0.6815
3228.00,0.6799
3227.00,0.6783
3226.00,0.6767
3225.00,0.6752
3224.00,0.6737
3223.00,0.6722
3222.00,0.6705
3221.00,0.6689
3220.00,0.6673
3219.00,0.6659
3218.00,0.6645
3217.00,0.6630
3216.00,0.6614
3215.00,0.6599
3214.00,0.6584
3213.00,0.6569
3212.00,0.6555
3211.00,0.6540
3210.00,0.6526
3209.00,0.6512
3208.00,0.6500
3207.00,0.6488
3206.00,0.6476
3205.00,0.6464
3204.00,0.6452
3203.00,0.6441
3202.00,0.6429
3201.00,0.6418
3200.00,0.6406
3199.00,0.6394
3198.00,0.6382
3197.00,0.6370
3196.00,0.6358
3195.00,0.6347
3194.00,0.6335
3193.00,0.6324
3192.00,0.6314
3191.00,0.6304
3190.00,0.6294
3189.00,0.6282
3188.00,0.6270
3187.00,0.6257
3186.00,0.6244
3185.00,0.6231
3184.00,0.6219
3183.00,0.6207
3182.00,0.6195
3181.00,0.6182
3180.00,0.6169
3179.00,0.6157
3178.00,0.6144
3177.00,0.6132
3176.00,0.6120
3175.00,0.6107
3174.00,0.6095
3173.00,0.6083
3172.00,0.6070
3171.00,0.6058
3170.00,0.6045
3169.00,0.6033
3168.00,0.6022
3167.00,0.6011
3166.00,0.6000
3165.00,0.5990
3164.00,0.5980
3163.00,0.5970
3162.00,0.5960
3161.00,0.5950
3160.00,0.5941
3159.00,0.5931
3158.00,0.5922
3157.00,0.5913
3156.00,0.5904
3155.00,0.5895
3154.00,0.5887
3153.00,0.5879
3152.00,0.5871
3151.00,0.5862
3150.00,0.5853
3149.00,0.5845
3148.00,0.5837
3147.00,0.5829
3146.00,0.5822
3145.00,0.5815
3144.00,0.5808
3143.00,0.5802
3142.00,0.5796
3141.00,0.5790
3140.00,0.5784
3139.00,0.5778
3138.00,0.5772
3137.00,0.5767
3136.00,0.5762
3135.00,0.5757
3134.00,0.5753
3133.00,0.5748
3132.00,0.5744
3131.00,0.5740
3130.00,0.5736
3129.00,0.5733
3128.00,0.5729
3127.00,0.5727
3126.00,0.5725
3125.00,0.5724
3124.00,0.5722
3123.00,0.5721
3122.00,0.5720
3121.00,0.5720
3120.00,0.5719
3119.00,0.5719
3118.00,0.5720
3117.00,0.5721
3116.00,0.5724
3115.00,0.5726
3114.00,0.5729
3113.00,0.5732
3112.00,0.5735
3111.00,0.5740
3110.00,0.5746
3109.00,0.5753
3108.00,0.5762
3107.00,0.5772
3106.00,0.5783
3105.00,0.5795
3104.00,0.5807
3103.00,0.5820
3102.00,0.5833
3101.00,0.5847
3100.00,0.5859
3099.00,0.5871
3098.00,0.5882
3097.00,0.5892
3096.00,0.5901
3095.00,0.5910
3094.00,0.5919
3093.00,0.5930
3092.00,0.5942
3091.00,0.5956
3090.00,0.5970
3089.00,0.5985
3088.00,0.6003
3087.00,0.6023
3086.00,0.6046
3085.00,0.6071
3084.00,0.6098
3083.00,0.6126
3082.00,0.6156
3081.00,0.6188
3080.00,0.6221
3079.00,0.6255
3078.00,0.6290
3077.00,0.6327
3076.00,0.6364
3075.00,0.6401
3074.00,0.6439
3073.00,0.6475
3072.00,0.6511
3071.00,0.6546
3070.00,0.6581
3069.00,0.6617
3068.00,0.6654
3067.00,0.6693
3066.00,0.6732
3065.00,0.6772
3064.00,0.6811
3063.00,0.6850
3062.00,0.6887
3061.00,0.6922
3060.00,0.6955
3059.00,0.6986
3058.00,0.7015
3057.00,0.7043
3056.00,0.7072
3055.00,0.7102
3054.00,0.7133
3053.00,0.7166
3052.00,0.7201
3051.00,0.7237
3050.00,0.7276
3049.00,0.7319
3048.00,0.7364
3047.00,0.7410
3046.00,0.7455
3045.00,0.7498
3044.00,0.7540
3043.00,0.7579
3042.00,0.7616
3041.00,0.7652
3040.00,0.7691
3039.00,0.7733
3038.00,0.7776
3037.00,0.7823
3036.00,0.7873
3035.00,0.7929
3034.00,0.7989
3033.00,0.8054
3032.00,0.8121
3031.00,0.8189
3030.00,0.8256
3029.00,0.8324
3028.00,0.8392
3027.00,0.8462
3026.00,0.8535
3025.00,0.8611
3024.00,0.8693
3023.00,0.8778
3022.00,0.8866
3021.00,0.8955
3020.00,0.9046
3019.00,0.9141
3018.00,0.9241
3017.00,0.9344
3016.00,0.9449
3015.00,0.9555
3014.00,0.9664
3013.00,0.9777
3012.00,0.9896
3011.00,1.0022
3010.00,1.0156
3009.00,1.0299
3008.00,1.0450
3007.00,1.0610
3006.00,1.0779
3005.00,1.0955
3004.00,1.1140
3003.00,1.1332
3002.00,1.1535
3001.00,1.1747
3000.00,1.1972
2999.00,1.2210
2998.00,1.2464
2997.00,1.2734
2996.00,1.3022
2995.00,1.3331
2994.00,1.3664
2993.00,1.4023
2992.00,1.4412
2991.00,1.4836
2990.00,1.5301
2989.00,1.5814
2988.00,1.6377
2987.00,1.6993
2986.00,1.7668
2985.00,1.8406
2984.00,1.9218
2983.00,2.0118
2982.00,2.1118
2981.00,2.2226
2980.00,2.3450
2979.00,2.4807
2978.00,2.6298
2977.00,2.7895
2976.00,2.9600
2975.00,3.1518
2974.00,3.3831
2973.00,3.6410
2972.00,3.8465
2971.00,3.9617
2970.00,4.1045
2969.00,4.3934
2968.00,4.4055
2967.00,4.1896
2966.00,4.1294
2965.00,4.1397
2964.00,4.0332
2963.00,3.9296
2962.00,3.9621
2961.00,4.1358
2960.00,4.2234
2959.00,4.1609
2958.00,4.0785
2957.00,4.0862
2956.00,4.3073
2955.00,4.3726
2954.00,4.1005
2953.00,3.8835
2952.00,3.8172
2951.00,3.8463
2950.00,3.8862
2949.00,3.9554
2948.00,4.0385
2947.00,4.1530
2946.00,4.3179
2945.00,4.3263
2944.00,4.0936
2943.00,3.8617
2942.00,3.7435
2941.00,3.7568
2940.00,3.9880
2939.00,4.3420
2938.00,4.1491
2937.00,3.9213
2936.00,3.8346
2935.00,3.8766
2934.00,3.8858
2933.00,3.8921
2932.00,3.9042
2931.00,3.8625
2930.00,3.8244
2929.00,3.8152
2928.00,3.8863
2927.00,4.1372
2926.00,4.5783
2925.00,4.8819
2924.00,4.5530
2923.00,4.1341
2922.00,3.9366
2921.00,3.8182
2920.00,3.7993
2919.00,3.8510
2918.00,3.9532
2917.00,4.0300
2916.00,3.9410
2915.00,3.8598
2914.00,3.8773
2913.00,4.0546
2912.00,4.3877
2911.00,4.2375
2910.00,3.9395
2909.00,3.7793
2908.00,3.7939
2907.00,3.9208
2906.00,4.1407
2905.00,4.3305
2904.00,4.1632
2903.00,3.9612
2902.00,3.8775
2901.00,3.8976
2900.00,3.9991
2899.00,4.1637
2898.00,4.2982
2897.00,4.4111
2896.00,4.4953
2895.00,4.4975
2894.00,4.3499
2893.00,4.3011
2892.00,4.3891
2891.00,4.4296
2890.00,4.2966
2889.00,4.1402
2888.00,4.0534
2887.00,3.9901
2886.00,3.9293
2885.00,3.9278
2884.00,3.9997
2883.00,4.0437
2882.00,3.9785
2881.00,3.9053
2880.00,3.9045
2879.00,3.9785
2878.00,4.0931
2877.00,4.3042
2876.00,4.6188
2875.00,4.4690
2874.00,4.4592
2873.00,4.4598
2872.00,4.1512
2871.00,3.8698
2870.00,3.7329
2869.00,3.7415
2868.00,3.8215
2867.00,3.9904
2866.00,4.1964
2865.00,4.3486
2864.00,4.3418
2863.00,4.3359
2862.00,4.5214
2861.00,4.5271
2860.00,4.5244
2859.00,4.5765
2858.00,4.6312
2857.00,4.3866
2856.00,4.0351
2855.00,3.9068
2854.00,3.8322
2853.00,3.7931
2852.00,3.7782
2851.00,3.7716
2850.00,3.8329
2849.00,3.9640
2848.00,4.0635
2847.00,4.1313
2846.00,4.2516
2845.00,4.2534
2844.00,4.1836
2843.00,4.1474
2842.00,4.2703
2841.00,4.1461
2840.00,3.7078
2839.00,3.3847
2838.00,3.1404
2837.00,2.9424
2836.00,2.7630
2835.00,2.6002
2834.00,2.4533
2833.00,2.3196
2832.00,2.2003
2831.00,2.0949
2830.00,2.0010
2829.00,1.9156
2828.00,1.8372
2827.00,1.7658
2826.00,1.7008
2825.00,1.6416
2824.00,1.5872
2823.00,1.5374
2822.00,1.4917
2821.00,1.4492
2820.00,1.4096
2819.00,1.3726
2818.00,1.3383
2817.00,1.3063
2816.00,1.2763
2815.00,1.2480
2814.00,1.2213
2813.00,1.1960
2812.00,1.1718
2811.00,1.1486
2810.00,1.1265
2809.00,1.1054
2808.00,1.0852
2807.00,1.0658
2806.00,1.0470
2805.00,1.0289
2804.00,1.0113
2803.00,0.9944
2802.00,0.9781
2801.00,0.9625
2800.00,0.9475
2799.00,0.9331
2798.00,0.9194
2797.00,0.9061
2796.00,0.8933
2795.00,0.8811
2794.00,0.8694
2793.00,0.8582
2792.00,0.8475
2791.00,0.8371
2790.00,0.8271
2789.00,0.8175
2788.00,0.8081
2787.00,0.7991
2786.00,0.7903
2785.00,0.7815
2784.00,0.7728
2783.00,0.7643
2782.00,0.7561
2781.00,0.7480
2780.00,0.7401
2779.00,0.7325
2778.00,0.7251
2777.00,0.7182
2776.00,0.7117
2775.00,0.7057
2774.00,0.7000
2773.00,0.6948
2772.00,0.6900
2771.00,0.6858
2770.00,0.6819
2769.00,0.6782
2768.00,0.6749
2767.00,0.6720
2766.00,0.6695
2765.00,0.6673
2764.00,0.6654
2763.00,0.6637
2762.00,0.6622
2761.00,0.6609
2760.00,0.6597
2759.00,0.6587
2758.00,0.6577
2757.00,0.6570
2756.00,0.6563
2755.00,0.6557
2754.00,0.6553
2753.00,0.6550
2752.00,0.6548
2751.00,0.6548
2750.00,0.6551
2749.00,0.6554
2748.00,0.6559
2747.00,0.6565
2746.00,0.6573
2745.00,0.6584
2744.00,0.6597
2743.00,0.6613
2742.00,0.6633
2741.00,0.6656
2740.00,0.6682
2739.00,0.6714
2738.00,0.6749
2737.00,0.6788
2736.00,0.6831
2735.00,0.6875
2734.00,0.6919
2733.00,0.6962
2732.00,0.6998
2731.00,0.7023
2730.00,0.7033
2729.00,0.7027
2728.00,0.7005
2727.00,0.6971
2726.00,0.6928
2725.00,0.6883
2724.00,0.6836
2723.00,0.6792
2722.00,0.6752
2721.00,0.6715
2720.00,0.6682
2719.00,0.6650
2718.00,0.6621
2717.00,0.6591
2716.00,0.6562
2715.00,0.6532
2714.00,0.6501
2713.00,0.6470
2712.00,0.6440
2711.00,0.6411
2710.00,0.6384
2709.00,0.6359
2708.00,0.6337
2707.00,0.6319
2706.00,0.6304
2705.00,0.6293
2704.00,0.6284
2703.00,0.6279
2702.00,0.6276
2701.00,0.6277
2700.00,0.6280
2699.00,0.6286
2698.00,0.6295
2697.00,0.6307
2696.00,0.6322
2695.00,0.6338
2694.00,0.6356
2693.00,0.6375
2692.00,0.6396
2691.00,0.6418
2690.00,0.6439
2689.00,0.6459
2688.00,0.6478
2687.00,0.6494
2686.00,0.6508
2685.00,0.6520
2684.00,0.6529
2683.00,0.6534
2682.00,0.6537
2681.00,0.6537
2680.00,0.6536
2679.00,0.6534
2678.00,0.6531
2677.00,0.6530
2676.00,0.6529
2675.00,0.6528
2674.00,0.6525
2673.00,0.6520
2672.00,0.6512
2671.00,0.6502
2670.00,0.6489
2669.00,0.6475
2668.00,0.6458
2667.00,0.6438
2666.00,0.6415
2665.00,0.6389
2664.00,0.6361
2663.00,0.6334
2662.00,0.6307
2661.00,0.6282
2660.00,0.6257
2659.00,0.6234
2658.00,0.6213
2657.00,0.6192
2656.00,0.6173
2655.00,0.6155
2654.00,0.6137
2653.00,0.6120
2652.00,0.6104
2651.00,0.6089
2650.00,0.6073
2649.00,0.6057
2648.00,0.6040
2647.00,0.6024
2646.00,0.6008
2645.00,0.5992
2644.00,0.5975
2643.00,0.5959
2642.00,0.5944
2641.00,0.5929
2640.00,0.5916
2639.00,0.5903
2638.00,0.5891
2637.00,0.5880
2636.00,0.5870
2635.00,0.5860
2634.00,0.5850
2633.00,0.5839
2632.00,0.5828
2631.00,0.5818
2630.00,0.5807
2629.00,0.5797
2628.00,0.5786
2627.00,0.5775
2626.00,0.5764
2625.00,0.5752
2624.00,0.5740
2623.00,0.5728
2622.00,0.5716
2621.00,0.5704
2620.00,0.5691
2619.00,0.5678
2618.00,0.5666
2617.00,0.5654
2616.00,0.5643
2615.00,0.5632
2614.00,0.5621
2613.00,0.5610
2612.00,0.5599
2611.00,0.5588
2610.00,0.5578
2609.00,0.5568
2608.00,0.5558
2607.00,0.5549
2606.00,0.5541
2605.00,0.5532
2604.00,0.5523
2603.00,0.5513
2602.00,0.5502
2601.00,0.5490
2600.00,0.5477
2599.00,0.5464
2598.00,0.5449
2597.00,0.5434
2596.00,0.5418
2595.00,0.5402
2594.00,0.5386
2593.00,0.5370
2592.00,0.5353
2591.00,0.5337
2590.00,0.5321
2589.00,0.5305
2588.00,0.5290
2587.00,0.5275
2586.00,0.5260
2585.00,0.5246
2584.00,0.5231
2583.00,0.5216
2582.00,0.5200
2581.00,0.5184
2580.00,0.5169
2579.00,0.5154
2578.00,0.5139
2577.00,0.5124
2576.00,0.5110
2575.00,0.5096
2574.00,0.5084
2573.00,0.5072
2572.00,0.5059
2571.00,0.5047
2570.00,0.5035
2569.00,0.5022
2568.00,0.5009
2567.00,0.4997
2566.00,0.4985
2565.00,0.4973
2564.00,0.4961
2563.00,0.4947
2562.00,0.4932
2561.00,0.4917
2560.00,0.4903
2559.00,0.4889
2558.00,0.4875
2557.00,0.4862
2556.00,0.4850
2555.00,0.4837
2554.00,0.4824
2553.00,0.4812
2552.00,0.4801
2551.00,0.4791
2550.00,0.4781
2549.00,0.4771
2548.00,0.4762
2547.00,0.4753
2546.00,0.4744
2545.00,0.4736
2544.00,0.4729
2543.00,0.4721
2542.00,0.4714
2541.00,0.4707
2540.00,0.4700
2539.00,0.4694
2538.00,0.4688
2537.00,0.4682
2536.00,0.4676
2535.00,0.4670
2534.00,0.4664
2533.00,0.4657
2532.00,0.4649
2531.00,0.4640
2530.00,0.4630
2529.00,0.4620
2528.00,0.4609
2527.00,0.4598
2526.00,0.4587
2525.00,0.4575
2524.00,0.4562
2523.00,0.4550
2522.00,0.4539
2521.00,0.4528
2520.00,0.4517
2519.00,0.4507
2518.00,0.4497
2517.00,0.4487
2516.00,0.4477
2515.00,0.4467
2514.00,0.4458
2513.00,0.4449
2512.00,0.4440
2511.00,0.4431
2510.00,0.4424
2509.00,0.4417
2508.00,0.4412
2507.00,0.4406
2506.00,0.4402
2505.00,0.4398
2504.00,0.4395
2503.00,0.4393
2502.00,0.4392
2501.00,0.4391
2500.00,0.4390
2499.00,0.4389
2498.00,0.4388
2497.00,0.4386
2496.00,0.4384
2495.00,0.4381
2494.00,0.4378
2493.00,0.4374
2492.00,0.4370
2491.00,0.4364
2490.00,0.4357
2489.00,0.4350
2488.00,0.4343
2487.00,0.4335
2486.00,0.4326
2485.00,0.4318
2484.00,0.4310
2483.00,0.4302
2482.00,0.4294
2481.00,0.4287
2480.00,0.4281
2479.00,0.4274
2478.00,0.4267
2477.00,0.4260
2476.00,0.4254
2475.00,0.4248
2474.00,0.4241
2473.00,0.4236
2472.00,0.4231
2471.00,0.4227
2470.00,0.4224
2469.00,0.4221
2468.00,0.4217
2467.00,0.4214
2466.00,0.4211
2465.00,0.4208
2464.00,0.4205
2463.00,0.4202
2462.00,0.4199
2461.00,0.4196
2460.00,0.4192
2459.00,0.4189
2458.00,0.4186
2457.00,0.4184
2456.00,0.4181
2455.00,0.4179
2454.00,0.4177
2453.00,0.4175
2452.00,0.4174
2451.00,0.4173
2450.00,0.4172
2449.00,0.4171
2448.00,0.4170
2447.00,0.4170
2446.00,0.4169
2445.00,0.4169
2444.00,0.4169
2443.00,0.4169
2442.00,0.4169
2441.00,0.4169
2440.00,0.4169
2439.00,0.4169
2438.00,0.4169
2437.00,0.4169
2436.00,0.4169
2435.00,0.4170
2434.00,0.4170
2433.00,0.4170
2432.00,0.4170
2431.00,0.4170
2430.00,0.4171
2429.00,0.4171
2428.00,0.4172
2427.00,0.4172
2426.00,0.4172
2425.00,0.4174
2424.00,0.4175
2423.00,0.4177
2422.00,0.4178
2421.00,0.4179
2420.00,0.4180
2419.00,0.4181
2418.00,0.4183
2417.00,0.4184
2416.00,0.4185
2415.00,0.4186
2414.00,0.4187
2413.00,0.4188
2412.00,0.4189
2411.00,0.4190
2410.00,0.4190
2409.00,0.4191
2408.00,0.4191
2407.00,0.4191
2406.00,0.4191
2405.00,0.4191
2404.00,0.4191
2403.00,0.4192
2402.00,0.4192
2401.00,0.4193
2400.00,0.4194
2399.00,0.4194
2398.00,0.4194
2397.00,0.4194
2396.00,0.4194
2395.00,0.4194
2394.00,0.4195
2393.00,0.4195
2392.00,0.4195
2391.00,0.4196
2390.00,0.4197
2389.00,0.4199
2388.00,0.4201
2387.00,0.4204
2386.00,0.4207
2385.00,0.4211
2384.00,0.4215
2383.00,0.4219
2382.00,0.4223
2381.00,0.4227
2380.00,0.4230
2379.00,0.4233
2378.00,0.4235
2377.00,0.4236
2376.00,0.4236
2375.00,0.4235
2374.00,0.4234
2373.00,0.4233
2372.00,0.4233
2371.00,0.4233
2370.00,0.4234
2369.00,0.4235
2368.00,0.4235
2367.00,0.4236
2366.00,0.4237
2365.00,0.4238
2364.00,0.4239
2363.00,0.4239
2362.00,0.4238
2361.00,0.4238
2360.00,0.4237
2359.00,0.4237
2358.00,0.4237
2357.00,0.4238
2356.00,0.4239
2355.00,0.4241
2354.00,0.4243
2353.00,0.4245
2352.00,0.4245
2351.00,0.4243
2350.00,0.4241
2349.00,0.4238
2348.00,0.4236
2347.00,0.4233
2346.00,0.4230
2345.00,0.4225
2344.00,0.4222
2343.00,0.4220
2342.00,0.4219
2341.00,0.4218
2340.00,0.4217
2339.00,0.4216
2338.00,0.4215
2337.00,0.4214
2336.00,0.4212
2335.00,0.4210
2334.00,0.4207
2333.00,0.4204
2332.00,0.4201
2331.00,0.4197
2330.00,0.4191
2329.00,0.4186
2328.00,0.4180
2327.00,0.4174
2326.00,0.4170
2325.00,0.4166
2324.00,0.4163
2323.00,0.4159
2322.00,0.4155
2321.00,0.4150
2320.00,0.4144
2319.00,0.4139
2318.00,0.4134
2317.00,0.4131
2316.00,0.4128
2315.00,0.4126
2314.00,0.4123
2313.00,0.4119
2312.00,0.4115
2311.00,0.4109
2310.00,0.4104
2309.00,0.4097
2308.00,0.4091
2307.00,0.4085
2306.00,0.4080
2305.00,0.4075
2304.00,0.4071
2303.00,0.4067
2302.00,0.4063
2301.00,0.4059
2300.00,0.4056
2299.00,0.4053
2298.00,0.4050
2297.00,0.4046
2296.00,0.4042
2295.00,0.4038
2294.00,0.4032
2293.00,0.4027
2292.00,0.4021
2291.00,0.4016
2290.00,0.4011
2289.00,0.4005
2288.00,0.4000
2287.00,0.3995
2286.00,0.3990
2285.00,0.3984
2284.00,0.3980
2283.00,0.3975
2282.00,0.3971
2281.00,0.3968
2280.00,0.3964
2279.00,0.3961
2278.00,0.3957
2277.00,0.3954
2276.00,0.3951
2275.00,0.3949
2274.00,0.3946
2273.00,0.3944
2272.00,0.3942
2271.00,0.3941
2270.00,0.3939
2269.00,0.3938
2268.00,0.3937
2267.00,0.3936
2266.00,0.3935
2265.00,0.3934
2264.00,0.3932
2263.00,0.3930
2262.00,0.3928
2261.00,0.3925
2260.00,0.3922
2259.00,0.3918
2258.00,0.3914
2257.00,0.3910
2256.00,0.3906
2255.00,0.3901
2254.00,0.3896
2253.00,0.3893
2252.00,0.3889
2251.00,0.3886
2250.00,0.3883
2249.00,0.3879
2248.00,0.3876
2247.00,0.3873
2246.00,0.3871
2245.00,0.3868
2244.00,0.3866
2243.00,0.3864
2242.00,0.3862
2241.00,0.3860
2240.00,0.3858
2239.00,0.3856
2238.00,0.3853
2237.00,0.3851
2236.00,0.3849
2235.00,0.3846
2234.00,0.3844
2233.00,0.3842
2232.00,0.3840
2231.00,0.3838
2230.00,0.3836
2229.00,0.3834
2228.00,0.3832
2227.00,0.3829
2226.00,0.3826
2225.00,0.3824
2224.00,0.3821
2223.00,0.3819
2222.00,0.3817
2221.00,0.3816
2220.00,0.3815
2219.00,0.3814
2218.00,0.3813
2217.00,0.3812
2216.00,0.3812
2215.00,0.3811
2214.00,0.3810
2213.00,0.3810
2212.00,0.3810
2211.00,0.3810
2210.00,0.3809
2209.00,0.3809
2208.00,0.3809
2207.00,0.3808
2206.00,0.3808
2205.00,0.3808
2204.00,0.3808
2203.00,0.3808
2202.00,0.3807
2201.00,0.3808
2200.00,0.3808
2199.00,0.3809
2198.00,0.3809
2197.00,0.3810
2196.00,0.3809
2195.00,0.3809
2194.00,0.3809
2193.00,0.3809
2192.00,0.3809
2191.00,0.3809
2190.00,0.3810
2189.00,0.3811
2188.00,0.3812
2187.00,0.3812
2186.00,0.3811
2185.00,0.3812
2184.00,0.3812
2183.00,0.3812
2182.00,0.3811
2181.00,0.3810
2180.00,0.3809
2179.00,0.3809
2178.00,0.3808
2177.00,0.3807
2176.00,0.3807
2175.00,0.3806
2174.00,0.3805
2173.00,0.3805
2172.00,0.3805
2171.00,0.3805
2170.00,0.3805
2169.00,0.3805
2168.00,0.3805
2167.00,0.3805
2166.00,0.3805
2165.00,0.3805
2164.00,0.3806
2163.00,0.3806
2162.00,0.3806
2161.00,0.3805
2160.00,0.3804
2159.00,0.3802
2158.00,0.3801
2157.00,0.3800
2156.00,0.3799
2155.00,0.3798
2154.00,0.3798
2153.00,0.3797
2152.00,0.3796
2151.00,0.3795
2150.00,0.3793
2149.00,0.3790
2148.00,0.3786
2147.00,0.3782
2146.00,0.3776
2145.00,0.3771
2144.00,0.3765
2143.00,0.3759
2142.00,0.3752
2141.00,0.3745
2140.00,0.3738
2139.00,0.3731
2138.00,0.3726
2137.00,0.3721
2136.00,0.3716
2135.00,0.3712
2134.00,0.3707
2133.00,0.3704
2132.00,0.3700
2131.00,0.3696
2130.00,0.3693
2129.00,0.3691
2128.00,0.3688
2127.00,0.3685
2126.00,0.3683
2125.00,0.3680
2124.00,0.3678
2123.00,0.3676
2122.00,0.3675
2121.00,0.3674
2120.00,0.3672
2119.00,0.3670
2118.00,0.3669
2117.00,0.3667
2116.00,0.3667
2115.00,0.3666
2114.00,0.3666
2113.00,0.3665
2112.00,0.3665
2111.00,0.3664
2110.00,0.3663
2109.00,0.3663
2108.00,0.3662
2107.00,0.3661
2106.00,0.3660
2105.00,0.3660
2104.00,0.3659
2103.00,0.3660
2102.00,0.3660
2101.00,0.3660
2100.00,0.3659
2099.00,0.3657
2098.00,0.3655
2097.00,0.3654
2096.00,0.3653
2095.00,0.3653
2094.00,0.3653
2093.00,0.3653
2092.00,0.3653
2091.00,0.3652
2090.00,0.3650
2089.00,0.3649
2088.00,0.3649
2087.00,0.3649
2086.00,0.3649
2085.00,0.3649
2084.00,0.3649
2083.00,0.3649
2082.00,0.3649
2081.00,0.3650
2080.00,0.3650
2079.00,0.3651
2078.00,0.3651
2077.00,0.3652
2076.00,0.3652
2075.00,0.3653
2074.00,0.3653
2073.00,0.3654
2072.00,0.3656
2071.00,0.3657
2070.00,0.3658
2069.00,0.3659
2068.00,0.3661
2067.00,0.3661
2066.00,0.3662
2065.00,0.3664
2064.00,0.3666
2063.00,0.3669
2062.00,0.3671
2061.00,0.3673
2060.00,0.3676
2059.00,0.3678
2058.00,0.3680
2057.00,0.3682
2056.00,0.3684
2055.00,0.3685
2054.00,0.3687
2053.00,0.3689
2052.00,0.3691
2051.00,0.3693
2050.00,0.3696
2049.00,0.3699
2048.00,0.3702
2047.00,0.3704
2046.00,0.3706
2045.00,0.3709
2044.00,0.3711
2043.00,0.3713
2042.00,0.3715
2041.00,0.3718
2040.00,0.3721
2039.00,0.3724
2038.00,0.3727
2037.00,0.3729
2036.00,0.3731
2035.00,0.3733
2034.00,0.3735
2033.00,0.3737
2032.00,0.3739
2031.00,0.3740
2030.00,0.3741
2029.00,0.3742
2028.00,0.3743
2027.00,0.3744
2026.00,0.3744
2025.00,0.3743
2024.00,0.3742
2023.00,0.3739
2022.00,0.3735
2021.00,0.3730
2020.00,0.3722
2019.00,0.3713
2018.00,0.3703
2017.00,0.3694
2016.00,0.3685
2015.00,0.3676
2014.00,0.3666
2013.00,0.3657
2012.00,0.3647
2011.00,0.3637
2010.00,0.3628
2009.00,0.3620
2008.00,0.3613
2007.00,0.3607
2006.00,0.3601
2005.00,0.3596
2004.00,0.3592
2003.00,0.3588
2002.00,0.3585
2001.00,0.3583
2000.00,0.3581
1999.00,0.3580
1998.00,0.3579
1997.00,0.3578
1996.00,0.3577
1995.00,0.3575
1994.00,0.3572
1993.00,0.3570
1992.00,0.3570
1991.00,0.3570
1990.00,0.3569
1989.00,0.3569
1988.00,0.3568
1987.00,0.3567
1986.00,0.3567
1985.00,0.3567
1984.00,0.3566
1983.00,0.3564
1982.00,0.3562
1981.00,0.3560
1980.00,0.3557
1979.00,0.3555
1978.00,0.3553
1977.00,0.3552
1976.00,0.3551
1975.00,0.3550
1974.00,0.3550
1973.00,0.3549
1972.00,0.3549
1971.00,0.3548
1970.00,0.3546
1969.00,0.3544
1968.00,0.3542
1967.00,0.3543
1966.00,0.3544
1965.00,0.3548
1964.00,0.3550
1963.00,0.3552
1962.00,0.3553
1961.00,0.3555
1960.00,0.3557
1959.00,0.3560
1958.00,0.3562
1957.00,0.3563
1956.00,0.3565
1955.00,0.3567
1954.00,0.3569
1953.00,0.3571
1952.00,0.3571
1951.00,0.3570
1950.00,0.3567
1949.00,0.3565
1948.00,0.3562
1947.00,0.3560
1946.00,0.3559
1945.00,0.3558
1944.00,0.3559
1943.00,0.3562
1942.00,0.3568
1941.00,0.3575
1940.00,0.3583
1939.00,0.3589
1938.00,0.3594
1937.00,0.3600
1936.00,0.3605
1935.00,0.3609
1934.00,0.3612
1933.00,0.3614
1932.00,0.3615
1931.00,0.3614
1930.00,0.3612
1929.00,0.3609
1928.00,0.3604
1927.00,0.3597
1926.00,0.3590
1925.00,0.3582
1924.00,0.3577
1923.00,0.3574
1922.00,0.3575
1921.00,0.3578
1920.00,0.3582
1919.00,0.3586
1918.00,0.3589
1917.00,0.3592
1916.00,0.3595
1915.00,0.3596
1914.00,0.3597
1913.00,0.3597
1912.00,0.3597
1911.00,0.3597
1910.00,0.3597
1909.00,0.3599
1908.00,0.3601
1907.00,0.3603
1906.00,0.3604
1905.00,0.3603
1904.00,0.3602
1903.00,0.3600
1902.00,0.3597
1901.00,0.3594
1900.00,0.3592
1899.00,0.3589
1898.00,0.3586
1897.00,0.3583
1896.00,0.3580
1895.00,0.3578
1894.00,0.3578
1893.00,0.3579
1892.00,0.3579
1891.00,0.3579
1890.00,0.3580
1889.00,0.3582
1888.00,0.3586
1887.00,0.3587
1886.00,0.3588
1885.00,0.3588
1884.00,0.3588
1883.00,0.3589
1882.00,0.3590
1881.00,0.3591
1880.00,0.3591
1879.00,0.3591
1878.00,0.3590
1877.00,0.3590
1876.00,0.3590
1875.00,0.3588
1874.00,0.3585
1873.00,0.3581
1872.00,0.3576
1871.00,0.3569
1870.00,0.3562
1869.00,0.3555
1868.00,0.3553
1867.00,0.3552
1866.00,0.3552
1865.00,0.3551
1864.00,0.3549
1863.00,0.3547
1862.00,0.3545
1861.00,0.3543
1860.00,0.3543
1859.00,0.3542
1858.00,0.3541
1857.00,0.3541
1856.00,0.3540
1855.00,0.3538
1854.00,0.3535
1853.00,0.3532
1852.00,0.3528
1851.00,0.3523
1850.00,0.3517
1849.00,0.3511
1848.00,0.3506
1847.00,0.3502
1846.00,0.3501
1845.00,0.3503
1844.00,0.3505
1843.00,0.3505
1842.00,0.3502
1841.00,0.3500
1840.00,0.3497
1839.00,0.3494
1838.00,0.3491
1837.00,0.3489
1836.00,0.3489
1835.00,0.3489
1834.00,0.3487
1833.00,0.3485
1832.00,0.3483
1831.00,0.3480
1830.00,0.3478
1829.00,0.3478
1828.00,0.3479
1827.00,0.3478
1826.00,0.3477
1825.00,0.3476
1824.00,0.3477
1823.00,0.3476
1822.00,0.3476
1821.00,0.3475
1820.00,0.3475
1819.00,0.3474
1818.00,0.3474
1817.00,0.3474
1816.00,0.3475
1815.00,0.3475
1814.00,0.3474
1813.00,0.3472
1812.00,0.3471
1811.00,0.3471
1810.00,0.3474
1809.00,0.3478
1808.00,0.3482
1807.00,0.3485
1806.00,0.3488
1805.00,0.3490
1804.00,0.3493
1803.00,0.3494
1802.00,0.3495
1801.00,0.3499
1800.00,0.3504
1799.00,0.3508
1798.00,0.3511
1797.00,0.3512
1796.00,0.3514
1795.00,0.3517
1794.00,0.3521
1793.00,0.3528
1792.00,0.3536
1791.00,0.3545
1790.00,0.3552
1789.00,0.3557
1788.00,0.3562
1787.00,0.3567
1786.00,0.3573
1785.00,0.3580
1784.00,0.3586
1783.00,0.3591
1782.00,0.3595
1781.00,0.3600
1780.00,0.3608
1779.00,0.3616
1778.00,0.3623
1777.00,0.3628
1776.00,0.3630
1775.00,0.3631
1774.00,0.3633
1773.00,0.3638
1772.00,0.3646
1771.00,0.3656
1770.00,0.3663
1769.00,0.3667
1768.00,0.3670
1767.00,0.3671
1766.00,0.3670
1765.00,0.3670
1764.00,0.3672
1763.00,0.3674
1762.00,0.3677
1761.00,0.3682
1760.00,0.3686
1759.00,0.3689
1758.00,0.3694
1757.00,0.3702
1756.00,0.3710
1755.00,0.3716
1754.00,0.3720
1753.00,0.3725
1752.00,0.3730
1751.00,0.3736
1750.00,0.3744
1749.00,0.3755
1748.00,0.3768
1747.00,0.3782
1746.00,0.3794
1745.00,0.3807
1744.00,0.3821
1743.00,0.3837
1742.00,0.3853
1741.00,0.3870
1740.00,0.3885
1739.00,0.3897
1738.00,0.3904
1737.00,0.3910
1736.00,0.3917
1735.00,0.3923
1734.00,0.3928
1733.00,0.3935
1732.00,0.3942
1731.00,0.3949
1730.00,0.3957
1729.00,0.3968
1728.00,0.3980
1727.00,0.3992
1726.00,0.4004
1725.00,0.4020
1724.00,0.4039
1723.00,0.4061
1722.00,0.4085
1721.00,0.4109
1720.00,0.4129
1719.00,0.4146
1718.00,0.4165
1717.00,0.4195
1716.00,0.4232
1715.00,0.4268
1714.00,0.4299
1713.00,0.4323
1712.00,0.4345
1711.00,0.4365
1710.00,0.4387
1709.00,0.4410
1708.00,0.4431
1707.00,0.4451
1706.00,0.4469
1705.00,0.4483
1704.00,0.4492
1703.00,0.4495
1702.00,0.4493
1701.00,0.4475
1700.00,0.4432
1699.00,0.4377
1698.00,0.4328
1697.00,0.4292
1696.00,0.4270
1695.00,0.4255
1694.00,0.4243
1693.00,0.4233
1692.00,0.4225
1691.00,0.4217
1690.00,0.4211
1689.00,0.4207
1688.00,0.4201
1687.00,0.4191
1686.00,0.4178
1685.00,0.4165
1684.00,0.4159
1683.00,0.4157
1682.00,0.4150
1681.00,0.4141
1680.00,0.4133
1679.00,0.4130
1678.00,0.4133
1677.00,0.4141
1676.00,0.4149
1675.00,0.4153
1674.00,0.4153
1673.00,0.4150
1672.00,0.4150
1671.00,0.4153
1670.00,0.4161
1669.00,0.4174
1668.00,0.4185
1667.00,0.4192
1666.00,0.4197
1665.00,0.4204
1664.00,0.4214
1663.00,0.4224
1662.00,0.4237
1661.00,0.4250
1660.00,0.4261
1659.00,0.4270
1658.00,0.4279
1657.00,0.4288
1656.00,0.4295
1655.00,0.4303
1654.00,0.4315
1653.00,0.4343
1652.00,0.4370
1651.00,0.4381
1650.00,0.4388
1649.00,0.4394
1648.00,0.4402
1647.00,0.4419
1646.00,0.4448
1645.00,0.4474
1644.00,0.4493
1643.00,0.4507
1642.00,0.4521
1641.00,0.4537
1640.00,0.4554
1639.00,0.4569
1638.00,0.4586
1637.00,0.4611
1636.00,0.4651
1635.00,0.4699
1634.00,0.4739
1633.00,0.4770
1632.00,0.4800
1631.00,0.4832
1630.00,0.4870
1629.00,0.4915
1628.00,0.4968
1627.00,0.5023
1626.00,0.5081
1625.00,0.5146
1624.00,0.5220
1623.00,0.5302
1622.00,0.5389
1621.00,0.5475
1620.00,0.5560
1619.00,0.5648
1618.00,0.5754
1617.00,0.5892
1616.00,0.6054
1615.00,0.6218
1614.00,0.6379
1613.00,0.6551
1612.00,0.6746
1611.00,0.6960
1610.00,0.7184
1609.00,0.7410
1608.00,0.7633
1607.00,0.7842
1606.00,0.8040
1605.00,0.8250
1604.00,0.8491
1603.00,0.8775
1602.00,0.9113
1601.00,0.9514
1600.00,0.9978
1599.00,1.0491
1598.00,1.1058
1597.00,1.1715
1596.00,1.2504
1595.00,1.3425
1594.00,1.4473
1593.00,1.5677
1592.00,1.7087
1591.00,1.8705
1590.00,2.0517
1589.00,2.2675
1588.00,2.5451
1587.00,2.8837
1586.00,3.1891
1585.00,3.4881
1584.00,4.0810
1583.00,4.7368
1582.00,4.1007
1581.00,4.0499
1580.00,4.0604
1579.00,3.6658
1578.00,3.8681
1577.00,4.0443
1576.00,3.6558
1575.00,3.8592
1574.00,3.7620
1573.00,3.3213
1572.00,3.1223
1571.00,2.8734
1570.00,2.6336
1569.00,2.5048
1568.00,2.4791
1567.00,2.5163
1566.00,2.5936
1565.00,2.7397
1564.00,3.0017
1563.00,3.3475
1562.00,3.5655
1561.00,3.8140
1560.00,4.0215
1559.00,3.7661
1558.00,3.2432
1557.00,2.8509
1556.00,2.5671
1555.00,2.2761
1554.00,2.0189
1553.00,1.8226
1552.00,1.6694
1551.00,1.5389
1550.00,1.4261
1549.00,1.3362
1548.00,1.2682
1547.00,1.2139
1546.00,1.1674
1545.00,1.1281
1544.00,1.0966
1543.00,1.0710
1542.00,1.0481
1541.00,1.0269
1540.00,1.0084
1539.00,0.9924
1538.00,0.9786
1537.00,0.9676
1536.00,0.9586
1535.00,0.9492
1534.00,0.9393
1533.00,0.9317
1532.00,0.9282
1531.00,0.9277
1530.00,0.9292
1529.00,0.9320
1528.00,0.9339
1527.00,0.9315
1526.00,0.9232
1525.00,0.9111
1524.00,0.8982
1523.00,0.8857
1522.00,0.8751
1521.00,0.8688
1520.00,0.8669
1519.00,0.8669
1518.00,0.8671
1517.00,0.8668
1516.00,0.8647
1515.00,0.8587
1514.00,0.8479
1513.00,0.8331
1512.00,0.8161
1511.00,0.7984
1510.00,0.7819
1509.00,0.7677
1508.00,0.7562
1507.00,0.7491
1506.00,0.7467
1505.00,0.7464
1504.00,0.7471
1503.00,0.7485
1502.00,0.7506
1501.00,0.7542
1500.00,0.7596
1499.00,0.7666
1498.00,0.7763
1497.00,0.7912
1496.00,0.8125
1495.00,0.8390
1494.00,0.8709
1493.00,0.9110
1492.00,0.9612
1491.00,1.0150
1490.00,1.0554
1489.00,1.0669
1488.00,1.0534
1487.00,1.0327
1486.00,1.0201
1485.00,1.0214
1484.00,1.0355
1483.00,1.0590
1482.00,1.0914
1481.00,1.1335
1480.00,1.1849
1479.00,1.2452
1478.00,1.3176
1477.00,1.4081
1476.00,1.5196
1475.00,1.6523
1474.00,1.8137
1473.00,2.0236
1472.00,2.2992
1471.00,2.6313
1470.00,2.9852
1469.00,3.3524
1468.00,3.7604
1467.00,3.9691
1466.00,3.8814
1465.00,3.8900
1464.00,4.2002
1463.00,4.4608
1462.00,4.0407
1461.00,4.2108
1460.00,4.7180
1459.00,4.1256
1458.00,3.8465
1457.00,3.9639
1456.00,4.4082
1455.00,4.4613
1454.00,4.1882
1453.00,3.7403
1452.00,3.5457
1451.00,3.5795
1450.00,3.7445
1449.00,3.8083
1448.00,3.7135
1447.00,3.8332
1446.00,4.4074
1445.00,4.3290
1444.00,3.8600
1443.00,3.5503
1442.00,3.3047
1441.00,3.1373
1440.00,2.9749
1439.00,2.7835
1438.00,2.5847
1437.00,2.3952
1436.00,2.2213
1435.00,2.0685
1434.00,1.9361
1433.00,1.8159
1432.00,1.7019
1431.00,1.5947
1430.00,1.4990
1429.00,1.4180
1428.00,1.3529
1427.00,1.3025
1426.00,1.2645
1425.00,1.2372
1424.00,1.2198
1423.00,1.2118
1422.00,1.2121
1421.00,1.2206
1420.00,1.2391
1419.00,1.2690
1418.00,1.3094
1417.00,1.3584
1416.00,1.4155
1415.00,1.4793
1414.00,1.5461
1413.00,1.6097
1412.00,1.6609
1411.00,1.6884
1410.00,1.6852
1409.00,1.6538
1408.00,1.5998
1407.00,1.5290
1406.00,1.4478
1405.00,1.3635
1404.00,1.2822
1403.00,1.2086
1402.00,1.1441
1401.00,1.0874
1400.00,1.0372
1399.00,0.9944
1398.00,0.9602
1397.00,0.9338
1396.00,0.9130
1395.00,0.8959
1394.00,0.8821
1393.00,0.8722
1392.00,0.8677
1391.00,0.8696
1390.00,0.8791
1389.00,0.8982
1388.00,0.9299
1387.00,0.9763
1386.00,1.0367
1385.00,1.1104
1384.00,1.2003
1383.00,1.3120
1382.00,1.4498
1381.00,1.6144
1380.00,1.7994
1379.00,1.9764
1378.00,2.0802
1377.00,2.0588
1376.00,1.9416
1375.00,1.7891
1374.00,1.6426
1373.00,1.5225
1372.00,1.4327
1371.00,1.3682
1370.00,1.3227
1369.00,1.2915
1368.00,1.2699
1367.00,1.2511
1366.00,1.2275
1365.00,1.1944
1364.00,1.1516
1363.00,1.1039
1362.00,1.0581
1361.00,1.0193
1360.00,0.9889
1359.00,0.9661
1358.00,0.9496
1357.00,0.9387
1356.00,0.9332
1355.00,0.9325
1354.00,0.9355
1353.00,0.9406
1352.00,0.9471
1351.00,0.9549
1350.00,0.9656
1349.00,0.9818
1348.00,1.0059
1347.00,1.0382
1346.00,1.0731
1345.00,1.0997
1344.00,1.1062
1343.00,1.0886
1342.00,1.0528
1341.00,1.0091
1340.00,0.9651
1339.00,0.9247
1338.00,0.8888
1337.00,0.8573
1336.00,0.8298
1335.00,0.8062
1334.00,0.7861
1333.00,0.7693
1332.00,0.7555
1331.00,0.7446
1330.00,0.7365
1329.00,0.7311
1328.00,0.7283
1327.00,0.7277
1326.00,0.7283
1325.00,0.7294
1324.00,0.7301
1323.00,0.7303
1322.00,0.7303
1321.00,0.7304
1320.00,0.7310
1319.00,0.7326
1318.00,0.7351
1317.00,0.7385
1316.00,0.7429
1315.00,0.7483
1314.00,0.7548
1313.00,0.7626
1312.00,0.7716
1311.00,0.7817
1310.00,0.7925
1309.00,0.8032
1308.00,0.8130
1307.00,0.8207
1306.00,0.8254
1305.00,0.8272
1304.00,0.8272
1303.00,0.8267
1302.00,0.8266
1301.00,0.8272
1300.00,0.8285
1299.00,0.8299
1298.00,0.8305
1297.00,0.8300
1296.00,0.8287
1295.00,0.8273
1294.00,0.8261
1293.00,0.8248
1292.00,0.8220
1291.00,0.8161
1290.00,0.8063
1289.00,0.7932
1288.00,0.7785
1287.00,0.7642
1286.00,0.7517
1285.00,0.7419
1284.00,0.7358
1283.00,0.7341
1282.00,0.7374
1281.00,0.7456
1280.00,0.7565
1279.00,0.7653
1278.00,0.7660
1277.00,0.7553
1276.00,0.7351
1275.00,0.7111
1274.00,0.6887
1273.00,0.6710
1272.00,0.6589
1271.00,0.6515
1270.00,0.6474
1269.00,0.6448
1268.00,0.6423
1267.00,0.6392
1266.00,0.6355
1265.00,0.6319
1264.00,0.6288
1263.00,0.6265
1262.00,0.6248
1261.00,0.6236
1260.00,0.6227
1259.00,0.6222
1258.00,0.6222
1257.00,0.6225
1256.00,0.6234
1255.00,0.6251
1254.00,0.6278
1253.00,0.6306
1252.00,0.6323
1251.00,0.6318
1250.00,0.6288
1249.00,0.6242
1248.00,0.6191
1247.00,0.6147
1246.00,0.6114
1245.00,0.6096
1244.00,0.6095
1243.00,0.6108
1242.00,0.6123
1241.00,0.6118
1240.00,0.6084
1239.00,0.6028
1238.00,0.5973
1237.00,0.5944
1236.00,0.5956
1235.00,0.6011
1234.00,0.6104
1233.00,0.6222
1232.00,0.6350
1231.00,0.6469
1230.00,0.6560
1229.00,0.6608
1228.00,0.6606
1227.00,0.6558
1226.00,0.6475
1225.00,0.6371
1224.00,0.6260
1223.00,0.6154
1222.00,0.6056
1221.00,0.5971
1220.00,0.5899
1219.00,0.5842
1218.00,0.5799
1217.00,0.5771
1216.00,0.5758
1215.00,0.5759
1214.00,0.5769
1213.00,0.5782
1212.00,0.5792
1211.00,0.5797
1210.00,0.5792
1209.00,0.5776
1208.00,0.5753
1207.00,0.5730
1206.00,0.5719
1205.00,0.5731
1204.00,0.5779
1203.00,0.5873
1202.00,0.6020
1201.00,0.6209
1200.00,0.6420
1199.00,0.6624
1198.00,0.6805
1197.00,0.6976
1196.00,0.7162
1195.00,0.7378
1194.00,0.7618
1193.00,0.7861
1192.00,0.8078
1191.00,0.8236
1190.00,0.8306
1189.00,0.8270
1188.00,0.8129
1187.00,0.7900
1186.00,0.7608
1185.00,0.7281
1184.00,0.6943
1183.00,0.6617
1182.00,0.6319
1181.00,0.6060
1180.00,0.5848
1179.00,0.5680
1178.00,0.5552
1177.00,0.5456
1176.00,0.5387
1175.00,0.5340
1174.00,0.5313
1173.00,0.5302
1172.00,0.5305
1171.00,0.5317
1170.00,0.5334
1169.00,0.5352
1168.00,0.5374
1167.00,0.5404
1166.00,0.5449
1165.00,0.5517
1164.00,0.5615
1163.00,0.5744
1162.00,0.5884
1161.00,0.5992
1160.00,0.6021
1159.00,0.5959
1158.00,0.5835
1157.00,0.5699
1156.00,0.5590
1155.00,0.5517
1154.00,0.5470
1153.00,0.5438
1152.00,0.5414
1151.00,0.5394
1150.00,0.5378
1149.00,0.5366
1148.00,0.5357
1147.00,0.5353
1146.00,0.5354
1145.00,0.5358
1144.00,0.5368
1143.00,0.5389
1142.00,0.5424
1141.00,0.5475
1140.00,0.5545
1139.00,0.5635
1138.00,0.5746
1137.00,0.5876
1136.00,0.6021
1135.00,0.6173
1134.00,0.6312
1133.00,0.6414
1132.00,0.6465
1131.00,0.6467
1130.00,0.6443
1129.00,0.6426
1128.00,0.6447
1127.00,0.6513
1126.00,0.6600
1125.00,0.6659
1124.00,0.6646
1123.00,0.6553
1122.00,0.6413
1121.00,0.6276
1120.00,0.6181
1119.00,0.6144
1118.00,0.6163
1117.00,0.6228
1116.00,0.6320
1115.00,0.6408
1114.00,0.6454
1113.00,0.6431
1112.00,0.6340
1111.00,0.6205
1110.00,0.6063
1109.00,0.5942
1108.00,0.5858
1107.00,0.5816
1106.00,0.5815
1105.00,0.5853
1104.00,0.5927
1103.00,0.6034
1102.00,0.6167
1101.00,0.6310
1100.00,0.6431
1099.00,0.6488
1098.00,0.6454
1097.00,0.6337
1096.00,0.6183
1095.00,0.6037
1094.00,0.5926
1093.00,0.5852
1092.00,0.5808
1091.00,0.5784
1090.00,0.5774
1089.00,0.5776
1088.00,0.5792
1087.00,0.5824
1086.00,0.5870
1085.00,0.5929
1084.00,0.5999
1083.00,0.6080
1082.00,0.6168
1081.00,0.6255
1080.00,0.6332
1079.00,0.6391
1078.00,0.6424
1077.00,0.6425
1076.00,0.6395
1075.00,0.6337
1074.00,0.6257
1073.00,0.6166
1072.00,0.6072
1071.00,0.5983
1070.00,0.5896
1069.00,0.5809
1068.00,0.5723
1067.00,0.5641
1066.00,0.5568
1065.00,0.5505
1064.00,0.5453
1063.00,0.5412
1062.00,0.5382
1061.00,0.5356
1060.00,0.5333
1059.00,0.5307
1058.00,0.5279
1057.00,0.5245
1056.00,0.5208
1055.00,0.5170
1054.00,0.5131
1053.00,0.5092
1052.00,0.5054
1051.00,0.5022
1050.00,0.4997
1049.00,0.4979
1048.00,0.4967
1047.00,0.4959
1046.00,0.4952
1045.00,0.4942
1044.00,0.4932
1043.00,0.4925
1042.00,0.4924
1041.00,0.4925
1040.00,0.4929
1039.00,0.4932
1038.00,0.4936
1037.00,0.4940
1036.00,0.4948
1035.00,0.4966
1034.00,0.4999
1033.00,0.5045
1032.00,0.5107
1031.00,0.5185
1030.00,0.5276
1029.00,0.5373
1028.00,0.5466
1027.00,0.5537
1026.00,0.5566
1025.00,0.5532
1024.00,0.5431
1023.00,0.5281
1022.00,0.5116
1021.00,0.4966
1020.00,0.4850
1019.00,0.4769
1018.00,0.4716
1017.00,0.4679
1016.00,0.4651
1015.00,0.4628
1014.00,0.4609
1013.00,0.4596
1012.00,0.4599
1011.00,0.4633
1010.00,0.4704
1009.00,0.4794
1008.00,0.4863
1007.00,0.4879
1006.00,0.4841
1005.00,0.4781
1004.00,0.4728
1003.00,0.4695
1002.00,0.4679
1001.00,0.4674
1000.00,0.4674
999.00,0.4675
998.00,0.4673
997.00,0.4662
996.00,0.4645
995.00,0.4621
994.00,0.4596
993.00,0.4573
992.00,0.4554
991.00,0.4543
990.00,0.4538
989.00,0.4532
988.00,0.4514
987.00,0.4480
986.00,0.4434
985.00,0.4389
984.00,0.4361
983.00,0.4358
982.00,0.4381
981.00,0.4430
980.00,0.4500
979.00,0.4592
978.00,0.4702
977.00,0.4833
976.00,0.4989
975.00,0.5174
974.00,0.5391
973.00,0.5642
972.00,0.5928
971.00,0.6250
970.00,0.6596
969.00,0.6943
968.00,0.7253
967.00,0.7480
966.00,0.7588
965.00,0.7572
964.00,0.7461
963.00,0.7296
962.00,0.7121
961.00,0.6974
960.00,0.6885
959.00,0.6874
958.00,0.6940
957.00,0.7065
956.00,0.7218
955.00,0.7365
954.00,0.7480
953.00,0.7549
952.00,0.7572
951.00,0.7561
950.00,0.7534
949.00,0.7513
948.00,0.7514
947.00,0.7547
946.00,0.7613
945.00,0.7706
944.00,0.7813
943.00,0.7919
942.00,0.8006
941.00,0.8062
940.00,0.8080
939.00,0.8058
938.00,0.8000
937.00,0.7911
936.00,0.7797
935.00,0.7664
934.00,0.7516
933.00,0.7353
932.00,0.7176
931.00,0.6989
930.00,0.6794
929.00,0.6597
928.00,0.6407
927.00,0.6232
926.00,0.6082
925.00,0.5963
924.00,0.5877
923.00,0.5819
922.00,0.5777
921.00,0.5733
920.00,0.5668
919.00,0.5573
918.00,0.5450
917.00,0.5317
916.00,0.5189
915.00,0.5077
914.00,0.4985
913.00,0.4911
912.00,0.4855
911.00,0.4817
910.00,0.4797
909.00,0.4795
908.00,0.4815
907.00,0.4863
906.00,0.4940
905.00,0.5037
904.00,0.5131
903.00,0.5194
902.00,0.5206
901.00,0.5174
900.00,0.5119
899.00,0.5059
898.00,0.5005
897.00,0.4959
896.00,0.4926
895.00,0.4908
894.00,0.4905
893.00,0.4914
892.00,0.4932
891.00,0.4952
890.00,0.4968
889.00,0.4969
888.00,0.4950
887.00,0.4909
886.00,0.4848
885.00,0.4774
884.00,0.4698
883.00,0.4629
882.00,0.4575
881.00,0.4536
880.00,0.4508
879.00,0.4489
878.00,0.4473
877.00,0.4460
876.00,0.4453
875.00,0.4451
874.00,0.4452
873.00,0.4452
872.00,0.4453
871.00,0.4456
870.00,0.4462
869.00,0.4473
868.00,0.4493
867.00,0.4526
866.00,0.4575
865.00,0.4639
864.00,0.4713
863.00,0.4783
862.00,0.4832
861.00,0.4841
860.00,0.4802
859.00,0.4723
858.00,0.4623
857.00,0.4522
856.00,0.4435
855.00,0.4366
854.00,0.4315
853.00,0.4278
852.00,0.4251
851.00,0.4232
850.00,0.4219
849.00,0.4210
848.00,0.4207
847.00,0.4210
846.00,0.4217
845.00,0.4228
844.00,0.4245
843.00,0.4270
842.00,0.4310
841.00,0.4373
840.00,0.4465
839.00,0.4589
838.00,0.4736
837.00,0.4882
836.00,0.4994
835.00,0.5042
834.00,0.5020
833.00,0.4951
832.00,0.4879
831.00,0.4838
830.00,0.4848
829.00,0.4900
828.00,0.4971
827.00,0.5030
826.00,0.5058
825.00,0.5056
824.00,0.5042
823.00,0.5028
822.00,0.5015
821.00,0.4996
820.00,0.4969
819.00,0.4936
818.00,0.4899
817.00,0.4867
816.00,0.4845
815.00,0.4841
814.00,0.4854
813.00,0.4883
812.00,0.4925
811.00,0.4980
810.00,0.5046
809.00,0.5118
808.00,0.5189
807.00,0.5254
806.00,0.5304
805.00,0.5333
804.00,0.5338
803.00,0.5320
802.00,0.5281
801.00,0.5225
800.00,0.5162
799.00,0.5095
798.00,0.5029
797.00,0.4962
796.00,0.4899
795.00,0.4842
794.00,0.4795
793.00,0.4757
792.00,0.4728
791.00,0.4712
790.00,0.4705
789.00,0.4704
788.00,0.4707
787.00,0.4717
786.00,0.4740
785.00,0.4780
784.00,0.4843
783.00,0.4933
782.00,0.5054
781.00,0.5210
780.00,0.5398
779.00,0.5601
778.00,0.5782
777.00,0.5897
776.00,0.5926
775.00,0.5886
774.00,0.5820
773.00,0.5760
772.00,0.5718
771.00,0.5688
770.00,0.5663
769.00,0.5637
768.00,0.5613
767.00,0.5592
766.00,0.5575
765.00,0.5560
764.00,0.5552
763.00,0.5557
762.00,0.5577
761.00,0.5613
760.00,0.5659
759.00,0.5713
758.00,0.5772
757.00,0.5840
756.00,0.5923
755.00,0.6021
754.00,0.6125
753.00,0.6218
752.00,0.6283
751.00,0.6321
750.00,0.6342
749.00,0.6362
748.00,0.6391
747.00,0.6431
746.00,0.6478
745.00,0.6531
744.00,0.6591
743.00,0.6662
742.00,0.6746
741.00,0.6842
740.00,0.6949
739.00,0.7069
738.00,0.7210
737.00,0.7377
736.00,0.7571
735.00,0.7786
734.00,0.8015
733.00,0.8255
732.00,0.8516
731.00,0.8812
730.00,0.9160
729.00,0.9575
728.00,1.0072
727.00,1.0678
726.00,1.1414
725.00,1.2278
724.00,1.3203
723.00,1.4027
722.00,1.4480
721.00,1.4334
720.00,1.3645
719.00,1.2717
718.00,1.1809
717.00,1.1034
716.00,1.0414
715.00,0.9934
714.00,0.9565
713.00,0.9268
712.00,0.9010
711.00,0.8766
710.00,0.8519
709.00,0.8264
708.00,0.8006
707.00,0.7756
706.00,0.7518
705.00,0.7283
704.00,0.7048
703.00,0.6821
702.00,0.6612
701.00,0.6424
700.00,0.6252
699.00,0.6091
698.00,0.5938
697.00,0.5795
696.00,0.5669
695.00,0.5571
694.00,0.5507
693.00,0.5481
692.00,0.5495
691.00,0.5550
690.00,0.5636
689.00,0.5721
688.00,0.5754
687.00,0.5692
686.00,0.5535
685.00,0.5326
684.00,0.5121
683.00,0.4955
682.00,0.4837
681.00,0.4755
680.00,0.4699
679.00,0.4661
678.00,0.4633
677.00,0.4611
676.00,0.4592
675.00,0.4576
674.00,0.4563
673.00,0.4552
672.00,0.4546
671.00,0.4542
670.00,0.4536
669.00,0.4527
668.00,0.4511
667.00,0.4501
666.00,0.4513
665.00,0.4534
664.00,0.4552
663.00,0.4565
662.00,0.4580
661.00,0.4595
660.00,0.4611
659.00,0.4626
658.00,0.4640
657.00,0.4649
656.00,0.4654
655.00,0.4658
654.00,0.4661
653.00,0.4663
652.00,0.4666
651.00,0.4674
650.00,0.4691
649.00,0.4716
648.00,0.4749
647.00,0.4785
646.00,0.4820
645.00,0.4845
644.00,0.4858
643.00,0.4861
642.00,0.4861
641.00,0.4865
640.00,0.4876
639.00,0.4897
638.00,0.4924
637.00,0.4952
636.00,0.4980
635.00,0.5007
634.00,0.5037
633.00,0.5069
632.00,0.5104
631.00,0.5138
630.00,0.5169
629.00,0.5197
628.00,0.5228
627.00,0.5263
626.00,0.5305
625.00,0.5349
624.00,0.5391
623.00,0.5426
622.00,0.5454
621.00,0.5478
620.00,0.5499
619.00,0.5519
618.00,0.5534
617.00,0.5541
616.00,0.5539
615.00,0.5528
614.00,0.5511
613.00,0.5490
612.00,0.5468
611.00,0.5446
610.00,0.5428
609.00,0.5415
608.00,0.5410
607.00,0.5410
606.00,0.5414
605.00,0.5417
604.00,0.5414
603.00,0.5402
602.00,0.5380
601.00,0.5353
600.00,0.5324
599.00,0.5298
598.00,0.5278
597.00,0.5265
596.00,0.5260
595.00,0.5260
594.00,0.5261
593.00,0.5257
592.00,0.5249
591.00,0.5241
590.00,0.5239
589.00,0.5246
588.00,0.5263
587.00,0.5288
586.00,0.5318
585.00,0.5350
584.00,0.5383
583.00,0.5416
582.00,0.5445
581.00,0.5473
580.00,0.5503
579.00,0.5535
578.00,0.5571
577.00,0.5613
576.00,0.5659
575.00,0.5705
574.00,0.5745
573.00,0.5778
572.00,0.5811
571.00,0.5848
570.00,0.5891
569.00,0.5940
568.00,0.5994
567.00,0.6049
566.00,0.6106
565.00,0.6167
564.00,0.6233
563.00,0.6298
562.00,0.6357
561.00,0.6412
560.00,0.6473
559.00,0.6545
558.00,0.6624
557.00,0.6706
556.00,0.6788
555.00,0.6869
554.00,0.6945
553.00,0.7014
552.00,0.7077
551.00,0.7137
550.00,0.7200
