Created as New Dataset,
cm-1,A
4000.00,0.3524
3999.00,0.3522
3998.00,0.3521
3997.00,0.3519
3996.00,0.3517
3995.00,0.3514
3994.00,0.3511
3993.00,0.3508
3992.00,0.3504
3991.00,0.3501
3990.00,0.3498
3989.00,0.3494
3988.00,0.3490
3987.00,0.3486
3986.00,0.3481
3985.00,0.3477
3984.00,0.3473
3983.00,0.3469
3982.00,0.3464
3981.00,0.3460
3980.00,0.3456
3979.00,0.3452
3978.00,0.3448
3977.00,0.3445
3976.00,0.3441
3975.00,0.3438
3974.00,0.3435
3973.00,0.3432
3972.00,0.3429
3971.00,0.3426
3970.00,0.3423
3969.00,0.3420
3968.00,0.3418
3967.00,0.3415
3966.00,0.3413
3965.00,0.3410
3964.00,0.3408
3963.00,0.3406
3962.00,0.3404
3961.00,0.3402
3960.00,0.3401
3959.00,0.3399
3958.00,0.3398
3957.00,0.3395
3956.00,0.3393
3955.00,0.3391
3954.00,0.3389
3953.00,0.3388
3952.00,0.3386
3951.00,0.3384
3950.00,0.3381
3949.00,0.3379
3948.00,0.3376
3947.00,0.3375
3946.00,0.3373
3945.00,0.3371
3944.00,0.3369
3943.00,0.3367
3942.00,0.3365
3941.00,0.3364
3940.00,0.3363
3939.00,0.3362
3938.00,0.3360
3937.00,0.3359
3936.00,0.3357
3935.00,0.3357
3934.00,0.3357
3933.00,0.3358
3932.00,0.3358
3931.00,0.3358
3930.00,0.3357
3929.00,0.3357
3928.00,0.3357
3927.00,0.3358
3926.00,0.3359
3925.00,0.3359
3924.00,0.3360
3923.00,0.3360
3922.00,0.3360
3921.00,0.3359
3920.00,0.3359
3919.00,0.3358
3918.00,0.3357
3917.00,0.3356
3916.00,0.3356
3915.00,0.3356
3914.00,0.3355
3913.00,0.3355
3912.00,0.3354
3911.00,0.3352
3910.00,0.3350
3909.00,0.3349
3908.00,0.3347
3907.00,0.3346
3906.00,0.3344
3905.00,0.3342
3904.00,0.3340
3903.00,0.3338
3902.00,0.3338
3901.00,0.3338
3900.00,0.3338
3899.00,0.3338
3898.00,0.3339
3897.00,0.3339
3896.00,0.3339
3895.00,0.3339
3894.00,0.3339
3893.00,0.3338
3892.00,0.3337
3891.00,0.3336
3890.00,0.3335
3889.00,0.3334
3888.00,0.3333
3887.00,0.3332
3886.00,0.3331
3885.00,0.3330
3884.00,0.3329
3883.00,0.3328
3882.00,0.3327
3881.00,0.3326
3880.00,0.3325
3879.00,0.3324
3878.00,0.3322
3877.00,0.3321
3876.00,0.3320
3875.00,0.3320
3874.00,0.3319
3873.00,0.3318
3872.00,0.3316
3871.00,0.3314
3870.00,0.3313
3869.00,0.3312
3868.00,0.3310
3867.00,0.3309
3866.00,0.3308
3865.00,0.3307
3864.00,0.3306
3863.00,0.3305
3862.00,0.3304
3861.00,0.3302
3860.00,0.3301
3859.00,0.3300
3858.00,0.3299
3857.00,0.3298
3856.00,0.3297
3855.00,0.3296
3854.00,0.3295
3853.00,0.3295
3852.00,0.3296
3851.00,0.3296
3850.00,0.3295
3849.00,0.3295
3848.00,0.3295
3847.00,0.3294
3846.00,0.3293
3845.00,0.3292
3844.00,0.3290
3843.00,0.3289
3842.00,0.3287
3841.00,0.3286
3840.00,0.3285
3839.00,0.3284
3838.00,0.3283
3837.00,0.3281
3836.00,0.3279
3835.00,0.3278
3834.00,0.3277
3833.00,0.3277
3832.00,0.3277
3831.00,0.3277
3830.00,0.3277
3829.00,0.3276
3828.00,0.3276
3827.00,0.3276
3826.00,0.3275
3825.00,0.3274
3824.00,0.3273
3823.00,0.3271
3822.00,0.3270
3821.00,0.3269
3820.00,0.3269
3819.00,0.3268
3818.00,0.3266
3817.00,0.3265
3816.00,0.3264
3815.00,0.3263
3814.00,0.3261
3813.00,0.3258
3812.00,0.3255
3811.00,0.3252
3810.00,0.3250
3809.00,0.3248
3808.00,0.3245
3807.00,0.3243
3806.00,0.3241
3805.00,0.3239
3804.00,0.3237
3803.00,0.3235
3802.00,0.3233
3801.00,0.3232
3800.00,0.3232
3799.00,0.3230
3798.00,0.3229
3797.00,0.3227
3796.00,0.3226
3795.00,0.3226
3794.00,0.3225
3793.00,0.3223
3792.00,0.3222
3791.00,0.3221
3790.00,0.3219
3789.00,0.3217
3788.00,0.3215
3787.00,0.3214
3786.00,0.3213
3785.00,0.3212
3784.00,0.3211
3783.00,0.3209
3782.00,0.3207
3781.00,0.3205
3780.00,0.3203
3779.00,0.3201
3778.00,0.3200
3777.00,0.3199
3776.00,0.3198
3775.00,0.3196
3774.00,0.3194
3773.00,0.3191
3772.00,0.3189
3771.00,0.3187
3770.00,0.3186
3769.00,0.3184
3768.00,0.3183
3767.00,0.3182
3766.00,0.3181
3765.00,0.3180
3764.00,0.3178
3763.00,0.3176
3762.00,0.3175
3761.00,0.3173
3760.00,0.3173
3759.00,0.3172
3758.00,0.3171
3757.00,0.3170
3756.00,0.3169
3755.00,0.3167
3754.00,0.3166
3753.00,0.3165
3752.00,0.3163
3751.00,0.3162
3750.00,0.3160
3749.00,0.3159
3748.00,0.3157
3747.00,0.3156
3746.00,0.3154
3745.00,0.3153
3744.00,0.3152
3743.00,0.3151
3742.00,0.3150
3741.00,0.3148
3740.00,0.3147
3739.00,0.3146
3738.00,0.3145
3737.00,0.3143
3736.00,0.3142
3735.00,0.3140
3734.00,0.3139
3733.00,0.3138
3732.00,0.3137
3731.00,0.3136
3730.00,0.3135
3729.00,0.3133
3728.00,0.3132
3727.00,0.3130
3726.00,0.3129
3725.00,0.3128
3724.00,0.3127
3723.00,0.3126
3722.00,0.3126
3721.00,0.3126
3720.00,0.3125
3719.00,0.3124
3718.00,0.3123
3717.00,0.3122
3716.00,0.3121
3715.00,0.3121
3714.00,0.3121
3713.00,0.3121
3712.00,0.3121
3711.00,0.3121
3710.00,0.3120
3709.00,0.3120
3708.00,0.3120
3707.00,0.3120
3706.00,0.3120
3705.00,0.3120
3704.00,0.3120
3703.00,0.3119
3702.00,0.3118
3701.00,0.3117
3700.00,0.3116
3699.00,0.3116
3698.00,0.3116
3697.00,0.3116
3696.00,0.3117
3695.00,0.3117
3694.00,0.3117
3693.00,0.3118
3692.00,0.3119
3691.00,0.3120
3690.00,0.3120
3689.00,0.3121
3688.00,0.3122
3687.00,0.3123
3686.00,0.3124
3685.00,0.3125
3684.00,0.3126
3683.00,0.3127
3682.00,0.3127
3681.00,0.3126
3680.00,0.3126
3679.00,0.3125
3678.00,0.3124
3677.00,0.3123
3676.00,0.3122
3675.00,0.3123
3674.00,0.3124
3673.00,0.3125
3672.00,0.3126
3671.00,0.3127
3670.00,0.3129
3669.00,0.3131
3668.00,0.3132
3667.00,0.3134
3666.00,0.3137
3665.00,0.3140
3664.00,0.3144
3663.00,0.3149
3662.00,0.3154
3661.00,0.3159
3660.00,0.3167
3659.00,0.3175
3658.00,0.3187
3657.00,0.3200
3656.00,0.3217
3655.00,0.3233
3654.00,0.3250
3653.00,0.3266
3652.00,0.3281
3651.00,0.3296
3650.00,0.3308
3649.00,0.3317
3648.00,0.3321
3647.00,0.3323
3646.00,0.3322
3645.00,0.3320
3644.00,0.3318
3643.00,0.3315
3642.00,0.3313
3641.00,0.3310
3640.00,0.3307
3639.00,0.3304
3638.00,0.3300
3637.00,0.3296
3636.00,0.3292
3635.00,0.3286
3634.00,0.3280
3633.00,0.3274
3632.00,0.3267
3631.00,0.3262
3630.00,0.3256
3629.00,0.3252
3628.00,0.3250
3627.00,0.3249
3626.00,0.3249
3625.00,0.3250
3624.00,0.3250
3623.00,0.3250
3622.00,0.3248
3621.00,0.3244
3620.00,0.3240
3619.00,0.3235
3618.00,0.3232
3617.00,0.3230
3616.00,0.3228
3615.00,0.3227
3614.00,0.3226
3613.00,0.3226
3612.00,0.3227
3611.00,0.3228
3610.00,0.3229
3609.00,0.3231
3608.00,0.3232
3607.00,0.3233
3606.00,0.3233
3605.00,0.3231
3604.00,0.3228
3603.00,0.3224
3602.00,0.3218
3601.00,0.3211
3600.00,0.3203
3599.00,0.3195
3598.00,0.3186
3597.00,0.3176
3596.00,0.3168
3595.00,0.3159
3594.00,0.3151
3593.00,0.3143
3592.00,0.3137
3591.00,0.3132
3590.00,0.3127
3589.00,0.3124
3588.00,0.3121
3587.00,0.3119
3586.00,0.3118
3585.00,0.3116
3584.00,0.3115
3583.00,0.3115
3582.00,0.3114
3581.00,0.3114
3580.00,0.3114
3579.00,0.3114
3578.00,0.3114
3577.00,0.3114
3576.00,0.3115
3575.00,0.3115
3574.00,0.3116
3573.00,0.3117
3572.00,0.3117
3571.00,0.3117
3570.00,0.3117
3569.00,0.3117
3568.00,0.3118
3567.00,0.3119
3566.00,0.3120
3565.00,0.3121
3564.00,0.3121
3563.00,0.3122
3562.00,0.3123
3561.00,0.3124
3560.00,0.3125
3559.00,0.3126
3558.00,0.3128
3557.00,0.3129
3556.00,0.3130
3555.00,0.3133
3554.00,0.3135
3553.00,0.3138
3552.00,0.3140
3551.00,0.3144
3550.00,0.3147
3549.00,0.3150
3548.00,0.3153
3547.00,0.3157
3546.00,0.3161
3545.00,0.3164
3544.00,0.3168
3543.00,0.3172
3542.00,0.3176
3541.00,0.3179
3540.00,0.3183
3539.00,0.3186
3538.00,0.3189
3537.00,0.3192
3536.00,0.3196
3535.00,0.3199
3534.00,0.3202
3533.00,0.3205
3532.00,0.3208
3531.00,0.3211
3530.00,0.3214
3529.00,0.3217
3528.00,0.3220
3527.00,0.3224
3526.00,0.3228
3525.00,0.3232
3524.00,0.3236
3523.00,0.3240
3522.00,0.3244
3521.00,0.3247
3520.00,0.3251
3519.00,0.3255
3518.00,0.3259
3517.00,0.3264
3516.00,0.3269
3515.00,0.3274
3514.00,0.3278
3513.00,0.3283
3512.00,0.3289
3511.00,0.3294
3510.00,0.3299
3509.00,0.3304
3508.00,0.3308
3507.00,0.3313
3506.00,0.3318
3505.00,0.3323
3504.00,0.3329
3503.00,0.3334
3502.00,0.3340
3501.00,0.3345
3500.00,0.3351
3499.00,0.3357
3498.00,0.3362
3497.00,0.3368
3496.00,0.3374
3495.00,0.3381
3494.00,0.3387
3493.00,0.3394
3492.00,0.3401
3491.00,0.3407
3490.00,0.3414
3489.00,0.3421
3488.00,0.3428
3487.00,0.3434
3486.00,0.3440
3485.00,0.3446
3484.00,0.3453
3483.00,0.3459
3482.00,0.3466
3481.00,0.3472
3480.00,0.3478
3479.00,0.3484
3478.00,0.3490
3477.00,0.3496
3476.00,0.3501
3475.00,0.3507
3474.00,0.3513
3473.00,0.3520
3472.00,0.3527
3471.00,0.3534
3470.00,0.3541
3469.00,0.3548
3468.00,0.3555
3467.00,0.3562
3466.00,0.3568
3465.00,0.3575
3464.00,0.3582
3463.00,0.3589
3462.00,0.3597
3461.00,0.3604
3460.00,0.3611
3459.00,0.3618
3458.00,0.3625
3457.00,0.3632
3456.00,0.3640
3455.00,0.3648
3454.00,0.3655
3453.00,0.3664
3452.00,0.3672
3451.00,0.3681
3450.00,0.3691
3449.00,0.3699
3448.00,0.3708
3447.00,0.3717
3446.00,0.3726
3445.00,0.3737
3444.00,0.3748
3443.00,0.3759
3442.00,0.3771
3441.00,0.3782
3440.00,0.3793
3439.00,0.3804
3438.00,0.3814
3437.00,0.3824
3436.00,0.3833
3435.00,0.3842
3434.00,0.3850
3433.00,0.3858
3432.00,0.3867
3431.00,0.3875
3430.00,0.3883
3429.00,0.3891
3428.00,0.3900
3427.00,0.3908
3426.00,0.3917
3425.00,0.3926
3424.00,0.3934
3423.00,0.3943
3422.00,0.3952
3421.00,0.3961
3420.00,0.3971
3419.00,0.3981
3418.00,0.3992
3417.00,0.4002
3416.00,0.4014
3415.00,0.4025
3414.00,0.4036
3413.00,0.4048
3412.00,0.4059
3411.00,0.4072
3410.00,0.4084
3409.00,0.4098
3408.00,0.4111
3407.00,0.4124
3406.00,0.4137
3405.00,0.4150
3404.00,0.4163
3403.00,0.4177
3402.00,0.4190
3401.00,0.4204
3400.00,0.4218
3399.00,0.4231
3398.00,0.4246
3397.00,0.4260
3396.00,0.4275
3395.00,0.4290
3394.00,0.4304
3393.00,0.4319
3392.00,0.4334
3391.00,0.4348
3390.00,0.4363
3389.00,0.4378
3388.00,0.4394
3387.00,0.4409
3386.00,0.4424
3385.00,0.4440
3384.00,0.4455
3383.00,0.4471
3382.00,0.4488
3381.00,0.4505
3380.00,0.4522
3379.00,0.4539
3378.00,0.4557
3377.00,0.4575
3376.00,0.4593
3375.00,0.4611
3374.00,0.4629
3373.00,0.4649
3372.00,0.4669
3371.00,0.4689
3370.00,0.4709
3369.00,0.4729
3368.00,0.4749
3367.00,0.4770
3366.00,0.4791
3365.00,0.4812
3364.00,0.4834
3363.00,0.4856
3362.00,0.4878
3361.00,0.4900
3360.00,0.4922
3359.00,0.4945
3358.00,0.4966
3357.00,0.4988
3356.00,0.5009
3355.00,0.5030
3354.00,0.5050
3353.00,0.5071
3352.00,0.5092
3351.00,0.5113
3350.00,0.5133
3349.00,0.5152
3348.00,0.5171
3347.00,0.5189
3346.00,0.5206
3345.00,0.5223
3344.00,0.5240
3343.00,0.5255
3342.00,0.5269
3341.00,0.5282
3340.00,0.5295
3339.00,0.5307
3338.00,0.5317
3337.00,0.5327
3336.00,0.5335
3335.00,0.5341
3334.00,0.5347
3333.00,0.5352
3332.00,0.5355
3331.00,0.5356
3330.00,0.5357
3329.00,0.5357
3328.00,0.5355
3327.00,0.5353
3326.00,0.5349
3325.00,0.5344
3324.00,0.5339
3323.00,0.5334
3322.00,0.5328
3321.00,0.5321
3320.00,0.5313
3319.00,0.5304
3318.00,0.5296
3317.00,0.5287
3316.00,0.5277
3315.00,0.5266
3314.00,0.5254
3313.00,0.5243
3312.00,0.5233
3311.00,0.5222
3310.00,0.5212
3309.00,0.5201
3308.00,0.5190
3307.00,0.5180
3306.00,0.5170
3305.00,0.5159
3304.00,0.5149
3303.00,0.5138
3302.00,0.5128
3301.00,0.5118
3300.00,0.5109
3299.00,0.5101
3298.00,0.5094
3297.00,0.5087
3296.00,0.5081
3295.00,0.5074
3294.00,0.5068
3293.00,0.5062
3292.00,0.5057
3291.00,0.5053
3290.00,0.5049
3289.00,0.5046
3288.00,0.5043
3287.00,0.5041
3286.00,0.5040
3285.00,0.5039
3284.00,0.5039
3283.00,0.5039
3282.00,0.5039
3281.00,0.5039
3280.00,0.5040
3279.00,0.5041
3278.00,0.5043
3277.00,0.5046
3276.00,0.5049
3275.00,0.5052
3274.00,0.5056
3273.00,0.5061
3272.00,0.5064
3271.00,0.5068
3270.00,0.5071
3269.00,0.5074
3268.00,0.5079
3267.00,0.5084
3266.00,0.5089
3265.00,0.5094
3264.00,0.5099
3263.00,0.5103
3262.00,0.5107
3261.00,0.5111
3260.00,0.5114
3259.00,0.5118
3258.00,0.5122
3257.00,0.5125
3256.00,0.5129
3255.00,0.5133
3254.00,0.5136
3253.00,0.5139
3252.00,0.5141
3251.00,0.5143
3250.00,0.5144
3249.00,0.5146
3248.00,0.5148
3247.00,0.5149
3246.00,0.5150
3245.00,0.5150
3244.00,0.5150
3243.00,0.5150
3242.00,0.5150
3241.00,0.5149
3240.00,0.5146
3239.00,0.5143
3238.00,0.5140
3237.00,0.5137
3236.00,0.5134
3235.00,0.5131
3234.00,0.5126
3233.00,0.5122
3232.00,0.5118
3231.00,0.5113
3230.00,0.5107
3229.00,0.5101
3228.00,0.5094
3227.00,0.5087
3226.00,0.5081
3225.00,0.5075
3224.00,0.5069
3223.00,0.5063
3222.00,0.5056
3221.00,0.5049
3220.00,0.5043
3219.00,0.5036
3218.00,0.5029
3217.00,0.5022
3216.00,0.5015
3215.00,0.5007
3214.00,0.5000
3213.00,0.4993
3212.00,0.4986
3211.00,0.4980
3210.00,0.4973
3209.00,0.4966
3208.00,0.4958
3207.00,0.4951
3206.00,0.4943
3205.00,0.4936
3204.00,0.4929
3203.00,0.4923
3202.00,0.4916
3201.00,0.4908
3200.00,0.4900
3199.00,0.4892
3198.00,0.4884
3197.00,0.4877
3196.00,0.4869
3195.00,0.4861
3194.00,0.4853
3193.00,0.4845
3192.00,0.4836
3191.00,0.4827
3190.00,0.4819
3189.00,0.4810
3188.00,0.4801
3187.00,0.4792
3186.00,0.4783
3185.00,0.4774
3184.00,0.4766
3183.00,0.4757
3182.00,0.4747
3181.00,0.4738
3180.00,0.4728
3179.00,0.4719
3178.00,0.4709
3177.00,0.4700
3176.00,0.4690
3175.00,0.4680
3174.00,0.4671
3173.00,0.4662
3172.00,0.4652
3171.00,0.4643
3170.00,0.4632
3169.00,0.4622
3168.00,0.4611
3167.00,0.4601
3166.00,0.4591
3165.00,0.4581
3164.00,0.4571
3163.00,0.4562
3162.00,0.4552
3161.00,0.4543
3160.00,0.4533
3159.00,0.4524
3158.00,0.4514
3157.00,0.4505
3156.00,0.4496
3155.00,0.4486
3154.00,0.4478
3153.00,0.4470
3152.00,0.4462
3151.00,0.4454
3150.00,0.4446
3149.00,0.4439
3148.00,0.4431
3147.00,0.4424
3146.00,0.4417
3145.00,0.4411
3144.00,0.4405
3143.00,0.4399
3142.00,0.4393
3141.00,0.4387
3140.00,0.4382
3139.00,0.4376
3138.00,0.4371
3137.00,0.4367
3136.00,0.4362
3135.00,0.4357
3134.00,0.4352
3133.00,0.4347
3132.00,0.4342
3131.00,0.4338
3130.00,0.4335
3129.00,0.4332
3128.00,0.4329
3127.00,0.4327
3126.00,0.4325
3125.00,0.4323
3124.00,0.4322
3123.00,0.4321
3122.00,0.4320
3121.00,0.4319
3120.00,0.4320
3119.00,0.4322
3118.00,0.4323
3117.00,0.4325
3116.00,0.4327
3115.00,0.4329
3114.00,0.4332
3113.00,0.4336
3112.00,0.4340
3111.00,0.4345
3110.00,0.4350
3109.00,0.4357
3108.00,0.4364
3107.00,0.4371
3106.00,0.4379
3105.00,0.4387
3104.00,0.4394
3103.00,0.4402
3102.00,0.4411
3101.00,0.4420
3100.00,0.4430
3099.00,0.4440
3098.00,0.4451
3097.00,0.4462
3096.00,0.4472
3095.00,0.4483
3094.00,0.4494
3093.00,0.4507
3092.00,0.4521
3091.00,0.4537
3090.00,0.4554
3089.00,0.4572
3088.00,0.4591
3087.00,0.4611
3086.00,0.4633
3085.00,0.4655
3084.00,0.4679
3083.00,0.4703
3082.00,0.4730
3081.00,0.4758
3080.00,0.4788
3079.00,0.4819
3078.00,0.4850
3077.00,0.4883
3076.00,0.4916
3075.00,0.4950
3074.00,0.4985
3073.00,0.5019
3072.00,0.5055
3071.00,0.5090
3070.00,0.5127
3069.00,0.5163
3068.00,0.5200
3067.00,0.5237
3066.00,0.5274
3065.00,0.5311
3064.00,0.5346
3063.00,0.5381
3062.00,0.5413
3061.00,0.5444
3060.00,0.5474
3059.00,0.5504
3058.00,0.5533
3057.00,0.5563
3056.00,0.5594
3055.00,0.5625
3054.00,0.5656
3053.00,0.5688
3052.00,0.5720
3051.00,0.5754
3050.00,0.5789
3049.00,0.5827
3048.00,0.5868
3047.00,0.5910
3046.00,0.5953
3045.00,0.5996
3044.00,0.6039
3043.00,0.6082
3042.00,0.6125
3041.00,0.6167
3040.00,0.6211
3039.00,0.6256
3038.00,0.6303
3037.00,0.6353
3036.00,0.6405
3035.00,0.6461
3034.00,0.6519
3033.00,0.6580
3032.00,0.6644
3031.00,0.6711
3030.00,0.6781
3029.00,0.6852
3028.00,0.6926
3027.00,0.7003
3026.00,0.7082
3025.00,0.7164
3024.00,0.7249
3023.00,0.7338
3022.00,0.7429
3021.00,0.7525
3020.00,0.7623
3019.00,0.7725
3018.00,0.7830
3017.00,0.7937
3016.00,0.8047
3015.00,0.8160
3014.00,0.8278
3013.00,0.8401
3012.00,0.8528
3011.00,0.8662
3010.00,0.8803
3009.00,0.8952
3008.00,0.9110
3007.00,0.9275
3006.00,0.9447
3005.00,0.9626
3004.00,0.9810
3003.00,1.0002
3002.00,1.0202
3001.00,1.0411
3000.00,1.0631
2999.00,1.0863
2998.00,1.1111
2997.00,1.1377
2996.00,1.1665
2995.00,1.1979
2994.00,1.2324
2993.00,1.2703
2992.00,1.3119
2991.00,1.3577
2990.00,1.4080
2989.00,1.4632
2988.00,1.5242
2987.00,1.5917
2986.00,1.6669
2985.00,1.7504
2984.00,1.8431
2983.00,1.9457
2982.00,2.0586
2981.00,2.1825
2980.00,2.3187
2979.00,2.4703
2978.00,2.6384
2977.00,2.8168
2976.00,2.9961
2975.00,3.1818
2974.00,3.4078
2973.00,3.7326
2972.00,4.1197
2971.00,4.2457
2970.00,4.1832
2969.00,4.0750
2968.00,3.9136
2967.00,3.7599
2966.00,3.6859
2965.00,3.6996
2964.00,3.7449
2963.00,3.9288
2962.00,4.3232
2961.00,4.3384
2960.00,4.1528
2959.00,4.0990
2958.00,4.4216
2957.00,4.9262
2956.00,4.5673
2955.00,4.4082
2954.00,4.3487
2953.00,4.2882
2952.00,4.0042
2951.00,3.7636
2950.00,3.6635
2949.00,3.6877
2948.00,3.7910
2947.00,3.9185
2946.00,3.9672
2945.00,3.9112
2944.00,3.8272
2943.00,3.7851
2942.00,3.8123
2941.00,4.0180
2940.00,4.2945
2939.00,4.0818
2938.00,3.8812
2937.00,3.8278
2936.00,3.9337
2935.00,4.0288
2934.00,4.0855
2933.00,4.2834
2932.00,4.5808
2931.00,4.6851
2930.00,4.6135
2929.00,4.3755
2928.00,4.2273
2927.00,4.1378
2926.00,4.0954
2925.00,4.3037
2924.00,4.5079
2923.00,4.4523
2922.00,4.3157
2921.00,4.1129
2920.00,3.9651
2919.00,3.8707
2918.00,3.8710
2917.00,4.0493
2916.00,4.4645
2915.00,4.5427
2914.00,4.2761
2913.00,4.0482
2912.00,4.0306
2911.00,4.0582
2910.00,4.0033
2909.00,3.9507
2908.00,3.8719
2907.00,3.8540
2906.00,3.9158
2905.00,4.1382
2904.00,4.5947
2903.00,4.4600
2902.00,4.0602
2901.00,3.8372
2900.00,3.7757
2899.00,3.7856
2898.00,3.8777
2897.00,4.0517
2896.00,4.1448
2895.00,4.1953
2894.00,4.2170
2893.00,4.1139
2892.00,3.9479
2891.00,3.8407
2890.00,3.8215
2889.00,3.8067
2888.00,3.7913
2887.00,3.9063
2886.00,4.1789
2885.00,4.2135
2884.00,4.0035
2883.00,3.8927
2882.00,3.9915
2881.00,4.1784
2880.00,4.1989
2879.00,4.1637
2878.00,4.1841
2877.00,4.3144
2876.00,4.3749
2875.00,4.3486
2874.00,4.3654
2873.00,4.3498
2872.00,4.2161
2871.00,3.9991
2870.00,3.8002
2869.00,3.6735
2868.00,3.6319
2867.00,3.6527
2866.00,3.7119
2865.00,3.8163
2864.00,4.0116
2863.00,4.2747
2862.00,4.5856
2861.00,4.7695
2860.00,4.3935
2859.00,4.1288
2858.00,3.9480
2857.00,3.8438
2856.00,3.7802
2855.00,3.8293
2854.00,4.1089
2853.00,4.4764
2852.00,4.2996
2851.00,4.0933
2850.00,4.0871
2849.00,4.2005
2848.00,4.2939
2847.00,4.4606
2846.00,4.6516
2845.00,4.5286
2844.00,4.2659
2843.00,4.0851
2842.00,4.0229
2841.00,3.9130
2840.00,3.6907
2839.00,3.4740
2838.00,3.2920
2837.00,3.1119
2836.00,2.9171
2835.00,2.7238
2834.00,2.5448
2833.00,2.3833
2832.00,2.2386
2831.00,2.1091
2830.00,1.9931
2829.00,1.8891
2828.00,1.7963
2827.00,1.7137
2826.00,1.6396
2825.00,1.5729
2824.00,1.5125
2823.00,1.4577
2822.00,1.4075
2821.00,1.3611
2820.00,1.3179
2819.00,1.2779
2818.00,1.2408
2817.00,1.2062
2816.00,1.1740
2815.00,1.1439
2814.00,1.1159
2813.00,1.0895
2812.00,1.0644
2811.00,1.0405
2810.00,1.0176
2809.00,0.9958
2808.00,0.9749
2807.00,0.9548
2806.00,0.9356
2805.00,0.9173
2804.00,0.8998
2803.00,0.8830
2802.00,0.8670
2801.00,0.8517
2800.00,0.8371
2799.00,0.8231
2798.00,0.8096
2797.00,0.7967
2796.00,0.7842
2795.00,0.7721
2794.00,0.7606
2793.00,0.7495
2792.00,0.7387
2791.00,0.7281
2790.00,0.7177
2789.00,0.7076
2788.00,0.6976
2787.00,0.6879
2786.00,0.6785
2785.00,0.6693
2784.00,0.6604
2783.00,0.6518
2782.00,0.6434
2781.00,0.6352
2780.00,0.6272
2779.00,0.6195
2778.00,0.6122
2777.00,0.6054
2776.00,0.5990
2775.00,0.5929
2774.00,0.5872
2773.00,0.5819
2772.00,0.5770
2771.00,0.5725
2770.00,0.5684
2769.00,0.5646
2768.00,0.5613
2767.00,0.5582
2766.00,0.5555
2765.00,0.5530
2764.00,0.5509
2763.00,0.5490
2762.00,0.5475
2761.00,0.5461
2760.00,0.5449
2759.00,0.5438
2758.00,0.5427
2757.00,0.5417
2756.00,0.5407
2755.00,0.5397
2754.00,0.5390
2753.00,0.5385
2752.00,0.5381
2751.00,0.5380
2750.00,0.5381
2749.00,0.5384
2748.00,0.5388
2747.00,0.5393
2746.00,0.5401
2745.00,0.5411
2744.00,0.5423
2743.00,0.5439
2742.00,0.5459
2741.00,0.5481
2740.00,0.5508
2739.00,0.5539
2738.00,0.5574
2737.00,0.5614
2736.00,0.5657
2735.00,0.5704
2734.00,0.5752
2733.00,0.5799
2732.00,0.5839
2731.00,0.5871
2730.00,0.5892
2729.00,0.5901
2728.00,0.5898
2727.00,0.5885
2726.00,0.5865
2725.00,0.5841
2724.00,0.5815
2723.00,0.5788
2722.00,0.5759
2721.00,0.5728
2720.00,0.5696
2719.00,0.5663
2718.00,0.5629
2717.00,0.5594
2716.00,0.5556
2715.00,0.5516
2714.00,0.5476
2713.00,0.5436
2712.00,0.5399
2711.00,0.5364
2710.00,0.5332
2709.00,0.5304
2708.00,0.5281
2707.00,0.5261
2706.00,0.5244
2705.00,0.5230
2704.00,0.5218
2703.00,0.5208
2702.00,0.5202
2701.00,0.5198
2700.00,0.5198
2699.00,0.5200
2698.00,0.5204
2697.00,0.5211
2696.00,0.5219
2695.00,0.5229
2694.00,0.5240
2693.00,0.5253
2692.00,0.5268
2691.00,0.5281
2690.00,0.5294
2689.00,0.5305
2688.00,0.5316
2687.00,0.5326
2686.00,0.5336
2685.00,0.5343
2684.00,0.5348
2683.00,0.5352
2682.00,0.5353
2681.00,0.5355
2680.00,0.5356
2679.00,0.5358
2678.00,0.5361
2677.00,0.5363
2676.00,0.5365
2675.00,0.5367
2674.00,0.5368
2673.00,0.5368
2672.00,0.5365
2671.00,0.5360
2670.00,0.5353
2669.00,0.5342
2668.00,0.5328
2667.00,0.5312
2666.00,0.5292
2665.00,0.5271
2664.00,0.5249
2663.00,0.5226
2662.00,0.5203
2661.00,0.5181
2660.00,0.5158
2659.00,0.5135
2658.00,0.5112
2657.00,0.5089
2656.00,0.5068
2655.00,0.5048
2654.00,0.5029
2653.00,0.5011
2652.00,0.4995
2651.00,0.4978
2650.00,0.4961
2649.00,0.4945
2648.00,0.4928
2647.00,0.4913
2646.00,0.4897
2645.00,0.4882
2644.00,0.4868
2643.00,0.4855
2642.00,0.4842
2641.00,0.4830
2640.00,0.4818
2639.00,0.4808
2638.00,0.4797
2637.00,0.4787
2636.00,0.4777
2635.00,0.4767
2634.00,0.4758
2633.00,0.4749
2632.00,0.4740
2631.00,0.4731
2630.00,0.4722
2629.00,0.4713
2628.00,0.4703
2627.00,0.4692
2626.00,0.4681
2625.00,0.4670
2624.00,0.4660
2623.00,0.4649
2622.00,0.4638
2621.00,0.4627
2620.00,0.4617
2619.00,0.4607
2618.00,0.4596
2617.00,0.4586
2616.00,0.4575
2615.00,0.4565
2614.00,0.4555
2613.00,0.4545
2612.00,0.4536
2611.00,0.4526
2610.00,0.4516
2609.00,0.4506
2608.00,0.4497
2607.00,0.4487
2606.00,0.4478
2605.00,0.4468
2604.00,0.4458
2603.00,0.4448
2602.00,0.4437
2601.00,0.4426
2600.00,0.4413
2599.00,0.4399
2598.00,0.4385
2597.00,0.4370
2596.00,0.4355
2595.00,0.4339
2594.00,0.4323
2593.00,0.4307
2592.00,0.4291
2591.00,0.4276
2590.00,0.4260
2589.00,0.4244
2588.00,0.4228
2587.00,0.4212
2586.00,0.4196
2585.00,0.4179
2584.00,0.4163
2583.00,0.4146
2582.00,0.4129
2581.00,0.4112
2580.00,0.4095
2579.00,0.4077
2578.00,0.4060
2577.00,0.4044
2576.00,0.4028
2575.00,0.4013
2574.00,0.3999
2573.00,0.3984
2572.00,0.3970
2571.00,0.3957
2570.00,0.3944
2569.00,0.3931
2568.00,0.3918
2567.00,0.3905
2566.00,0.3892
2565.00,0.3879
2564.00,0.3865
2563.00,0.3851
2562.00,0.3837
2561.00,0.3823
2560.00,0.3810
2559.00,0.3797
2558.00,0.3785
2557.00,0.3773
2556.00,0.3761
2555.00,0.3750
2554.00,0.3738
2553.00,0.3727
2552.00,0.3715
2551.00,0.3705
2550.00,0.3694
2549.00,0.3684
2548.00,0.3675
2547.00,0.3666
2546.00,0.3657
2545.00,0.3649
2544.00,0.3641
2543.00,0.3633
2542.00,0.3625
2541.00,0.3618
2540.00,0.3611
2539.00,0.3604
2538.00,0.3597
2537.00,0.3590
2536.00,0.3584
2535.00,0.3578
2534.00,0.3573
2533.00,0.3567
2532.00,0.3561
2531.00,0.3553
2530.00,0.3545
2529.00,0.3536
2528.00,0.3526
2527.00,0.3515
2526.00,0.3504
2525.00,0.3492
2524.00,0.3481
2523.00,0.3470
2522.00,0.3458
2521.00,0.3448
2520.00,0.3437
2519.00,0.3428
2518.00,0.3418
2517.00,0.3409
2516.00,0.3400
2515.00,0.3392
2514.00,0.3383
2513.00,0.3375
2512.00,0.3366
2511.00,0.3358
2510.00,0.3351
2509.00,0.3344
2508.00,0.3338
2507.00,0.3332
2506.00,0.3327
2505.00,0.3323
2504.00,0.3319
2503.00,0.3316
2502.00,0.3314
2501.00,0.3312
2500.00,0.3310
2499.00,0.3307
2498.00,0.3305
2497.00,0.3303
2496.00,0.3300
2495.00,0.3297
2494.00,0.3293
2493.00,0.3289
2492.00,0.3285
2491.00,0.3280
2490.00,0.3275
2489.00,0.3271
2488.00,0.3265
2487.00,0.3260
2486.00,0.3254
2485.00,0.3248
2484.00,0.3243
2483.00,0.3236
2482.00,0.3230
2481.00,0.3224
2480.00,0.3218
2479.00,0.3213
2478.00,0.3209
2477.00,0.3204
2476.00,0.3199
2475.00,0.3194
2474.00,0.3189
2473.00,0.3185
2472.00,0.3182
2471.00,0.3180
2470.00,0.3177
2469.00,0.3175
2468.00,0.3172
2467.00,0.3169
2466.00,0.3166
2465.00,0.3164
2464.00,0.3161
2463.00,0.3158
2462.00,0.3155
2461.00,0.3153
2460.00,0.3151
2459.00,0.3149
2458.00,0.3147
2457.00,0.3145
2456.00,0.3143
2455.00,0.3142
2454.00,0.3140
2453.00,0.3139
2452.00,0.3138
2451.00,0.3137
2450.00,0.3135
2449.00,0.3134
2448.00,0.3134
2447.00,0.3134
2446.00,0.3133
2445.00,0.3133
2444.00,0.3133
2443.00,0.3134
2442.00,0.3134
2441.00,0.3135
2440.00,0.3136
2439.00,0.3137
2438.00,0.3137
2437.00,0.3138
2436.00,0.3139
2435.00,0.3140
2434.00,0.3141
2433.00,0.3142
2432.00,0.3144
2431.00,0.3145
2430.00,0.3147
2429.00,0.3148
2428.00,0.3149
2427.00,0.3151
2426.00,0.3152
2425.00,0.3154
2424.00,0.3155
2423.00,0.3156
2422.00,0.3157
2421.00,0.3157
2420.00,0.3158
2419.00,0.3159
2418.00,0.3160
2417.00,0.3160
2416.00,0.3161
2415.00,0.3161
2414.00,0.3162
2413.00,0.3163
2412.00,0.3163
2411.00,0.3164
2410.00,0.3164
2409.00,0.3164
2408.00,0.3165
2407.00,0.3165
2406.00,0.3166
2405.00,0.3166
2404.00,0.3167
2403.00,0.3167
2402.00,0.3168
2401.00,0.3168
2400.00,0.3168
2399.00,0.3168
2398.00,0.3168
2397.00,0.3168
2396.00,0.3168
2395.00,0.3169
2394.00,0.3170
2393.00,0.3171
2392.00,0.3172
2391.00,0.3173
2390.00,0.3174
2389.00,0.3175
2388.00,0.3176
2387.00,0.3176
2386.00,0.3177
2385.00,0.3179
2384.00,0.3181
2383.00,0.3182
2382.00,0.3184
2381.00,0.3187
2380.00,0.3188
2379.00,0.3189
2378.00,0.3190
2377.00,0.3189
2376.00,0.3188
2375.00,0.3186
2374.00,0.3185
2373.00,0.3184
2372.00,0.3184
2371.00,0.3183
2370.00,0.3182
2369.00,0.3181
2368.00,0.3180
2367.00,0.3180
2366.00,0.3179
2365.00,0.3179
2364.00,0.3179
2363.00,0.3179
2362.00,0.3179
2361.00,0.3179
2360.00,0.3178
2359.00,0.3176
2358.00,0.3174
2357.00,0.3172
2356.00,0.3171
2355.00,0.3171
2354.00,0.3172
2353.00,0.3172
2352.00,0.3171
2351.00,0.3169
2350.00,0.3167
2349.00,0.3167
2348.00,0.3168
2347.00,0.3170
2346.00,0.3170
2345.00,0.3167
2344.00,0.3163
2343.00,0.3158
2342.00,0.3155
2341.00,0.3153
2340.00,0.3152
2339.00,0.3152
2338.00,0.3152
2337.00,0.3152
2336.00,0.3152
2335.00,0.3151
2334.00,0.3149
2333.00,0.3147
2332.00,0.3144
2331.00,0.3140
2330.00,0.3136
2329.00,0.3132
2328.00,0.3129
2327.00,0.3127
2326.00,0.3124
2325.00,0.3122
2324.00,0.3119
2323.00,0.3117
2322.00,0.3114
2321.00,0.3112
2320.00,0.3108
2319.00,0.3105
2318.00,0.3102
2317.00,0.3099
2316.00,0.3097
2315.00,0.3095
2314.00,0.3093
2313.00,0.3091
2312.00,0.3089
2311.00,0.3085
2310.00,0.3081
2309.00,0.3077
2308.00,0.3073
2307.00,0.3070
2306.00,0.3066
2305.00,0.3063
2304.00,0.3061
2303.00,0.3059
2302.00,0.3057
2301.00,0.3055
2300.00,0.3053
2299.00,0.3051
2298.00,0.3049
2297.00,0.3048
2296.00,0.3045
2295.00,0.3043
2294.00,0.3040
2293.00,0.3037
2292.00,0.3034
2291.00,0.3030
2290.00,0.3027
2289.00,0.3023
2288.00,0.3019
2287.00,0.3015
2286.00,0.3011
2285.00,0.3008
2284.00,0.3004
2283.00,0.3000
2282.00,0.2997
2281.00,0.2993
2280.00,0.2989
2279.00,0.2985
2278.00,0.2981
2277.00,0.2978
2276.00,0.2975
2275.00,0.2973
2274.00,0.2970
2273.00,0.2967
2272.00,0.2965
2271.00,0.2964
2270.00,0.2963
2269.00,0.2962
2268.00,0.2961
2267.00,0.2960
2266.00,0.2959
2265.00,0.2958
2264.00,0.2957
2263.00,0.2955
2262.00,0.2953
2261.00,0.2951
2260.00,0.2949
2259.00,0.2946
2258.00,0.2943
2257.00,0.2940
2256.00,0.2936
2255.00,0.2932
2254.00,0.2929
2253.00,0.2926
2252.00,0.2923
2251.00,0.2920
2250.00,0.2918
2249.00,0.2915
2248.00,0.2913
2247.00,0.2911
2246.00,0.2908
2245.00,0.2906
2244.00,0.2903
2243.00,0.2901
2242.00,0.2899
2241.00,0.2897
2240.00,0.2895
2239.00,0.2894
2238.00,0.2892
2237.00,0.2891
2236.00,0.2890
2235.00,0.2889
2234.00,0.2887
2233.00,0.2887
2232.00,0.2886
2231.00,0.2885
2230.00,0.2884
2229.00,0.2883
2228.00,0.2882
2227.00,0.2880
2226.00,0.2878
2225.00,0.2877
2224.00,0.2876
2223.00,0.2874
2222.00,0.2873
2221.00,0.2872
2220.00,0.2871
2219.00,0.2870
2218.00,0.2869
2217.00,0.2867
2216.00,0.2866
2215.00,0.2865
2214.00,0.2864
2213.00,0.2863
2212.00,0.2863
2211.00,0.2863
2210.00,0.2863
2209.00,0.2863
2208.00,0.2863
2207.00,0.2864
2206.00,0.2864
2205.00,0.2864
2204.00,0.2864
2203.00,0.2865
2202.00,0.2865
2201.00,0.2866
2200.00,0.2868
2199.00,0.2869
2198.00,0.2870
2197.00,0.2872
2196.00,0.2872
2195.00,0.2873
2194.00,0.2873
2193.00,0.2874
2192.00,0.2875
2191.00,0.2876
2190.00,0.2876
2189.00,0.2876
2188.00,0.2877
2187.00,0.2877
2186.00,0.2878
2185.00,0.2878
2184.00,0.2878
2183.00,0.2877
2182.00,0.2876
2181.00,0.2875
2180.00,0.2873
2179.00,0.2872
2178.00,0.2871
2177.00,0.2870
2176.00,0.2870
2175.00,0.2869
2174.00,0.2868
2173.00,0.2868
2172.00,0.2867
2171.00,0.2868
2170.00,0.2868
2169.00,0.2868
2168.00,0.2868
2167.00,0.2868
2166.00,0.2868
2165.00,0.2868
2164.00,0.2868
2163.00,0.2868
2162.00,0.2868
2161.00,0.2867
2160.00,0.2867
2159.00,0.2866
2158.00,0.2864
2157.00,0.2862
2156.00,0.2860
2155.00,0.2859
2154.00,0.2857
2153.00,0.2856
2152.00,0.2855
2151.00,0.2853
2150.00,0.2851
2149.00,0.2848
2148.00,0.2844
2147.00,0.2840
2146.00,0.2835
2145.00,0.2830
2144.00,0.2825
2143.00,0.2819
2142.00,0.2813
2141.00,0.2807
2140.00,0.2802
2139.00,0.2797
2138.00,0.2793
2137.00,0.2790
2136.00,0.2787
2135.00,0.2784
2134.00,0.2781
2133.00,0.2779
2132.00,0.2777
2131.00,0.2774
2130.00,0.2772
2129.00,0.2771
2128.00,0.2770
2127.00,0.2768
2126.00,0.2767
2125.00,0.2766
2124.00,0.2765
2123.00,0.2764
2122.00,0.2763
2121.00,0.2761
2120.00,0.2760
2119.00,0.2759
2118.00,0.2757
2117.00,0.2756
2116.00,0.2755
2115.00,0.2754
2114.00,0.2753
2113.00,0.2751
2112.00,0.2750
2111.00,0.2748
2110.00,0.2746
2109.00,0.2744
2108.00,0.2742
2107.00,0.2741
2106.00,0.2740
2105.00,0.2739
2104.00,0.2739
2103.00,0.2739
2102.00,0.2739
2101.00,0.2738
2100.00,0.2738
2099.00,0.2738
2098.00,0.2737
2097.00,0.2738
2096.00,0.2738
2095.00,0.2737
2094.00,0.2737
2093.00,0.2737
2092.00,0.2737
2091.00,0.2737
2090.00,0.2737
2089.00,0.2736
2088.00,0.2736
2087.00,0.2735
2086.00,0.2735
2085.00,0.2735
2084.00,0.2734
2083.00,0.2734
2082.00,0.2734
2081.00,0.2734
2080.00,0.2734
2079.00,0.2734
2078.00,0.2733
2077.00,0.2733
2076.00,0.2733
2075.00,0.2733
2074.00,0.2734
2073.00,0.2735
2072.00,0.2736
2071.00,0.2736
2070.00,0.2736
2069.00,0.2737
2068.00,0.2739
2067.00,0.2741
2066.00,0.2743
2065.00,0.2745
2064.00,0.2747
2063.00,0.2750
2062.00,0.2752
2061.00,0.2754
2060.00,0.2756
2059.00,0.2758
2058.00,0.2760
2057.00,0.2762
2056.00,0.2764
2055.00,0.2766
2054.00,0.2768
2053.00,0.2770
2052.00,0.2772
2051.00,0.2775
2050.00,0.2777
2049.00,0.2780
2048.00,0.2782
2047.00,0.2785
2046.00,0.2787
2045.00,0.2789
2044.00,0.2791
2043.00,0.2793
2042.00,0.2795
2041.00,0.2797
2040.00,0.2799
2039.00,0.2800
2038.00,0.2801
2037.00,0.2802
2036.00,0.2803
2035.00,0.2804
2034.00,0.2805
2033.00,0.2806
2032.00,0.2807
2031.00,0.2807
2030.00,0.2808
2029.00,0.2808
2028.00,0.2809
2027.00,0.2810
2026.00,0.2810
2025.00,0.2810
2024.00,0.2810
2023.00,0.2809
2022.00,0.2806
2021.00,0.2802
2020.00,0.2797
2019.00,0.2790
2018.00,0.2784
2017.00,0.2777
2016.00,0.2769
2015.00,0.2762
2014.00,0.2754
2013.00,0.2747
2012.00,0.2739
2011.00,0.2731
2010.00,0.2724
2009.00,0.2717
2008.00,0.2711
2007.00,0.2706
2006.00,0.2701
2005.00,0.2698
2004.00,0.2695
2003.00,0.2692
2002.00,0.2689
2001.00,0.2687
2000.00,0.2685
1999.00,0.2683
1998.00,0.2682
1997.00,0.2681
1996.00,0.2679
1995.00,0.2677
1994.00,0.2675
1993.00,0.2675
1992.00,0.2676
1991.00,0.2676
1990.00,0.2676
1989.00,0.2675
1988.00,0.2675
1987.00,0.2674
1986.00,0.2674
1985.00,0.2674
1984.00,0.2674
1983.00,0.2674
1982.00,0.2673
1981.00,0.2672
1980.00,0.2672
1979.00,0.2671
1978.00,0.2671
1977.00,0.2671
1976.00,0.2671
1975.00,0.2671
1974.00,0.2670
1973.00,0.2669
1972.00,0.2669
1971.00,0.2668
1970.00,0.2666
1969.00,0.2665
1968.00,0.2665
1967.00,0.2666
1966.00,0.2667
1965.00,0.2669
1964.00,0.2669
1963.00,0.2669
1962.00,0.2670
1961.00,0.2671
1960.00,0.2673
1959.00,0.2675
1958.00,0.2677
1957.00,0.2678
1956.00,0.2680
1955.00,0.2682
1954.00,0.2684
1953.00,0.2686
1952.00,0.2688
1951.00,0.2689
1950.00,0.2689
1949.00,0.2689
1948.00,0.2690
1947.00,0.2690
1946.00,0.2691
1945.00,0.2694
1944.00,0.2697
1943.00,0.2702
1942.00,0.2707
1941.00,0.2713
1940.00,0.2718
1939.00,0.2722
1938.00,0.2725
1937.00,0.2726
1936.00,0.2727
1935.00,0.2727
1934.00,0.2726
1933.00,0.2725
1932.00,0.2725
1931.00,0.2725
1930.00,0.2724
1929.00,0.2724
1928.00,0.2724
1927.00,0.2722
1926.00,0.2720
1925.00,0.2718
1924.00,0.2718
1923.00,0.2720
1922.00,0.2724
1921.00,0.2728
1920.00,0.2733
1919.00,0.2736
1918.00,0.2740
1917.00,0.2743
1916.00,0.2745
1915.00,0.2746
1914.00,0.2747
1913.00,0.2747
1912.00,0.2747
1911.00,0.2747
1910.00,0.2749
1909.00,0.2751
1908.00,0.2754
1907.00,0.2756
1906.00,0.2756
1905.00,0.2756
1904.00,0.2756
1903.00,0.2756
1902.00,0.2755
1901.00,0.2754
1900.00,0.2753
1899.00,0.2751
1898.00,0.2749
1897.00,0.2747
1896.00,0.2747
1895.00,0.2748
1894.00,0.2748
1893.00,0.2748
1892.00,0.2747
1891.00,0.2747
1890.00,0.2749
1889.00,0.2751
1888.00,0.2754
1887.00,0.2755
1886.00,0.2755
1885.00,0.2756
1884.00,0.2758
1883.00,0.2759
1882.00,0.2761
1881.00,0.2762
1880.00,0.2763
1879.00,0.2763
1878.00,0.2763
1877.00,0.2763
1876.00,0.2764
1875.00,0.2763
1874.00,0.2761
1873.00,0.2760
1872.00,0.2759
1871.00,0.2757
1870.00,0.2754
1869.00,0.2751
1868.00,0.2749
1867.00,0.2747
1866.00,0.2744
1865.00,0.2742
1864.00,0.2740
1863.00,0.2737
1862.00,0.2734
1861.00,0.2730
1860.00,0.2728
1859.00,0.2725
1858.00,0.2723
1857.00,0.2721
1856.00,0.2719
1855.00,0.2717
1854.00,0.2714
1853.00,0.2712
1852.00,0.2710
1851.00,0.2708
1850.00,0.2708
1849.00,0.2707
1848.00,0.2706
1847.00,0.2705
1846.00,0.2703
1845.00,0.2702
1844.00,0.2702
1843.00,0.2702
1842.00,0.2702
1841.00,0.2702
1840.00,0.2703
1839.00,0.2703
1838.00,0.2703
1837.00,0.2703
1836.00,0.2703
1835.00,0.2703
1834.00,0.2702
1833.00,0.2702
1832.00,0.2702
1831.00,0.2702
1830.00,0.2701
1829.00,0.2701
1828.00,0.2701
1827.00,0.2701
1826.00,0.2701
1825.00,0.2701
1824.00,0.2701
1823.00,0.2701
1822.00,0.2701
1821.00,0.2701
1820.00,0.2703
1819.00,0.2704
1818.00,0.2704
1817.00,0.2705
1816.00,0.2706
1815.00,0.2706
1814.00,0.2705
1813.00,0.2705
1812.00,0.2706
1811.00,0.2710
1810.00,0.2715
1809.00,0.2721
1808.00,0.2727
1807.00,0.2732
1806.00,0.2738
1805.00,0.2744
1804.00,0.2751
1803.00,0.2756
1802.00,0.2761
1801.00,0.2766
1800.00,0.2774
1799.00,0.2782
1798.00,0.2789
1797.00,0.2795
1796.00,0.2802
1795.00,0.2808
1794.00,0.2814
1793.00,0.2821
1792.00,0.2829
1791.00,0.2837
1790.00,0.2842
1789.00,0.2848
1788.00,0.2855
1787.00,0.2862
1786.00,0.2864
1785.00,0.2869
1784.00,0.2875
1783.00,0.2881
1782.00,0.2887
1781.00,0.2893
1780.00,0.2899
1779.00,0.2905
1778.00,0.2911
1777.00,0.2917
1776.00,0.2923
1775.00,0.2929
1774.00,0.2934
1773.00,0.2940
1772.00,0.2947
1771.00,0.2955
1770.00,0.2961
1769.00,0.2975
1768.00,0.2984
1767.00,0.2989
1766.00,0.2992
1765.00,0.2998
1764.00,0.3007
1763.00,0.3016
1762.00,0.3026
1761.00,0.3036
1760.00,0.3045
1759.00,0.3055
1758.00,0.3067
1757.00,0.3082
1756.00,0.3097
1755.00,0.3114
1754.00,0.3134
1753.00,0.3158
1752.00,0.3182
1751.00,0.3206
1750.00,0.3235
1749.00,0.3275
1748.00,0.3327
1747.00,0.3385
1746.00,0.3445
1745.00,0.3505
1744.00,0.3563
1743.00,0.3613
1742.00,0.3653
1741.00,0.3682
1740.00,0.3698
1739.00,0.3701
1738.00,0.3698
1737.00,0.3693
1736.00,0.3682
1735.00,0.3658
1734.00,0.3623
1733.00,0.3585
1732.00,0.3552
1731.00,0.3529
1730.00,0.3518
1729.00,0.3513
1728.00,0.3512
1727.00,0.3515
1726.00,0.3522
1725.00,0.3535
1724.00,0.3552
1723.00,0.3571
1722.00,0.3589
1721.00,0.3608
1720.00,0.3623
1719.00,0.3634
1718.00,0.3645
1717.00,0.3657
1716.00,0.3667
1715.00,0.3676
1714.00,0.3684
1713.00,0.3694
1712.00,0.3703
1711.00,0.3711
1710.00,0.3720
1709.00,0.3728
1708.00,0.3735
1707.00,0.3740
1706.00,0.3746
1705.00,0.3754
1704.00,0.3762
1703.00,0.3767
1702.00,0.3761
1701.00,0.3732
1700.00,0.3687
1699.00,0.3642
1698.00,0.3613
1697.00,0.3599
1696.00,0.3588
1695.00,0.3570
1694.00,0.3549
1693.00,0.3536
1692.00,0.3532
1691.00,0.3532
1690.00,0.3535
1689.00,0.3542
1688.00,0.3552
1687.00,0.3558
1686.00,0.3554
1685.00,0.3542
1684.00,0.3535
1683.00,0.3525
1682.00,0.3515
1681.00,0.3511
1680.00,0.3511
1679.00,0.3515
1678.00,0.3521
1677.00,0.3530
1676.00,0.3538
1675.00,0.3543
1674.00,0.3545
1673.00,0.3548
1672.00,0.3554
1671.00,0.3565
1670.00,0.3583
1669.00,0.3606
1668.00,0.3627
1667.00,0.3643
1666.00,0.3659
1665.00,0.3677
1664.00,0.3699
1663.00,0.3727
1662.00,0.3758
1661.00,0.3790
1660.00,0.3822
1659.00,0.3852
1658.00,0.3884
1657.00,0.3920
1656.00,0.3960
1655.00,0.3996
1654.00,0.4037
1653.00,0.4090
1652.00,0.4122
1651.00,0.4130
1650.00,0.4137
1649.00,0.4158
1648.00,0.4197
1647.00,0.4252
1646.00,0.4311
1645.00,0.4360
1644.00,0.4400
1643.00,0.4437
1642.00,0.4475
1641.00,0.4515
1640.00,0.4553
1639.00,0.4589
1638.00,0.4624
1637.00,0.4668
1636.00,0.4727
1635.00,0.4786
1634.00,0.4830
1633.00,0.4868
1632.00,0.4906
1631.00,0.4944
1630.00,0.4983
1629.00,0.5028
1628.00,0.5079
1627.00,0.5129
1626.00,0.5175
1625.00,0.5224
1624.00,0.5280
1623.00,0.5345
1622.00,0.5415
1621.00,0.5490
1620.00,0.5573
1619.00,0.5666
1618.00,0.5779
1617.00,0.5925
1616.00,0.6092
1615.00,0.6258
1614.00,0.6422
1613.00,0.6600
1612.00,0.6802
1611.00,0.7021
1610.00,0.7248
1609.00,0.7485
1608.00,0.7725
1607.00,0.7954
1606.00,0.8172
1605.00,0.8396
1604.00,0.8644
1603.00,0.8923
1602.00,0.9242
1601.00,0.9622
1600.00,1.0076
1599.00,1.0601
1598.00,1.1210
1597.00,1.1949
1596.00,1.2870
1595.00,1.3990
1594.00,1.5327
1593.00,1.6956
1592.00,1.8990
1591.00,2.1436
1590.00,2.4151
1589.00,2.7300
1588.00,3.1813
1587.00,3.8151
1586.00,3.7738
1585.00,3.7203
1584.00,3.8348
1583.00,3.7421
1582.00,3.9511
1581.00,3.8867
1580.00,3.9701
1579.00,3.7107
1578.00,3.0464
1577.00,2.6069
1576.00,2.3026
1575.00,2.0680
1574.00,1.8945
1573.00,1.7758
1572.00,1.6972
1571.00,1.6489
1570.00,1.6346
1569.00,1.6636
1568.00,1.7379
1567.00,1.8511
1566.00,2.0024
1565.00,2.2082
1564.00,2.4921
1563.00,2.8293
1562.00,3.0505
1561.00,3.0513
1560.00,2.8282
1559.00,2.4189
1558.00,2.0752
1557.00,1.8360
1556.00,1.6456
1555.00,1.4729
1554.00,1.3241
1553.00,1.2098
1552.00,1.1273
1551.00,1.0669
1550.00,1.0231
1549.00,0.9959
1548.00,0.9843
1547.00,0.9845
1546.00,0.9925
1545.00,1.0061
1544.00,1.0223
1543.00,1.0355
1542.00,1.0401
1541.00,1.0333
1540.00,1.0146
1539.00,0.9859
1538.00,0.9547
1537.00,0.9266
1536.00,0.9008
1535.00,0.8735
1534.00,0.8438
1533.00,0.8156
1532.00,0.7918
1531.00,0.7719
1530.00,0.7543
1529.00,0.7384
1528.00,0.7236
1527.00,0.7088
1526.00,0.6941
1525.00,0.6813
1524.00,0.6714
1523.00,0.6643
1522.00,0.6602
1521.00,0.6596
1520.00,0.6615
1519.00,0.6648
1518.00,0.6695
1517.00,0.6753
1516.00,0.6803
1515.00,0.6815
1514.00,0.6784
1513.00,0.6720
1512.00,0.6635
1511.00,0.6541
1510.00,0.6454
1509.00,0.6384
1508.00,0.6338
1507.00,0.6329
1506.00,0.6347
1505.00,0.6370
1504.00,0.6397
1503.00,0.6428
1502.00,0.6464
1501.00,0.6506
1500.00,0.6555
1499.00,0.6609
1498.00,0.6679
1497.00,0.6775
1496.00,0.6895
1495.00,0.7023
1494.00,0.7158
1493.00,0.7316
1492.00,0.7503
1491.00,0.7705
1490.00,0.7899
1489.00,0.8070
1488.00,0.8218
1487.00,0.8365
1486.00,0.8541
1485.00,0.8769
1484.00,0.9051
1483.00,0.9385
1482.00,0.9784
1481.00,1.0262
1480.00,1.0814
1479.00,1.1438
1478.00,1.2165
1477.00,1.3048
1476.00,1.4108
1475.00,1.5351
1474.00,1.6867
1473.00,1.8855
1472.00,2.1476
1471.00,2.4678
1470.00,2.8363
1469.00,3.2963
1468.00,3.9194
1467.00,4.0417
1466.00,3.8499
1465.00,3.8179
1464.00,3.8537
1463.00,3.9407
1462.00,4.0802
1461.00,4.1305
1460.00,3.8643
1459.00,3.6344
1458.00,3.4845
1457.00,3.4197
1456.00,3.4480
1455.00,3.6535
1454.00,4.0968
1453.00,3.9892
1452.00,3.7017
1451.00,3.6887
1450.00,3.7629
1449.00,3.7178
1448.00,3.7623
1447.00,4.0719
1446.00,4.4547
1445.00,4.4288
1444.00,4.4551
1443.00,4.2464
1442.00,3.6674
1441.00,3.4449
1440.00,3.2612
1439.00,3.0278
1438.00,2.8047
1437.00,2.5909
1436.00,2.3832
1435.00,2.1964
1434.00,2.0380
1433.00,1.8971
1432.00,1.7632
1431.00,1.6379
1430.00,1.5277
1429.00,1.4357
1428.00,1.3606
1427.00,1.3000
1426.00,1.2506
1425.00,1.2103
1424.00,1.1786
1423.00,1.1558
1422.00,1.1404
1421.00,1.1302
1420.00,1.1242
1419.00,1.1235
1418.00,1.1293
1417.00,1.1422
1416.00,1.1621
1415.00,1.1881
1414.00,1.2182
1413.00,1.2489
1412.00,1.2751
1411.00,1.2910
1410.00,1.2932
1409.00,1.2815
1408.00,1.2576
1407.00,1.2232
1406.00,1.1805
1405.00,1.1328
1404.00,1.0840
1403.00,1.0380
1402.00,0.9964
1401.00,0.9586
1400.00,0.9244
1399.00,0.8952
1398.00,0.8720
1397.00,0.8545
1396.00,0.8412
1395.00,0.8309
1394.00,0.8236
1393.00,0.8199
1392.00,0.8220
1391.00,0.8317
1390.00,0.8512
1389.00,0.8833
1388.00,0.9314
1387.00,0.9969
1386.00,1.0765
1385.00,1.1660
1384.00,1.2650
1383.00,1.3767
1382.00,1.5054
1381.00,1.6546
1380.00,1.8242
1379.00,1.9969
1378.00,2.1227
1377.00,2.1475
1376.00,2.0720
1375.00,1.9384
1374.00,1.7897
1373.00,1.6555
1372.00,1.5471
1371.00,1.4642
1370.00,1.4044
1369.00,1.3656
1368.00,1.3431
1367.00,1.3265
1366.00,1.3021
1365.00,1.2606
1364.00,1.2026
1363.00,1.1371
1362.00,1.0755
1361.00,1.0246
1360.00,0.9856
1359.00,0.9567
1358.00,0.9359
1357.00,0.9221
1356.00,0.9146
1355.00,0.9125
1354.00,0.9146
1353.00,0.9197
1352.00,0.9267
1351.00,0.9355
1350.00,0.9468
1349.00,0.9626
1348.00,0.9845
1347.00,1.0127
1346.00,1.0428
1345.00,1.0661
1344.00,1.0728
1343.00,1.0583
1342.00,1.0266
1341.00,0.9865
1340.00,0.9454
1339.00,0.9072
1338.00,0.8727
1337.00,0.8417
1336.00,0.8138
1335.00,0.7890
1334.00,0.7675
1333.00,0.7494
1332.00,0.7347
1331.00,0.7234
1330.00,0.7154
1329.00,0.7106
1328.00,0.7087
1327.00,0.7092
1326.00,0.7112
1325.00,0.7138
1324.00,0.7165
1323.00,0.7189
1322.00,0.7210
1321.00,0.7231
1320.00,0.7256
1319.00,0.7286
1318.00,0.7319
1317.00,0.7354
1316.00,0.7394
1315.00,0.7443
1314.00,0.7503
1313.00,0.7576
1312.00,0.7658
1311.00,0.7746
1310.00,0.7835
1309.00,0.7920
1308.00,0.7993
1307.00,0.8045
1306.00,0.8070
1305.00,0.8067
1304.00,0.8044
1303.00,0.8010
1302.00,0.7975
1301.00,0.7943
1300.00,0.7915
1299.00,0.7888
1298.00,0.7858
1297.00,0.7823
1296.00,0.7785
1295.00,0.7748
1294.00,0.7715
1293.00,0.7681
1292.00,0.7634
1291.00,0.7566
1290.00,0.7474
1289.00,0.7370
1288.00,0.7267
1287.00,0.7177
1286.00,0.7104
1285.00,0.7048
1284.00,0.7014
1283.00,0.7009
1282.00,0.7043
1281.00,0.7119
1280.00,0.7223
1279.00,0.7322
1278.00,0.7369
1277.00,0.7331
1276.00,0.7209
1275.00,0.7040
1274.00,0.6868
1273.00,0.6721
1272.00,0.6611
1271.00,0.6538
1270.00,0.6494
1269.00,0.6464
1268.00,0.6435
1267.00,0.6398
1266.00,0.6351
1265.00,0.6300
1264.00,0.6251
1263.00,0.6208
1262.00,0.6174
1261.00,0.6149
1260.00,0.6133
1259.00,0.6127
1258.00,0.6130
1257.00,0.6138
1256.00,0.6152
1255.00,0.6171
1254.00,0.6194
1253.00,0.6218
1252.00,0.6235
1251.00,0.6241
1250.00,0.6232
1249.00,0.6209
1248.00,0.6178
1247.00,0.6142
1246.00,0.6103
1245.00,0.6065
1244.00,0.6031
1243.00,0.6006
1242.00,0.5985
1241.00,0.5962
1240.00,0.5933
1239.00,0.5900
1238.00,0.5875
1237.00,0.5868
1236.00,0.5885
1235.00,0.5927
1234.00,0.5987
1233.00,0.6055
1232.00,0.6123
1231.00,0.6179
1230.00,0.6208
1229.00,0.6197
1228.00,0.6140
1227.00,0.6040
1226.00,0.5912
1225.00,0.5775
1224.00,0.5644
1223.00,0.5531
1222.00,0.5441
1221.00,0.5372
1220.00,0.5323
1219.00,0.5291
1218.00,0.5277
1217.00,0.5280
1216.00,0.5296
1215.00,0.5325
1214.00,0.5359
1213.00,0.5391
1212.00,0.5417
1211.00,0.5437
1210.00,0.5448
1209.00,0.5451
1208.00,0.5446
1207.00,0.5436
1206.00,0.5428
1205.00,0.5430
1204.00,0.5450
1203.00,0.5495
1202.00,0.5568
1201.00,0.5660
1200.00,0.5749
1199.00,0.5812
1198.00,0.5836
1197.00,0.5832
1196.00,0.5822
1195.00,0.5825
1194.00,0.5849
1193.00,0.5889
1192.00,0.5936
1191.00,0.5979
1190.00,0.6006
1189.00,0.6011
1188.00,0.5994
1187.00,0.5958
1186.00,0.5909
1185.00,0.5851
1184.00,0.5788
1183.00,0.5726
1182.00,0.5668
1181.00,0.5617
1180.00,0.5575
1179.00,0.5544
1178.00,0.5524
1177.00,0.5514
1176.00,0.5514
1175.00,0.5527
1174.00,0.5552
1173.00,0.5585
1172.00,0.5624
1171.00,0.5663
1170.00,0.5698
1169.00,0.5725
1168.00,0.5745
1167.00,0.5763
1166.00,0.5783
1165.00,0.5809
1164.00,0.5843
1163.00,0.5887
1162.00,0.5935
1161.00,0.5979
1160.00,0.6010
1159.00,0.6020
1158.00,0.6014
1157.00,0.5997
1156.00,0.5978
1155.00,0.5962
1154.00,0.5947
1153.00,0.5929
1152.00,0.5908
1151.00,0.5883
1150.00,0.5856
1149.00,0.5830
1148.00,0.5809
1147.00,0.5792
1146.00,0.5781
1145.00,0.5777
1144.00,0.5781
1143.00,0.5798
1142.00,0.5826
1141.00,0.5867
1140.00,0.5921
1139.00,0.5990
1138.00,0.6075
1137.00,0.6174
1136.00,0.6287
1135.00,0.6403
1134.00,0.6502
1133.00,0.6560
1132.00,0.6562
1131.00,0.6515
1130.00,0.6444
1129.00,0.6381
1128.00,0.6348
1127.00,0.6354
1126.00,0.6385
1125.00,0.6413
1124.00,0.6413
1123.00,0.6380
1122.00,0.6327
1121.00,0.6275
1120.00,0.6239
1119.00,0.6226
1118.00,0.6231
1117.00,0.6245
1116.00,0.6255
1115.00,0.6241
1114.00,0.6189
1113.00,0.6091
1112.00,0.5958
1111.00,0.5809
1110.00,0.5664
1109.00,0.5539
1108.00,0.5442
1107.00,0.5376
1106.00,0.5342
1105.00,0.5336
1104.00,0.5353
1103.00,0.5388
1102.00,0.5436
1101.00,0.5489
1100.00,0.5533
1099.00,0.5551
1098.00,0.5532
1097.00,0.5480
1096.00,0.5412
1095.00,0.5346
1094.00,0.5294
1093.00,0.5255
1092.00,0.5224
1091.00,0.5196
1090.00,0.5173
1089.00,0.5156
1088.00,0.5150
1087.00,0.5158
1086.00,0.5183
1085.00,0.5225
1084.00,0.5284
1083.00,0.5360
1082.00,0.5448
1081.00,0.5541
1080.00,0.5630
1079.00,0.5703
1078.00,0.5749
1077.00,0.5759
1076.00,0.5729
1075.00,0.5664
1074.00,0.5577
1073.00,0.5482
1072.00,0.5390
1071.00,0.5309
1070.00,0.5237
1069.00,0.5173
1068.00,0.5117
1067.00,0.5069
1066.00,0.5030
1065.00,0.4997
1064.00,0.4970
1063.00,0.4950
1062.00,0.4935
1061.00,0.4921
1060.00,0.4902
1059.00,0.4879
1058.00,0.4852
1057.00,0.4823
1056.00,0.4793
1055.00,0.4762
1054.00,0.4733
1053.00,0.4704
1052.00,0.4679
1051.00,0.4659
1050.00,0.4645
1049.00,0.4636
1048.00,0.4631
1047.00,0.4630
1046.00,0.4629
1045.00,0.4627
1044.00,0.4622
1043.00,0.4619
1042.00,0.4618
1041.00,0.4620
1040.00,0.4625
1039.00,0.4632
1038.00,0.4639
1037.00,0.4646
1036.00,0.4658
1035.00,0.4677
1034.00,0.4709
1033.00,0.4752
1032.00,0.4805
1031.00,0.4865
1030.00,0.4927
1029.00,0.4982
1028.00,0.5020
1027.00,0.5031
1026.00,0.5010
1025.00,0.4957
1024.00,0.4882
1023.00,0.4798
1022.00,0.4718
1021.00,0.4650
1020.00,0.4597
1019.00,0.4559
1018.00,0.4530
1017.00,0.4507
1016.00,0.4485
1015.00,0.4468
1014.00,0.4454
1013.00,0.4444
1012.00,0.4439
1011.00,0.4441
1010.00,0.4453
1009.00,0.4473
1008.00,0.4494
1007.00,0.4510
1006.00,0.4518
1005.00,0.4520
1004.00,0.4522
1003.00,0.4526
1002.00,0.4534
1001.00,0.4545
1000.00,0.4554
999.00,0.4558
998.00,0.4555
997.00,0.4545
996.00,0.4529
995.00,0.4511
994.00,0.4493
993.00,0.4476
992.00,0.4461
991.00,0.4450
990.00,0.4440
989.00,0.4429
988.00,0.4414
987.00,0.4395
986.00,0.4374
985.00,0.4359
984.00,0.4356
983.00,0.4368
982.00,0.4397
981.00,0.4440
980.00,0.4499
979.00,0.4578
978.00,0.4688
977.00,0.4845
976.00,0.5065
975.00,0.5364
974.00,0.5754
973.00,0.6245
972.00,0.6834
971.00,0.7492
970.00,0.8141
969.00,0.8656
968.00,0.8891
967.00,0.8771
966.00,0.8343
965.00,0.7742
964.00,0.7108
963.00,0.6532
962.00,0.6067
961.00,0.5736
960.00,0.5544
959.00,0.5479
958.00,0.5509
957.00,0.5587
956.00,0.5660
955.00,0.5683
954.00,0.5635
953.00,0.5522
952.00,0.5372
951.00,0.5218
950.00,0.5085
949.00,0.4988
948.00,0.4930
947.00,0.4909
946.00,0.4921
945.00,0.4956
944.00,0.5007
943.00,0.5067
942.00,0.5127
941.00,0.5177
940.00,0.5213
939.00,0.5230
938.00,0.5227
937.00,0.5209
936.00,0.5180
935.00,0.5144
934.00,0.5099
933.00,0.5047
932.00,0.4985
931.00,0.4919
930.00,0.4853
929.00,0.4790
928.00,0.4737
927.00,0.4700
926.00,0.4685
925.00,0.4694
924.00,0.4729
923.00,0.4780
922.00,0.4832
921.00,0.4863
920.00,0.4854
919.00,0.4800
918.00,0.4711
917.00,0.4603
916.00,0.4497
915.00,0.4405
914.00,0.4334
913.00,0.4282
912.00,0.4244
911.00,0.4218
910.00,0.4203
909.00,0.4202
908.00,0.4220
907.00,0.4263
906.00,0.4329
905.00,0.4408
904.00,0.4477
903.00,0.4510
902.00,0.4496
901.00,0.4449
900.00,0.4396
899.00,0.4357
898.00,0.4338
897.00,0.4335
896.00,0.4344
895.00,0.4364
894.00,0.4395
893.00,0.4433
892.00,0.4476
891.00,0.4518
890.00,0.4549
889.00,0.4562
888.00,0.4552
887.00,0.4520
886.00,0.4472
885.00,0.4418
884.00,0.4367
883.00,0.4327
882.00,0.4301
881.00,0.4285
880.00,0.4276
879.00,0.4270
878.00,0.4266
877.00,0.4262
876.00,0.4260
875.00,0.4263
874.00,0.4268
873.00,0.4273
872.00,0.4277
871.00,0.4281
870.00,0.4288
869.00,0.4300
868.00,0.4318
867.00,0.4348
866.00,0.4391
865.00,0.4445
864.00,0.4502
863.00,0.4552
862.00,0.4580
861.00,0.4570
860.00,0.4520
859.00,0.4440
858.00,0.4351
857.00,0.4269
856.00,0.4205
855.00,0.4160
854.00,0.4130
853.00,0.4110
852.00,0.4096
851.00,0.4082
850.00,0.4070
849.00,0.4058
848.00,0.4050
847.00,0.4045
846.00,0.4043
845.00,0.4044
844.00,0.4050
843.00,0.4065
842.00,0.4098
841.00,0.4158
840.00,0.4251
839.00,0.4370
838.00,0.4497
837.00,0.4600
836.00,0.4648
835.00,0.4631
834.00,0.4564
833.00,0.4479
832.00,0.4408
831.00,0.4371
830.00,0.4371
829.00,0.4398
828.00,0.4435
827.00,0.4470
826.00,0.4499
825.00,0.4526
824.00,0.4556
823.00,0.4592
822.00,0.4627
821.00,0.4654
820.00,0.4667
819.00,0.4669
818.00,0.4664
817.00,0.4656
816.00,0.4648
815.00,0.4640
814.00,0.4626
813.00,0.4604
812.00,0.4576
811.00,0.4548
810.00,0.4523
809.00,0.4501
808.00,0.4482
807.00,0.4463
806.00,0.4443
805.00,0.4418
804.00,0.4387
803.00,0.4354
802.00,0.4321
801.00,0.4291
800.00,0.4265
799.00,0.4244
798.00,0.4224
797.00,0.4205
796.00,0.4187
795.00,0.4172
794.00,0.4164
793.00,0.4161
792.00,0.4166
791.00,0.4179
790.00,0.4195
789.00,0.4212
788.00,0.4229
787.00,0.4251
786.00,0.4283
785.00,0.4331
784.00,0.4395
783.00,0.4475
782.00,0.4574
781.00,0.4694
780.00,0.4833
779.00,0.4976
778.00,0.5093
777.00,0.5149
776.00,0.5131
775.00,0.5056
774.00,0.4961
773.00,0.4881
772.00,0.4829
771.00,0.4805
770.00,0.4802
769.00,0.4812
768.00,0.4828
767.00,0.4846
766.00,0.4862
765.00,0.4879
764.00,0.4898
763.00,0.4925
762.00,0.4963
761.00,0.5009
760.00,0.5057
759.00,0.5098
758.00,0.5128
757.00,0.5152
756.00,0.5177
755.00,0.5212
754.00,0.5256
753.00,0.5306
752.00,0.5360
751.00,0.5415
750.00,0.5473
749.00,0.5533
748.00,0.5596
747.00,0.5663
746.00,0.5733
745.00,0.5806
744.00,0.5887
743.00,0.5979
742.00,0.6081
741.00,0.6191
740.00,0.6303
739.00,0.6418
738.00,0.6539
737.00,0.6668
736.00,0.6807
735.00,0.6958
734.00,0.7115
733.00,0.7273
732.00,0.7433
731.00,0.7607
730.00,0.7814
729.00,0.8071
728.00,0.8396
727.00,0.8807
726.00,0.9324
725.00,0.9947
724.00,1.0625
723.00,1.1234
722.00,1.1580
721.00,1.1512
720.00,1.1058
719.00,1.0400
718.00,0.9717
717.00,0.9106
716.00,0.8603
715.00,0.8215
714.00,0.7924
713.00,0.7701
712.00,0.7514
711.00,0.7340
710.00,0.7166
709.00,0.6984
708.00,0.6795
707.00,0.6606
706.00,0.6425
705.00,0.6250
704.00,0.6083
703.00,0.5929
702.00,0.5788
701.00,0.5659
700.00,0.5534
699.00,0.5408
698.00,0.5278
697.00,0.5141
696.00,0.5004
695.00,0.4882
694.00,0.4782
693.00,0.4707
692.00,0.4653
691.00,0.4616
690.00,0.4590
689.00,0.4566
688.00,0.4535
687.00,0.4491
686.00,0.4436
685.00,0.4377
684.00,0.4325
683.00,0.4285
682.00,0.4258
681.00,0.4239
680.00,0.4223
679.00,0.4209
678.00,0.4200
677.00,0.4196
676.00,0.4197
675.00,0.4200
674.00,0.4205
673.00,0.4209
672.00,0.4213
671.00,0.4214
670.00,0.4214
669.00,0.4217
668.00,0.4223
667.00,0.4235
666.00,0.4258
665.00,0.4280
664.00,0.4296
663.00,0.4307
662.00,0.4320
661.00,0.4335
660.00,0.4350
659.00,0.4364
658.00,0.4378
657.00,0.4391
656.00,0.4403
655.00,0.4416
654.00,0.4430
653.00,0.4444
652.00,0.4458
651.00,0.4473
650.00,0.4489
649.00,0.4504
648.00,0.4519
647.00,0.4534
646.00,0.4548
645.00,0.4561
644.00,0.4571
643.00,0.4581
642.00,0.4591
641.00,0.4600
640.00,0.4607
639.00,0.4615
638.00,0.4625
637.00,0.4637
636.00,0.4651
635.00,0.4668
634.00,0.4690
633.00,0.4716
632.00,0.4745
631.00,0.4775
630.00,0.4802
629.00,0.4829
628.00,0.4855
627.00,0.4884
626.00,0.4914
625.00,0.4944
624.00,0.4972
623.00,0.4994
622.00,0.5010
621.00,0.5024
620.00,0.5036
619.00,0.5048
618.00,0.5057
617.00,0.5059
616.00,0.5055
615.00,0.5050
614.00,0.5044
613.00,0.5038
612.00,0.5031
611.00,0.5022
610.00,0.5013
609.00,0.5002
608.00,0.4990
607.00,0.4979
606.00,0.4970
605.00,0.4965
604.00,0.4959
603.00,0.4951
602.00,0.4941
601.00,0.4930
600.00,0.4920
599.00,0.4909
598.00,0.4898
597.00,0.4889
596.00,0.4888
595.00,0.4896
594.00,0.4909
593.00,0.4921
592.00,0.4928
591.00,0.4934
590.00,0.4943
589.00,0.4957
588.00,0.4974
587.00,0.4996
586.00,0.5025
585.00,0.5057
584.00,0.5089
583.00,0.5117
582.00,0.5145
581.00,0.5173
580.00,0.5202
579.00,0.5228
578.00,0.5250
577.00,0.5269
576.00,0.5288
575.00,0.5310
574.00,0.5336
573.00,0.5365
572.00,0.5399
571.00,0.5436
570.00,0.5477
569.00,0.5519
568.00,0.5563
567.00,0.5603
566.00,0.5639
565.00,0.5673
564.00,0.5706
563.00,0.5742
562.00,0.5783
561.00,0.5830
560.00,0.5880
559.00,0.5929
558.00,0.5972
557.00,0.6010
556.00,0.6049
555.00,0.6094
554.00,0.6148
553.00,0.6209
552.00,0.6273
551.00,0.6336
550.00,0.6393
