Created as New Dataset,
cm-1,A
4000.00,0.4700
3999.00,0.4697
3998.00,0.4694
3997.00,0.4690
3996.00,0.4686
3995.00,0.4682
3994.00,0.4678
3993.00,0.4674
3992.00,0.4670
3991.00,0.4666
3990.00,0.4662
3989.00,0.4658
3988.00,0.4653
3987.00,0.4649
3986.00,0.4645
3985.00,0.4641
3984.00,0.4637
3983.00,0.4634
3982.00,0.4630
3981.00,0.4627
3980.00,0.4623
3979.00,0.4620
3978.00,0.4617
3977.00,0.4614
3976.00,0.4611
3975.00,0.4608
3974.00,0.4605
3973.00,0.4604
3972.00,0.4602
3971.00,0.4600
3970.00,0.4597
3969.00,0.4595
3968.00,0.4592
3967.00,0.4589
3966.00,0.4586
3965.00,0.4583
3964.00,0.4579
3963.00,0.4576
3962.00,0.4573
3961.00,0.4570
3960.00,0.4568
3959.00,0.4566
3958.00,0.4564
3957.00,0.4561
3956.00,0.4558
3955.00,0.4556
3954.00,0.4554
3953.00,0.4552
3952.00,0.4551
3951.00,0.4550
3950.00,0.4548
3949.00,0.4546
3948.00,0.4544
3947.00,0.4543
3946.00,0.4541
3945.00,0.4539
3944.00,0.4537
3943.00,0.4536
3942.00,0.4535
3941.00,0.4534
3940.00,0.4532
3939.00,0.4531
3938.00,0.4530
3937.00,0.4529
3936.00,0.4528
3935.00,0.4527
3934.00,0.4527
3933.00,0.4527
3932.00,0.4527
3931.00,0.4527
3930.00,0.4526
3929.00,0.4526
3928.00,0.4525
3927.00,0.4524
3926.00,0.4524
3925.00,0.4524
3924.00,0.4524
3923.00,0.4523
3922.00,0.4523
3921.00,0.4523
3920.00,0.4522
3919.00,0.4522
3918.00,0.4521
3917.00,0.4520
3916.00,0.4519
3915.00,0.4518
3914.00,0.4517
3913.00,0.4516
3912.00,0.4515
3911.00,0.4514
3910.00,0.4513
3909.00,0.4512
3908.00,0.4511
3907.00,0.4512
3906.00,0.4513
3905.00,0.4514
3904.00,0.4517
3903.00,0.4520
3902.00,0.4523
3901.00,0.4524
3900.00,0.4525
3899.00,0.4524
3898.00,0.4522
3897.00,0.4519
3896.00,0.4515
3895.00,0.4513
3894.00,0.4510
3893.00,0.4508
3892.00,0.4506
3891.00,0.4505
3890.00,0.4504
3889.00,0.4503
3888.00,0.4502
3887.00,0.4501
3886.00,0.4500
3885.00,0.4501
3884.00,0.4501
3883.00,0.4502
3882.00,0.4502
3881.00,0.4500
3880.00,0.4499
3879.00,0.4497
3878.00,0.4495
3877.00,0.4494
3876.00,0.4493
3875.00,0.4493
3874.00,0.4492
3873.00,0.4491
3872.00,0.4490
3871.00,0.4490
3870.00,0.4490
3869.00,0.4491
3868.00,0.4492
3867.00,0.4491
3866.00,0.4489
3865.00,0.4486
3864.00,0.4483
3863.00,0.4481
3862.00,0.4478
3861.00,0.4476
3860.00,0.4473
3859.00,0.4472
3858.00,0.4472
3857.00,0.4474
3856.00,0.4476
3855.00,0.4479
3854.00,0.4480
3853.00,0.4481
3852.00,0.4482
3851.00,0.4481
3850.00,0.4477
3849.00,0.4473
3848.00,0.4469
3847.00,0.4464
3846.00,0.4460
3845.00,0.4457
3844.00,0.4455
3843.00,0.4454
3842.00,0.4454
3841.00,0.4455
3840.00,0.4456
3839.00,0.4458
3838.00,0.4459
3837.00,0.4461
3836.00,0.4462
3835.00,0.4462
3834.00,0.4460
3833.00,0.4457
3832.00,0.4454
3831.00,0.4450
3830.00,0.4447
3829.00,0.4443
3828.00,0.4440
3827.00,0.4438
3826.00,0.4438
3825.00,0.4438
3824.00,0.4440
3823.00,0.4440
3822.00,0.4439
3821.00,0.4438
3820.00,0.4438
3819.00,0.4437
3818.00,0.4435
3817.00,0.4433
3816.00,0.4430
3815.00,0.4427
3814.00,0.4423
3813.00,0.4420
3812.00,0.4417
3811.00,0.4414
3810.00,0.4412
3809.00,0.4409
3808.00,0.4407
3807.00,0.4405
3806.00,0.4405
3805.00,0.4406
3804.00,0.4407
3803.00,0.4407
3802.00,0.4406
3801.00,0.4405
3800.00,0.4403
3799.00,0.4401
3798.00,0.4398
3797.00,0.4395
3796.00,0.4391
3795.00,0.4387
3794.00,0.4382
3793.00,0.4378
3792.00,0.4375
3791.00,0.4372
3790.00,0.4368
3789.00,0.4364
3788.00,0.4362
3787.00,0.4360
3786.00,0.4358
3785.00,0.4357
3784.00,0.4354
3783.00,0.4352
3782.00,0.4351
3781.00,0.4350
3780.00,0.4348
3779.00,0.4347
3778.00,0.4345
3777.00,0.4344
3776.00,0.4343
3775.00,0.4341
3774.00,0.4340
3773.00,0.4339
3772.00,0.4337
3771.00,0.4335
3770.00,0.4334
3769.00,0.4334
3768.00,0.4334
3767.00,0.4335
3766.00,0.4334
3765.00,0.4333
3764.00,0.4332
3763.00,0.4330
3762.00,0.4329
3761.00,0.4327
3760.00,0.4326
3759.00,0.4324
3758.00,0.4323
3757.00,0.4321
3756.00,0.4320
3755.00,0.4319
3754.00,0.4319
3753.00,0.4319
3752.00,0.4320
3751.00,0.4321
3750.00,0.4323
3749.00,0.4326
3748.00,0.4328
3747.00,0.4329
3746.00,0.4329
3745.00,0.4327
3744.00,0.4325
3743.00,0.4322
3742.00,0.4318
3741.00,0.4315
3740.00,0.4312
3739.00,0.4310
3738.00,0.4308
3737.00,0.4305
3736.00,0.4303
3735.00,0.4303
3734.00,0.4304
3733.00,0.4304
3732.00,0.4303
3731.00,0.4301
3730.00,0.4297
3729.00,0.4294
3728.00,0.4289
3727.00,0.4285
3726.00,0.4281
3725.00,0.4276
3724.00,0.4272
3723.00,0.4269
3722.00,0.4267
3721.00,0.4265
3720.00,0.4263
3719.00,0.4261
3718.00,0.4259
3717.00,0.4258
3716.00,0.4258
3715.00,0.4258
3714.00,0.4259
3713.00,0.4259
3712.00,0.4260
3711.00,0.4261
3710.00,0.4262
3709.00,0.4263
3708.00,0.4263
3707.00,0.4263
3706.00,0.4261
3705.00,0.4260
3704.00,0.4258
3703.00,0.4257
3702.00,0.4256
3701.00,0.4254
3700.00,0.4254
3699.00,0.4253
3698.00,0.4252
3697.00,0.4252
3696.00,0.4253
3695.00,0.4254
3694.00,0.4255
3693.00,0.4257
3692.00,0.4258
3691.00,0.4259
3690.00,0.4260
3689.00,0.4261
3688.00,0.4262
3687.00,0.4263
3686.00,0.4262
3685.00,0.4260
3684.00,0.4257
3683.00,0.4253
3682.00,0.4250
3681.00,0.4247
3680.00,0.4247
3679.00,0.4248
3678.00,0.4250
3677.00,0.4252
3676.00,0.4255
3675.00,0.4259
3674.00,0.4264
3673.00,0.4267
3672.00,0.4270
3671.00,0.4272
3670.00,0.4273
3669.00,0.4273
3668.00,0.4272
3667.00,0.4272
3666.00,0.4272
3665.00,0.4273
3664.00,0.4275
3663.00,0.4278
3662.00,0.4284
3661.00,0.4292
3660.00,0.4303
3659.00,0.4318
3658.00,0.4335
3657.00,0.4357
3656.00,0.4383
3655.00,0.4410
3654.00,0.4438
3653.00,0.4464
3652.00,0.4487
3651.00,0.4505
3650.00,0.4517
3649.00,0.4521
3648.00,0.4519
3647.00,0.4509
3646.00,0.4494
3645.00,0.4475
3644.00,0.4455
3643.00,0.4434
3642.00,0.4415
3641.00,0.4397
3640.00,0.4382
3639.00,0.4370
3638.00,0.4361
3637.00,0.4354
3636.00,0.4349
3635.00,0.4346
3634.00,0.4345
3633.00,0.4346
3632.00,0.4349
3631.00,0.4353
3630.00,0.4358
3629.00,0.4362
3628.00,0.4366
3627.00,0.4367
3626.00,0.4367
3625.00,0.4365
3624.00,0.4361
3623.00,0.4356
3622.00,0.4350
3621.00,0.4342
3620.00,0.4334
3619.00,0.4325
3618.00,0.4317
3617.00,0.4310
3616.00,0.4304
3615.00,0.4299
3614.00,0.4294
3613.00,0.4291
3612.00,0.4289
3611.00,0.4289
3610.00,0.4289
3609.00,0.4289
3608.00,0.4288
3607.00,0.4286
3606.00,0.4283
3605.00,0.4279
3604.00,0.4274
3603.00,0.4268
3602.00,0.4261
3601.00,0.4254
3600.00,0.4246
3599.00,0.4238
3598.00,0.4230
3597.00,0.4222
3596.00,0.4214
3595.00,0.4206
3594.00,0.4198
3593.00,0.4191
3592.00,0.4185
3591.00,0.4181
3590.00,0.4177
3589.00,0.4173
3588.00,0.4169
3587.00,0.4166
3586.00,0.4163
3585.00,0.4160
3584.00,0.4157
3583.00,0.4152
3582.00,0.4148
3581.00,0.4143
3580.00,0.4139
3579.00,0.4136
3578.00,0.4134
3577.00,0.4132
3576.00,0.4130
3575.00,0.4129
3574.00,0.4127
3573.00,0.4126
3572.00,0.4126
3571.00,0.4126
3570.00,0.4127
3569.00,0.4127
3568.00,0.4127
3567.00,0.4127
3566.00,0.4128
3565.00,0.4128
3564.00,0.4128
3563.00,0.4128
3562.00,0.4128
3561.00,0.4127
3560.00,0.4127
3559.00,0.4127
3558.00,0.4127
3557.00,0.4128
3556.00,0.4128
3555.00,0.4128
3554.00,0.4129
3553.00,0.4131
3552.00,0.4133
3551.00,0.4136
3550.00,0.4139
3549.00,0.4141
3548.00,0.4143
3547.00,0.4145
3546.00,0.4147
3545.00,0.4148
3544.00,0.4150
3543.00,0.4152
3542.00,0.4154
3541.00,0.4156
3540.00,0.4158
3539.00,0.4160
3538.00,0.4162
3537.00,0.4165
3536.00,0.4167
3535.00,0.4169
3534.00,0.4170
3533.00,0.4173
3532.00,0.4175
3531.00,0.4178
3530.00,0.4181
3529.00,0.4184
3528.00,0.4187
3527.00,0.4190
3526.00,0.4194
3525.00,0.4197
3524.00,0.4201
3523.00,0.4204
3522.00,0.4207
3521.00,0.4210
3520.00,0.4212
3519.00,0.4215
3518.00,0.4217
3517.00,0.4221
3516.00,0.4225
3515.00,0.4229
3514.00,0.4233
3513.00,0.4237
3512.00,0.4240
3511.00,0.4244
3510.00,0.4247
3509.00,0.4251
3508.00,0.4255
3507.00,0.4260
3506.00,0.4264
3505.00,0.4268
3504.00,0.4273
3503.00,0.4278
3502.00,0.4283
3501.00,0.4289
3500.00,0.4294
3499.00,0.4299
3498.00,0.4305
3497.00,0.4311
3496.00,0.4317
3495.00,0.4323
3494.00,0.4329
3493.00,0.4335
3492.00,0.4342
3491.00,0.4348
3490.00,0.4356
3489.00,0.4363
3488.00,0.4370
3487.00,0.4377
3486.00,0.4383
3485.00,0.4389
3484.00,0.4395
3483.00,0.4400
3482.00,0.4405
3481.00,0.4410
3480.00,0.4416
3479.00,0.4421
3478.00,0.4426
3477.00,0.4431
3476.00,0.4435
3475.00,0.4440
3474.00,0.4445
3473.00,0.4450
3472.00,0.4456
3471.00,0.4462
3470.00,0.4468
3469.00,0.4473
3468.00,0.4479
3467.00,0.4484
3466.00,0.4490
3465.00,0.4496
3464.00,0.4503
3463.00,0.4509
3462.00,0.4516
3461.00,0.4523
3460.00,0.4531
3459.00,0.4539
3458.00,0.4547
3457.00,0.4555
3456.00,0.4563
3455.00,0.4571
3454.00,0.4579
3453.00,0.4587
3452.00,0.4596
3451.00,0.4606
3450.00,0.4616
3449.00,0.4627
3448.00,0.4638
3447.00,0.4649
3446.00,0.4661
3445.00,0.4674
3444.00,0.4688
3443.00,0.4702
3442.00,0.4716
3441.00,0.4729
3440.00,0.4743
3439.00,0.4756
3438.00,0.4767
3437.00,0.4777
3436.00,0.4786
3435.00,0.4794
3434.00,0.4802
3433.00,0.4809
3432.00,0.4816
3431.00,0.4823
3430.00,0.4830
3429.00,0.4837
3428.00,0.4844
3427.00,0.4851
3426.00,0.4859
3425.00,0.4866
3424.00,0.4873
3423.00,0.4880
3422.00,0.4886
3421.00,0.4893
3420.00,0.4900
3419.00,0.4909
3418.00,0.4918
3417.00,0.4928
3416.00,0.4937
3415.00,0.4947
3414.00,0.4955
3413.00,0.4964
3412.00,0.4973
3411.00,0.4983
3410.00,0.4992
3409.00,0.5003
3408.00,0.5014
3407.00,0.5025
3406.00,0.5036
3405.00,0.5048
3404.00,0.5059
3403.00,0.5071
3402.00,0.5082
3401.00,0.5093
3400.00,0.5104
3399.00,0.5115
3398.00,0.5126
3397.00,0.5137
3396.00,0.5148
3395.00,0.5161
3394.00,0.5173
3393.00,0.5185
3392.00,0.5196
3391.00,0.5207
3390.00,0.5218
3389.00,0.5229
3388.00,0.5241
3387.00,0.5253
3386.00,0.5265
3385.00,0.5276
3384.00,0.5288
3383.00,0.5300
3382.00,0.5313
3381.00,0.5326
3380.00,0.5340
3379.00,0.5355
3378.00,0.5369
3377.00,0.5383
3376.00,0.5396
3375.00,0.5409
3374.00,0.5423
3373.00,0.5437
3372.00,0.5452
3371.00,0.5467
3370.00,0.5483
3369.00,0.5498
3368.00,0.5514
3367.00,0.5529
3366.00,0.5545
3365.00,0.5561
3364.00,0.5577
3363.00,0.5594
3362.00,0.5611
3361.00,0.5628
3360.00,0.5644
3359.00,0.5660
3358.00,0.5676
3357.00,0.5692
3356.00,0.5708
3355.00,0.5723
3354.00,0.5737
3353.00,0.5751
3352.00,0.5766
3351.00,0.5780
3350.00,0.5794
3349.00,0.5806
3348.00,0.5817
3347.00,0.5827
3346.00,0.5836
3345.00,0.5846
3344.00,0.5855
3343.00,0.5863
3342.00,0.5870
3341.00,0.5875
3340.00,0.5880
3339.00,0.5883
3338.00,0.5887
3337.00,0.5890
3336.00,0.5892
3335.00,0.5893
3334.00,0.5893
3333.00,0.5892
3332.00,0.5891
3331.00,0.5889
3330.00,0.5886
3329.00,0.5882
3328.00,0.5878
3327.00,0.5873
3326.00,0.5869
3325.00,0.5865
3324.00,0.5861
3323.00,0.5856
3322.00,0.5851
3321.00,0.5845
3320.00,0.5838
3319.00,0.5833
3318.00,0.5827
3317.00,0.5823
3316.00,0.5818
3315.00,0.5813
3314.00,0.5808
3313.00,0.5803
3312.00,0.5798
3311.00,0.5794
3310.00,0.5790
3309.00,0.5786
3308.00,0.5782
3307.00,0.5779
3306.00,0.5777
3305.00,0.5775
3304.00,0.5774
3303.00,0.5774
3302.00,0.5774
3301.00,0.5774
3300.00,0.5775
3299.00,0.5776
3298.00,0.5778
3297.00,0.5779
3296.00,0.5780
3295.00,0.5781
3294.00,0.5782
3293.00,0.5784
3292.00,0.5787
3291.00,0.5790
3290.00,0.5794
3289.00,0.5799
3288.00,0.5803
3287.00,0.5808
3286.00,0.5813
3285.00,0.5819
3284.00,0.5824
3283.00,0.5829
3282.00,0.5834
3281.00,0.5838
3280.00,0.5842
3279.00,0.5848
3278.00,0.5854
3277.00,0.5860
3276.00,0.5866
3275.00,0.5873
3274.00,0.5879
3273.00,0.5885
3272.00,0.5890
3271.00,0.5895
3270.00,0.5900
3269.00,0.5905
3268.00,0.5909
3267.00,0.5913
3266.00,0.5917
3265.00,0.5920
3264.00,0.5924
3263.00,0.5927
3262.00,0.5931
3261.00,0.5934
3260.00,0.5938
3259.00,0.5941
3258.00,0.5942
3257.00,0.5942
3256.00,0.5942
3255.00,0.5942
3254.00,0.5942
3253.00,0.5942
3252.00,0.5941
3251.00,0.5940
3250.00,0.5939
3249.00,0.5937
3248.00,0.5934
3247.00,0.5929
3246.00,0.5924
3245.00,0.5919
3244.00,0.5914
3243.00,0.5909
3242.00,0.5903
3241.00,0.5897
3240.00,0.5891
3239.00,0.5884
3238.00,0.5877
3237.00,0.5870
3236.00,0.5864
3235.00,0.5858
3234.00,0.5852
3233.00,0.5845
3232.00,0.5837
3231.00,0.5829
3230.00,0.5820
3229.00,0.5812
3228.00,0.5804
3227.00,0.5797
3226.00,0.5790
3225.00,0.5783
3224.00,0.5776
3223.00,0.5769
3222.00,0.5761
3221.00,0.5752
3220.00,0.5744
3219.00,0.5736
3218.00,0.5729
3217.00,0.5722
3216.00,0.5715
3215.00,0.5708
3214.00,0.5701
3213.00,0.5694
3212.00,0.5687
3211.00,0.5680
3210.00,0.5675
3209.00,0.5669
3208.00,0.5663
3207.00,0.5658
3206.00,0.5654
3205.00,0.5649
3204.00,0.5645
3203.00,0.5640
3202.00,0.5635
3201.00,0.5630
3200.00,0.5625
3199.00,0.5620
3198.00,0.5615
3197.00,0.5611
3196.00,0.5608
3195.00,0.5604
3194.00,0.5600
3193.00,0.5596
3192.00,0.5592
3191.00,0.5587
3190.00,0.5581
3189.00,0.5575
3188.00,0.5568
3187.00,0.5562
3186.00,0.5558
3185.00,0.5553
3184.00,0.5548
3183.00,0.5542
3182.00,0.5536
3181.00,0.5529
3180.00,0.5523
3179.00,0.5516
3178.00,0.5510
3177.00,0.5503
3176.00,0.5496
3175.00,0.5488
3174.00,0.5480
3173.00,0.5473
3172.00,0.5466
3171.00,0.5459
3170.00,0.5452
3169.00,0.5446
3168.00,0.5439
3167.00,0.5431
3166.00,0.5424
3165.00,0.5416
3164.00,0.5408
3163.00,0.5401
3162.00,0.5393
3161.00,0.5386
3160.00,0.5379
3159.00,0.5373
3158.00,0.5367
3157.00,0.5361
3156.00,0.5354
3155.00,0.5347
3154.00,0.5340
3153.00,0.5333
3152.00,0.5327
3151.00,0.5320
3150.00,0.5314
3149.00,0.5309
3148.00,0.5304
3147.00,0.5299
3146.00,0.5293
3145.00,0.5287
3144.00,0.5281
3143.00,0.5276
3142.00,0.5272
3141.00,0.5268
3140.00,0.5265
3139.00,0.5261
3138.00,0.5258
3137.00,0.5254
3136.00,0.5251
3135.00,0.5248
3134.00,0.5245
3133.00,0.5243
3132.00,0.5241
3131.00,0.5240
3130.00,0.5239
3129.00,0.5238
3128.00,0.5237
3127.00,0.5236
3126.00,0.5235
3125.00,0.5235
3124.00,0.5236
3123.00,0.5236
3122.00,0.5237
3121.00,0.5238
3120.00,0.5240
3119.00,0.5242
3118.00,0.5245
3117.00,0.5247
3116.00,0.5250
3115.00,0.5254
3114.00,0.5258
3113.00,0.5263
3112.00,0.5269
3111.00,0.5276
3110.00,0.5282
3109.00,0.5290
3108.00,0.5299
3107.00,0.5308
3106.00,0.5317
3105.00,0.5327
3104.00,0.5337
3103.00,0.5347
3102.00,0.5358
3101.00,0.5369
3100.00,0.5380
3099.00,0.5391
3098.00,0.5403
3097.00,0.5414
3096.00,0.5425
3095.00,0.5437
3094.00,0.5450
3093.00,0.5464
3092.00,0.5480
3091.00,0.5497
3090.00,0.5514
3089.00,0.5533
3088.00,0.5553
3087.00,0.5574
3086.00,0.5596
3085.00,0.5619
3084.00,0.5643
3083.00,0.5669
3082.00,0.5696
3081.00,0.5725
3080.00,0.5757
3079.00,0.5791
3078.00,0.5825
3077.00,0.5860
3076.00,0.5896
3075.00,0.5933
3074.00,0.5971
3073.00,0.6010
3072.00,0.6049
3071.00,0.6090
3070.00,0.6131
3069.00,0.6173
3068.00,0.6214
3067.00,0.6254
3066.00,0.6294
3065.00,0.6333
3064.00,0.6372
3063.00,0.6409
3062.00,0.6446
3061.00,0.6480
3060.00,0.6513
3059.00,0.6544
3058.00,0.6575
3057.00,0.6606
3056.00,0.6638
3055.00,0.6671
3054.00,0.6704
3053.00,0.6738
3052.00,0.6771
3051.00,0.6805
3050.00,0.6842
3049.00,0.6881
3048.00,0.6921
3047.00,0.6962
3046.00,0.7003
3045.00,0.7046
3044.00,0.7089
3043.00,0.7133
3042.00,0.7179
3041.00,0.7225
3040.00,0.7273
3039.00,0.7323
3038.00,0.7373
3037.00,0.7426
3036.00,0.7482
3035.00,0.7542
3034.00,0.7605
3033.00,0.7671
3032.00,0.7741
3031.00,0.7813
3030.00,0.7889
3029.00,0.7969
3028.00,0.8051
3027.00,0.8136
3026.00,0.8222
3025.00,0.8309
3024.00,0.8400
3023.00,0.8494
3022.00,0.8592
3021.00,0.8693
3020.00,0.8799
3019.00,0.8908
3018.00,0.9019
3017.00,0.9132
3016.00,0.9248
3015.00,0.9367
3014.00,0.9491
3013.00,0.9619
3012.00,0.9751
3011.00,0.9891
3010.00,1.0038
3009.00,1.0193
3008.00,1.0355
3007.00,1.0524
3006.00,1.0703
3005.00,1.0888
3004.00,1.1080
3003.00,1.1278
3002.00,1.1482
3001.00,1.1694
3000.00,1.1916
2999.00,1.2151
2998.00,1.2401
2997.00,1.2669
2996.00,1.2958
2995.00,1.3272
2994.00,1.3617
2993.00,1.3997
2992.00,1.4415
2991.00,1.4875
2990.00,1.5380
2989.00,1.5932
2988.00,1.6537
2987.00,1.7206
2986.00,1.7954
2985.00,1.8790
2984.00,1.9724
2983.00,2.0769
2982.00,2.1936
2981.00,2.3215
2980.00,2.4592
2979.00,2.6079
2978.00,2.7724
2977.00,2.9522
2976.00,3.1319
2975.00,3.2913
2974.00,3.4429
2973.00,3.6275
2972.00,3.8921
2971.00,4.2840
2970.00,4.3250
2969.00,4.0110
2968.00,3.8198
2967.00,3.8246
2966.00,3.9620
2965.00,4.1665
2964.00,4.5596
2963.00,4.4265
2962.00,4.1345
2961.00,3.9763
2960.00,4.0365
2959.00,4.2369
2958.00,4.3896
2957.00,4.4504
2956.00,4.3799
2955.00,4.3179
2954.00,4.2916
2953.00,4.1498
2952.00,3.9533
2951.00,3.8734
2950.00,3.9427
2949.00,4.0920
2948.00,4.1694
2947.00,4.2013
2946.00,4.1832
2945.00,4.0630
2944.00,3.9360
2943.00,3.9544
2942.00,4.2096
2941.00,4.2943
2940.00,4.0046
2939.00,3.8047
2938.00,3.7766
2937.00,3.8782
2936.00,4.0529
2935.00,4.3926
2934.00,4.6538
2933.00,4.2372
2932.00,3.9099
2931.00,3.7743
2930.00,3.7736
2929.00,3.8410
2928.00,3.9361
2927.00,4.1045
2926.00,4.3510
2925.00,4.2516
2924.00,3.9661
2923.00,3.7921
2922.00,3.7964
2921.00,3.9207
2920.00,4.1178
2919.00,4.2891
2918.00,4.3986
2917.00,4.5901
2916.00,4.3957
2915.00,4.1627
2914.00,4.0376
2913.00,4.1520
2912.00,4.4558
2911.00,4.3899
2910.00,4.1183
2909.00,3.9228
2908.00,3.8956
2907.00,3.9932
2906.00,4.2031
2905.00,4.3427
2904.00,4.2493
2903.00,4.2251
2902.00,4.2828
2901.00,4.2875
2900.00,4.3051
2899.00,4.2743
2898.00,4.0575
2897.00,3.8342
2896.00,3.7400
2895.00,3.7557
2894.00,3.8040
2893.00,3.8301
2892.00,3.8129
2891.00,3.8169
2890.00,3.9222
2889.00,4.0981
2888.00,4.1362
2887.00,4.0733
2886.00,4.0757
2885.00,4.2576
2884.00,4.5438
2883.00,4.3629
2882.00,4.0612
2881.00,3.8795
2880.00,3.8617
2879.00,3.9675
2878.00,4.1487
2877.00,4.2983
2876.00,4.2478
2875.00,4.1003
2874.00,3.9575
2873.00,3.8592
2872.00,3.8416
2871.00,3.9037
2870.00,4.0058
2869.00,4.0765
2868.00,4.0550
2867.00,4.0079
2866.00,3.9811
2865.00,3.9696
2864.00,3.9463
2863.00,3.9326
2862.00,3.9628
2861.00,4.0884
2860.00,4.2696
2859.00,4.1791
2858.00,4.0069
2857.00,3.9711
2856.00,4.1690
2855.00,4.5106
2854.00,4.5754
2853.00,4.4661
2852.00,4.3878
2851.00,4.5004
2850.00,4.6771
2849.00,4.8160
2848.00,4.8283
2847.00,4.4102
2846.00,4.0924
2845.00,3.9000
2844.00,3.8879
2843.00,4.0381
2842.00,4.1834
2841.00,4.0296
2840.00,3.7739
2839.00,3.5869
2838.00,3.4192
2837.00,3.2314
2836.00,3.0380
2835.00,2.8505
2834.00,2.6704
2833.00,2.5004
2832.00,2.3452
2831.00,2.2075
2830.00,2.0864
2829.00,1.9794
2828.00,1.8848
2827.00,1.8009
2826.00,1.7257
2825.00,1.6575
2824.00,1.5954
2823.00,1.5391
2822.00,1.4879
2821.00,1.4413
2820.00,1.3983
2819.00,1.3584
2818.00,1.3212
2817.00,1.2862
2816.00,1.2533
2815.00,1.2226
2814.00,1.1941
2813.00,1.1672
2812.00,1.1416
2811.00,1.1172
2810.00,1.0942
2809.00,1.0724
2808.00,1.0516
2807.00,1.0317
2806.00,1.0125
2805.00,0.9940
2804.00,0.9763
2803.00,0.9594
2802.00,0.9432
2801.00,0.9278
2800.00,0.9131
2799.00,0.8990
2798.00,0.8854
2797.00,0.8724
2796.00,0.8600
2795.00,0.8482
2794.00,0.8367
2793.00,0.8255
2792.00,0.8146
2791.00,0.8040
2790.00,0.7936
2789.00,0.7834
2788.00,0.7734
2787.00,0.7638
2786.00,0.7544
2785.00,0.7453
2784.00,0.7362
2783.00,0.7274
2782.00,0.7189
2781.00,0.7107
2780.00,0.7029
2779.00,0.6954
2778.00,0.6883
2777.00,0.6814
2776.00,0.6750
2775.00,0.6689
2774.00,0.6633
2773.00,0.6581
2772.00,0.6532
2771.00,0.6486
2770.00,0.6444
2769.00,0.6406
2768.00,0.6372
2767.00,0.6342
2766.00,0.6316
2765.00,0.6294
2764.00,0.6274
2763.00,0.6257
2762.00,0.6242
2761.00,0.6228
2760.00,0.6215
2759.00,0.6203
2758.00,0.6191
2757.00,0.6180
2756.00,0.6171
2755.00,0.6163
2754.00,0.6156
2753.00,0.6150
2752.00,0.6146
2751.00,0.6144
2750.00,0.6145
2749.00,0.6148
2748.00,0.6154
2747.00,0.6161
2746.00,0.6170
2745.00,0.6181
2744.00,0.6194
2743.00,0.6209
2742.00,0.6229
2741.00,0.6253
2740.00,0.6281
2739.00,0.6313
2738.00,0.6349
2737.00,0.6389
2736.00,0.6432
2735.00,0.6479
2734.00,0.6528
2733.00,0.6576
2732.00,0.6620
2731.00,0.6656
2730.00,0.6681
2729.00,0.6693
2728.00,0.6695
2727.00,0.6686
2726.00,0.6671
2725.00,0.6651
2724.00,0.6628
2723.00,0.6604
2722.00,0.6578
2721.00,0.6550
2720.00,0.6520
2719.00,0.6488
2718.00,0.6453
2717.00,0.6415
2716.00,0.6375
2715.00,0.6334
2714.00,0.6292
2713.00,0.6250
2712.00,0.6211
2711.00,0.6176
2710.00,0.6145
2709.00,0.6117
2708.00,0.6093
2707.00,0.6073
2706.00,0.6055
2705.00,0.6041
2704.00,0.6028
2703.00,0.6019
2702.00,0.6013
2701.00,0.6010
2700.00,0.6009
2699.00,0.6012
2698.00,0.6016
2697.00,0.6022
2696.00,0.6029
2695.00,0.6038
2694.00,0.6049
2693.00,0.6061
2692.00,0.6073
2691.00,0.6086
2690.00,0.6099
2689.00,0.6112
2688.00,0.6124
2687.00,0.6135
2686.00,0.6144
2685.00,0.6152
2684.00,0.6158
2683.00,0.6163
2682.00,0.6166
2681.00,0.6168
2680.00,0.6169
2679.00,0.6170
2678.00,0.6171
2677.00,0.6172
2676.00,0.6173
2675.00,0.6175
2674.00,0.6177
2673.00,0.6178
2672.00,0.6176
2671.00,0.6171
2670.00,0.6163
2669.00,0.6154
2668.00,0.6142
2667.00,0.6127
2666.00,0.6108
2665.00,0.6087
2664.00,0.6065
2663.00,0.6042
2662.00,0.6018
2661.00,0.5994
2660.00,0.5970
2659.00,0.5946
2658.00,0.5924
2657.00,0.5902
2656.00,0.5881
2655.00,0.5861
2654.00,0.5843
2653.00,0.5825
2652.00,0.5807
2651.00,0.5791
2650.00,0.5775
2649.00,0.5761
2648.00,0.5746
2647.00,0.5732
2646.00,0.5717
2645.00,0.5702
2644.00,0.5687
2643.00,0.5673
2642.00,0.5660
2641.00,0.5648
2640.00,0.5637
2639.00,0.5626
2638.00,0.5616
2637.00,0.5606
2636.00,0.5596
2635.00,0.5587
2634.00,0.5578
2633.00,0.5568
2632.00,0.5558
2631.00,0.5548
2630.00,0.5538
2629.00,0.5528
2628.00,0.5518
2627.00,0.5508
2626.00,0.5498
2625.00,0.5487
2624.00,0.5478
2623.00,0.5468
2622.00,0.5458
2621.00,0.5447
2620.00,0.5437
2619.00,0.5426
2618.00,0.5416
2617.00,0.5406
2616.00,0.5396
2615.00,0.5386
2614.00,0.5376
2613.00,0.5366
2612.00,0.5356
2611.00,0.5347
2610.00,0.5337
2609.00,0.5328
2608.00,0.5318
2607.00,0.5308
2606.00,0.5299
2605.00,0.5290
2604.00,0.5280
2603.00,0.5270
2602.00,0.5258
2601.00,0.5246
2600.00,0.5233
2599.00,0.5219
2598.00,0.5205
2597.00,0.5191
2596.00,0.5176
2595.00,0.5161
2594.00,0.5145
2593.00,0.5128
2592.00,0.5112
2591.00,0.5096
2590.00,0.5080
2589.00,0.5064
2588.00,0.5048
2587.00,0.5031
2586.00,0.5014
2585.00,0.4997
2584.00,0.4981
2583.00,0.4965
2582.00,0.4948
2581.00,0.4931
2580.00,0.4914
2579.00,0.4897
2578.00,0.4880
2577.00,0.4863
2576.00,0.4848
2575.00,0.4833
2574.00,0.4818
2573.00,0.4804
2572.00,0.4790
2571.00,0.4777
2570.00,0.4764
2569.00,0.4751
2568.00,0.4738
2567.00,0.4725
2566.00,0.4712
2565.00,0.4699
2564.00,0.4685
2563.00,0.4672
2562.00,0.4659
2561.00,0.4646
2560.00,0.4632
2559.00,0.4620
2558.00,0.4607
2557.00,0.4595
2556.00,0.4582
2555.00,0.4570
2554.00,0.4558
2553.00,0.4546
2552.00,0.4535
2551.00,0.4524
2550.00,0.4514
2549.00,0.4504
2548.00,0.4495
2547.00,0.4487
2546.00,0.4478
2545.00,0.4470
2544.00,0.4461
2543.00,0.4452
2542.00,0.4443
2541.00,0.4435
2540.00,0.4427
2539.00,0.4421
2538.00,0.4414
2537.00,0.4408
2536.00,0.4401
2535.00,0.4395
2534.00,0.4388
2533.00,0.4380
2532.00,0.4372
2531.00,0.4363
2530.00,0.4353
2529.00,0.4344
2528.00,0.4334
2527.00,0.4324
2526.00,0.4312
2525.00,0.4301
2524.00,0.4290
2523.00,0.4280
2522.00,0.4269
2521.00,0.4259
2520.00,0.4249
2519.00,0.4239
2518.00,0.4229
2517.00,0.4219
2516.00,0.4210
2515.00,0.4202
2514.00,0.4193
2513.00,0.4185
2512.00,0.4177
2511.00,0.4169
2510.00,0.4162
2509.00,0.4155
2508.00,0.4148
2507.00,0.4143
2506.00,0.4139
2505.00,0.4135
2504.00,0.4131
2503.00,0.4128
2502.00,0.4124
2501.00,0.4121
2500.00,0.4119
2499.00,0.4117
2498.00,0.4114
2497.00,0.4111
2496.00,0.4108
2495.00,0.4105
2494.00,0.4101
2493.00,0.4097
2492.00,0.4093
2491.00,0.4087
2490.00,0.4082
2489.00,0.4076
2488.00,0.4070
2487.00,0.4064
2486.00,0.4058
2485.00,0.4052
2484.00,0.4046
2483.00,0.4041
2482.00,0.4035
2481.00,0.4029
2480.00,0.4024
2479.00,0.4018
2478.00,0.4012
2477.00,0.4007
2476.00,0.4003
2475.00,0.3998
2474.00,0.3993
2473.00,0.3989
2472.00,0.3986
2471.00,0.3982
2470.00,0.3979
2469.00,0.3976
2468.00,0.3973
2467.00,0.3970
2466.00,0.3967
2465.00,0.3964
2464.00,0.3961
2463.00,0.3959
2462.00,0.3956
2461.00,0.3953
2460.00,0.3950
2459.00,0.3947
2458.00,0.3945
2457.00,0.3943
2456.00,0.3942
2455.00,0.3939
2454.00,0.3937
2453.00,0.3936
2452.00,0.3934
2451.00,0.3933
2450.00,0.3932
2449.00,0.3931
2448.00,0.3930
2447.00,0.3929
2446.00,0.3929
2445.00,0.3928
2444.00,0.3928
2443.00,0.3929
2442.00,0.3929
2441.00,0.3929
2440.00,0.3930
2439.00,0.3929
2438.00,0.3929
2437.00,0.3930
2436.00,0.3930
2435.00,0.3931
2434.00,0.3931
2433.00,0.3932
2432.00,0.3932
2431.00,0.3933
2430.00,0.3933
2429.00,0.3933
2428.00,0.3934
2427.00,0.3935
2426.00,0.3936
2425.00,0.3936
2424.00,0.3937
2423.00,0.3938
2422.00,0.3938
2421.00,0.3939
2420.00,0.3940
2419.00,0.3941
2418.00,0.3942
2417.00,0.3943
2416.00,0.3943
2415.00,0.3944
2414.00,0.3944
2413.00,0.3945
2412.00,0.3945
2411.00,0.3946
2410.00,0.3946
2409.00,0.3946
2408.00,0.3945
2407.00,0.3945
2406.00,0.3945
2405.00,0.3945
2404.00,0.3946
2403.00,0.3946
2402.00,0.3946
2401.00,0.3946
2400.00,0.3946
2399.00,0.3946
2398.00,0.3946
2397.00,0.3946
2396.00,0.3946
2395.00,0.3945
2394.00,0.3944
2393.00,0.3943
2392.00,0.3942
2391.00,0.3942
2390.00,0.3941
2389.00,0.3942
2388.00,0.3943
2387.00,0.3944
2386.00,0.3944
2385.00,0.3945
2384.00,0.3945
2383.00,0.3946
2382.00,0.3948
2381.00,0.3950
2380.00,0.3951
2379.00,0.3952
2378.00,0.3953
2377.00,0.3953
2376.00,0.3953
2375.00,0.3952
2374.00,0.3951
2373.00,0.3949
2372.00,0.3949
2371.00,0.3948
2370.00,0.3948
2369.00,0.3947
2368.00,0.3946
2367.00,0.3946
2366.00,0.3946
2365.00,0.3946
2364.00,0.3946
2363.00,0.3945
2362.00,0.3944
2361.00,0.3944
2360.00,0.3944
2359.00,0.3942
2358.00,0.3941
2357.00,0.3941
2356.00,0.3942
2355.00,0.3943
2354.00,0.3943
2353.00,0.3941
2352.00,0.3938
2351.00,0.3935
2350.00,0.3932
2349.00,0.3932
2348.00,0.3932
2347.00,0.3931
2346.00,0.3928
2345.00,0.3923
2344.00,0.3920
2343.00,0.3918
2342.00,0.3917
2341.00,0.3917
2340.00,0.3918
2339.00,0.3918
2338.00,0.3919
2337.00,0.3918
2336.00,0.3917
2335.00,0.3915
2334.00,0.3913
2333.00,0.3911
2332.00,0.3908
2331.00,0.3905
2330.00,0.3900
2329.00,0.3896
2328.00,0.3892
2327.00,0.3888
2326.00,0.3885
2325.00,0.3882
2324.00,0.3879
2323.00,0.3876
2322.00,0.3873
2321.00,0.3870
2320.00,0.3866
2319.00,0.3863
2318.00,0.3860
2317.00,0.3858
2316.00,0.3856
2315.00,0.3853
2314.00,0.3849
2313.00,0.3845
2312.00,0.3840
2311.00,0.3836
2310.00,0.3832
2309.00,0.3828
2308.00,0.3824
2307.00,0.3820
2306.00,0.3817
2305.00,0.3813
2304.00,0.3810
2303.00,0.3807
2302.00,0.3804
2301.00,0.3802
2300.00,0.3800
2299.00,0.3798
2298.00,0.3796
2297.00,0.3793
2296.00,0.3790
2295.00,0.3786
2294.00,0.3782
2293.00,0.3779
2292.00,0.3775
2291.00,0.3771
2290.00,0.3767
2289.00,0.3763
2288.00,0.3759
2287.00,0.3755
2286.00,0.3750
2285.00,0.3746
2284.00,0.3743
2283.00,0.3739
2282.00,0.3735
2281.00,0.3731
2280.00,0.3727
2279.00,0.3723
2278.00,0.3719
2277.00,0.3715
2276.00,0.3711
2275.00,0.3708
2274.00,0.3705
2273.00,0.3703
2272.00,0.3700
2271.00,0.3698
2270.00,0.3696
2269.00,0.3695
2268.00,0.3693
2267.00,0.3692
2266.00,0.3691
2265.00,0.3689
2264.00,0.3688
2263.00,0.3686
2262.00,0.3683
2261.00,0.3681
2260.00,0.3678
2259.00,0.3675
2258.00,0.3671
2257.00,0.3668
2256.00,0.3664
2255.00,0.3661
2254.00,0.3657
2253.00,0.3654
2252.00,0.3651
2251.00,0.3648
2250.00,0.3645
2249.00,0.3642
2248.00,0.3640
2247.00,0.3637
2246.00,0.3635
2245.00,0.3633
2244.00,0.3630
2243.00,0.3628
2242.00,0.3625
2241.00,0.3623
2240.00,0.3621
2239.00,0.3619
2238.00,0.3617
2237.00,0.3615
2236.00,0.3614
2235.00,0.3612
2234.00,0.3611
2233.00,0.3610
2232.00,0.3608
2231.00,0.3607
2230.00,0.3605
2229.00,0.3604
2228.00,0.3602
2227.00,0.3601
2226.00,0.3598
2225.00,0.3596
2224.00,0.3593
2223.00,0.3591
2222.00,0.3589
2221.00,0.3588
2220.00,0.3587
2219.00,0.3587
2218.00,0.3586
2217.00,0.3585
2216.00,0.3584
2215.00,0.3584
2214.00,0.3583
2213.00,0.3582
2212.00,0.3581
2211.00,0.3581
2210.00,0.3580
2209.00,0.3580
2208.00,0.3580
2207.00,0.3580
2206.00,0.3580
2205.00,0.3579
2204.00,0.3579
2203.00,0.3579
2202.00,0.3579
2201.00,0.3579
2200.00,0.3580
2199.00,0.3580
2198.00,0.3580
2197.00,0.3580
2196.00,0.3580
2195.00,0.3580
2194.00,0.3580
2193.00,0.3580
2192.00,0.3580
2191.00,0.3580
2190.00,0.3580
2189.00,0.3581
2188.00,0.3581
2187.00,0.3581
2186.00,0.3580
2185.00,0.3580
2184.00,0.3580
2183.00,0.3579
2182.00,0.3579
2181.00,0.3579
2180.00,0.3578
2179.00,0.3577
2178.00,0.3576
2177.00,0.3575
2176.00,0.3574
2175.00,0.3573
2174.00,0.3572
2173.00,0.3572
2172.00,0.3571
2171.00,0.3571
2170.00,0.3571
2169.00,0.3570
2168.00,0.3570
2167.00,0.3569
2166.00,0.3568
2165.00,0.3568
2164.00,0.3567
2163.00,0.3565
2162.00,0.3564
2161.00,0.3562
2160.00,0.3561
2159.00,0.3559
2158.00,0.3558
2157.00,0.3556
2156.00,0.3554
2155.00,0.3553
2154.00,0.3551
2153.00,0.3550
2152.00,0.3549
2151.00,0.3547
2150.00,0.3545
2149.00,0.3542
2148.00,0.3538
2147.00,0.3534
2146.00,0.3529
2145.00,0.3524
2144.00,0.3518
2143.00,0.3512
2142.00,0.3507
2141.00,0.3502
2140.00,0.3497
2139.00,0.3492
2138.00,0.3487
2137.00,0.3483
2136.00,0.3479
2135.00,0.3476
2134.00,0.3473
2133.00,0.3471
2132.00,0.3468
2131.00,0.3465
2130.00,0.3462
2129.00,0.3459
2128.00,0.3457
2127.00,0.3455
2126.00,0.3453
2125.00,0.3452
2124.00,0.3450
2123.00,0.3448
2122.00,0.3447
2121.00,0.3446
2120.00,0.3444
2119.00,0.3442
2118.00,0.3440
2117.00,0.3438
2116.00,0.3437
2115.00,0.3437
2114.00,0.3436
2113.00,0.3436
2112.00,0.3435
2111.00,0.3433
2110.00,0.3432
2109.00,0.3431
2108.00,0.3430
2107.00,0.3429
2106.00,0.3428
2105.00,0.3427
2104.00,0.3427
2103.00,0.3427
2102.00,0.3427
2101.00,0.3427
2100.00,0.3426
2099.00,0.3424
2098.00,0.3423
2097.00,0.3422
2096.00,0.3420
2095.00,0.3419
2094.00,0.3417
2093.00,0.3416
2092.00,0.3415
2091.00,0.3414
2090.00,0.3413
2089.00,0.3412
2088.00,0.3412
2087.00,0.3411
2086.00,0.3411
2085.00,0.3411
2084.00,0.3410
2083.00,0.3410
2082.00,0.3409
2081.00,0.3408
2080.00,0.3408
2079.00,0.3407
2078.00,0.3406
2077.00,0.3406
2076.00,0.3406
2075.00,0.3407
2074.00,0.3408
2073.00,0.3409
2072.00,0.3410
2071.00,0.3410
2070.00,0.3410
2069.00,0.3410
2068.00,0.3411
2067.00,0.3412
2066.00,0.3413
2065.00,0.3414
2064.00,0.3415
2063.00,0.3417
2062.00,0.3418
2061.00,0.3419
2060.00,0.3420
2059.00,0.3421
2058.00,0.3422
2057.00,0.3424
2056.00,0.3425
2055.00,0.3426
2054.00,0.3427
2053.00,0.3428
2052.00,0.3429
2051.00,0.3430
2050.00,0.3431
2049.00,0.3433
2048.00,0.3435
2047.00,0.3437
2046.00,0.3439
2045.00,0.3441
2044.00,0.3443
2043.00,0.3444
2042.00,0.3445
2041.00,0.3447
2040.00,0.3449
2039.00,0.3451
2038.00,0.3453
2037.00,0.3454
2036.00,0.3455
2035.00,0.3456
2034.00,0.3457
2033.00,0.3458
2032.00,0.3458
2031.00,0.3458
2030.00,0.3457
2029.00,0.3457
2028.00,0.3457
2027.00,0.3456
2026.00,0.3455
2025.00,0.3454
2024.00,0.3451
2023.00,0.3448
2022.00,0.3444
2021.00,0.3440
2020.00,0.3434
2019.00,0.3427
2018.00,0.3419
2017.00,0.3412
2016.00,0.3404
2015.00,0.3398
2014.00,0.3391
2013.00,0.3384
2012.00,0.3377
2011.00,0.3370
2010.00,0.3363
2009.00,0.3357
2008.00,0.3351
2007.00,0.3346
2006.00,0.3342
2005.00,0.3339
2004.00,0.3337
2003.00,0.3334
2002.00,0.3331
2001.00,0.3329
2000.00,0.3327
1999.00,0.3325
1998.00,0.3323
1997.00,0.3322
1996.00,0.3320
1995.00,0.3318
1994.00,0.3315
1993.00,0.3313
1992.00,0.3312
1991.00,0.3312
1990.00,0.3312
1989.00,0.3311
1988.00,0.3310
1987.00,0.3309
1986.00,0.3309
1985.00,0.3309
1984.00,0.3309
1983.00,0.3308
1982.00,0.3307
1981.00,0.3305
1980.00,0.3304
1979.00,0.3302
1978.00,0.3301
1977.00,0.3300
1976.00,0.3299
1975.00,0.3298
1974.00,0.3297
1973.00,0.3297
1972.00,0.3297
1971.00,0.3296
1970.00,0.3294
1969.00,0.3293
1968.00,0.3292
1967.00,0.3292
1966.00,0.3293
1965.00,0.3294
1964.00,0.3295
1963.00,0.3295
1962.00,0.3295
1961.00,0.3296
1960.00,0.3297
1959.00,0.3298
1958.00,0.3299
1957.00,0.3300
1956.00,0.3301
1955.00,0.3302
1954.00,0.3303
1953.00,0.3305
1952.00,0.3307
1951.00,0.3307
1950.00,0.3307
1949.00,0.3307
1948.00,0.3307
1947.00,0.3307
1946.00,0.3307
1945.00,0.3307
1944.00,0.3308
1943.00,0.3310
1942.00,0.3314
1941.00,0.3320
1940.00,0.3326
1939.00,0.3330
1938.00,0.3332
1937.00,0.3333
1936.00,0.3334
1935.00,0.3334
1934.00,0.3334
1933.00,0.3334
1932.00,0.3334
1931.00,0.3335
1930.00,0.3335
1929.00,0.3336
1928.00,0.3336
1927.00,0.3336
1926.00,0.3334
1925.00,0.3332
1924.00,0.3330
1923.00,0.3330
1922.00,0.3333
1921.00,0.3337
1920.00,0.3342
1919.00,0.3346
1918.00,0.3349
1917.00,0.3352
1916.00,0.3355
1915.00,0.3356
1914.00,0.3357
1913.00,0.3357
1912.00,0.3356
1911.00,0.3356
1910.00,0.3355
1909.00,0.3357
1908.00,0.3359
1907.00,0.3361
1906.00,0.3362
1905.00,0.3363
1904.00,0.3364
1903.00,0.3363
1902.00,0.3363
1901.00,0.3363
1900.00,0.3362
1899.00,0.3361
1898.00,0.3360
1897.00,0.3358
1896.00,0.3357
1895.00,0.3357
1894.00,0.3358
1893.00,0.3359
1892.00,0.3359
1891.00,0.3358
1890.00,0.3358
1889.00,0.3361
1888.00,0.3364
1887.00,0.3367
1886.00,0.3367
1885.00,0.3367
1884.00,0.3368
1883.00,0.3368
1882.00,0.3368
1881.00,0.3368
1880.00,0.3367
1879.00,0.3366
1878.00,0.3365
1877.00,0.3364
1876.00,0.3363
1875.00,0.3361
1874.00,0.3358
1873.00,0.3355
1872.00,0.3350
1871.00,0.3345
1870.00,0.3337
1869.00,0.3331
1868.00,0.3328
1867.00,0.3328
1866.00,0.3328
1865.00,0.3327
1864.00,0.3325
1863.00,0.3322
1862.00,0.3318
1861.00,0.3314
1860.00,0.3311
1859.00,0.3308
1858.00,0.3304
1857.00,0.3301
1856.00,0.3299
1855.00,0.3296
1854.00,0.3293
1853.00,0.3291
1852.00,0.3289
1851.00,0.3286
1850.00,0.3283
1849.00,0.3280
1848.00,0.3277
1847.00,0.3276
1846.00,0.3276
1845.00,0.3277
1844.00,0.3279
1843.00,0.3280
1842.00,0.3279
1841.00,0.3278
1840.00,0.3276
1839.00,0.3273
1838.00,0.3270
1837.00,0.3268
1836.00,0.3268
1835.00,0.3268
1834.00,0.3267
1833.00,0.3266
1832.00,0.3264
1831.00,0.3261
1830.00,0.3259
1829.00,0.3259
1828.00,0.3260
1827.00,0.3259
1826.00,0.3258
1825.00,0.3257
1824.00,0.3259
1823.00,0.3260
1822.00,0.3261
1821.00,0.3261
1820.00,0.3261
1819.00,0.3261
1818.00,0.3261
1817.00,0.3262
1816.00,0.3264
1815.00,0.3266
1814.00,0.3267
1813.00,0.3268
1812.00,0.3270
1811.00,0.3272
1810.00,0.3277
1809.00,0.3285
1808.00,0.3294
1807.00,0.3304
1806.00,0.3317
1805.00,0.3331
1804.00,0.3345
1803.00,0.3359
1802.00,0.3372
1801.00,0.3385
1800.00,0.3396
1799.00,0.3405
1798.00,0.3410
1797.00,0.3413
1796.00,0.3415
1795.00,0.3417
1794.00,0.3420
1793.00,0.3422
1792.00,0.3424
1791.00,0.3425
1790.00,0.3425
1789.00,0.3424
1788.00,0.3421
1787.00,0.3418
1786.00,0.3415
1785.00,0.3413
1784.00,0.3412
1783.00,0.3409
1782.00,0.3406
1781.00,0.3404
1780.00,0.3404
1779.00,0.3406
1778.00,0.3408
1777.00,0.3409
1776.00,0.3410
1775.00,0.3412
1774.00,0.3414
1773.00,0.3418
1772.00,0.3421
1771.00,0.3426
1770.00,0.3430
1769.00,0.3434
1768.00,0.3439
1767.00,0.3444
1766.00,0.3448
1765.00,0.3453
1764.00,0.3458
1763.00,0.3463
1762.00,0.3469
1761.00,0.3477
1760.00,0.3486
1759.00,0.3493
1758.00,0.3502
1757.00,0.3513
1756.00,0.3528
1755.00,0.3544
1754.00,0.3562
1753.00,0.3583
1752.00,0.3608
1751.00,0.3639
1750.00,0.3677
1749.00,0.3724
1748.00,0.3782
1747.00,0.3848
1746.00,0.3919
1745.00,0.3990
1744.00,0.4059
1743.00,0.4119
1742.00,0.4166
1741.00,0.4196
1740.00,0.4205
1739.00,0.4191
1738.00,0.4162
1737.00,0.4126
1736.00,0.4083
1735.00,0.4026
1734.00,0.3960
1733.00,0.3901
1732.00,0.3854
1731.00,0.3817
1730.00,0.3787
1729.00,0.3766
1728.00,0.3752
1727.00,0.3742
1726.00,0.3734
1725.00,0.3730
1724.00,0.3729
1723.00,0.3730
1722.00,0.3735
1721.00,0.3741
1720.00,0.3749
1719.00,0.3755
1718.00,0.3761
1717.00,0.3773
1716.00,0.3787
1715.00,0.3801
1714.00,0.3816
1713.00,0.3831
1712.00,0.3847
1711.00,0.3862
1710.00,0.3877
1709.00,0.3891
1708.00,0.3904
1707.00,0.3913
1706.00,0.3920
1705.00,0.3926
1704.00,0.3931
1703.00,0.3934
1702.00,0.3934
1701.00,0.3924
1700.00,0.3901
1699.00,0.3873
1698.00,0.3849
1697.00,0.3831
1696.00,0.3817
1695.00,0.3804
1694.00,0.3790
1693.00,0.3776
1692.00,0.3764
1691.00,0.3753
1690.00,0.3744
1689.00,0.3738
1688.00,0.3737
1687.00,0.3738
1686.00,0.3740
1685.00,0.3735
1684.00,0.3730
1683.00,0.3728
1682.00,0.3726
1681.00,0.3724
1680.00,0.3726
1679.00,0.3731
1678.00,0.3740
1677.00,0.3752
1676.00,0.3765
1675.00,0.3775
1674.00,0.3782
1673.00,0.3785
1672.00,0.3788
1671.00,0.3791
1670.00,0.3796
1669.00,0.3805
1668.00,0.3815
1667.00,0.3823
1666.00,0.3830
1665.00,0.3839
1664.00,0.3849
1663.00,0.3861
1662.00,0.3874
1661.00,0.3891
1660.00,0.3908
1659.00,0.3926
1658.00,0.3945
1657.00,0.3968
1656.00,0.3995
1655.00,0.4027
1654.00,0.4060
1653.00,0.4099
1652.00,0.4132
1651.00,0.4141
1650.00,0.4139
1649.00,0.4144
1648.00,0.4158
1647.00,0.4181
1646.00,0.4214
1645.00,0.4248
1644.00,0.4275
1643.00,0.4297
1642.00,0.4319
1641.00,0.4345
1640.00,0.4373
1639.00,0.4400
1638.00,0.4429
1637.00,0.4463
1636.00,0.4504
1635.00,0.4548
1634.00,0.4587
1633.00,0.4618
1632.00,0.4647
1631.00,0.4678
1630.00,0.4711
1629.00,0.4750
1628.00,0.4793
1627.00,0.4837
1626.00,0.4884
1625.00,0.4936
1624.00,0.4995
1623.00,0.5060
1622.00,0.5132
1621.00,0.5208
1620.00,0.5290
1619.00,0.5380
1618.00,0.5486
1617.00,0.5617
1616.00,0.5765
1615.00,0.5913
1614.00,0.6060
1613.00,0.6221
1612.00,0.6406
1611.00,0.6604
1610.00,0.6805
1609.00,0.6997
1608.00,0.7170
1607.00,0.7307
1606.00,0.7409
1605.00,0.7496
1604.00,0.7585
1603.00,0.7685
1602.00,0.7809
1601.00,0.7969
1600.00,0.8170
1599.00,0.8405
1598.00,0.8677
1597.00,0.9008
1596.00,0.9417
1595.00,0.9913
1594.00,1.0510
1593.00,1.1240
1592.00,1.2135
1591.00,1.3212
1590.00,1.4495
1589.00,1.6056
1588.00,1.7988
1587.00,2.0308
1586.00,2.2940
1585.00,2.6002
1584.00,3.0146
1583.00,3.5643
1582.00,3.7249
1581.00,3.7874
1580.00,3.8204
1579.00,3.6825
1578.00,3.7826
1577.00,3.7587
1576.00,3.6795
1575.00,3.1143
1574.00,2.6325
1573.00,2.3358
1572.00,2.1162
1571.00,1.9302
1570.00,1.7845
1569.00,1.6975
1568.00,1.6705
1567.00,1.6926
1566.00,1.7592
1565.00,1.8773
1564.00,2.0501
1563.00,2.2557
1562.00,2.4482
1561.00,2.6103
1560.00,2.6938
1559.00,2.5032
1558.00,2.2026
1557.00,1.9630
1556.00,1.7604
1555.00,1.5706
1554.00,1.4057
1553.00,1.2774
1552.00,1.1802
1551.00,1.1019
1550.00,1.0369
1549.00,0.9862
1548.00,0.9490
1547.00,0.9207
1546.00,0.8977
1545.00,0.8794
1544.00,0.8660
1543.00,0.8564
1542.00,0.8486
1541.00,0.8415
1540.00,0.8348
1539.00,0.8278
1538.00,0.8204
1537.00,0.8135
1536.00,0.8074
1535.00,0.8007
1534.00,0.7936
1533.00,0.7882
1532.00,0.7857
1531.00,0.7855
1530.00,0.7870
1529.00,0.7899
1528.00,0.7933
1527.00,0.7952
1526.00,0.7949
1525.00,0.7934
1524.00,0.7922
1523.00,0.7923
1522.00,0.7954
1521.00,0.8028
1520.00,0.8129
1519.00,0.8228
1518.00,0.8316
1517.00,0.8390
1516.00,0.8424
1515.00,0.8388
1514.00,0.8271
1513.00,0.8089
1512.00,0.7868
1511.00,0.7640
1510.00,0.7433
1509.00,0.7263
1508.00,0.7128
1507.00,0.7035
1506.00,0.6995
1505.00,0.6995
1504.00,0.7010
1503.00,0.7031
1502.00,0.7060
1501.00,0.7099
1500.00,0.7149
1499.00,0.7204
1498.00,0.7269
1497.00,0.7356
1496.00,0.7467
1495.00,0.7587
1494.00,0.7708
1493.00,0.7841
1492.00,0.7994
1491.00,0.8160
1490.00,0.8333
1489.00,0.8514
1488.00,0.8703
1487.00,0.8900
1486.00,0.9117
1485.00,0.9368
1484.00,0.9657
1483.00,0.9986
1482.00,1.0370
1481.00,1.0829
1480.00,1.1362
1479.00,1.1968
1478.00,1.2676
1477.00,1.3532
1476.00,1.4555
1475.00,1.5750
1474.00,1.7200
1473.00,1.9090
1472.00,2.1553
1471.00,2.4507
1470.00,2.7791
1469.00,3.1598
1468.00,3.6240
1467.00,3.8862
1466.00,3.7674
1465.00,3.7744
1464.00,3.9237
1463.00,3.9123
1462.00,3.8870
1461.00,3.9979
1460.00,4.0722
1459.00,4.2534
1458.00,4.2466
1457.00,4.1359
1456.00,4.2013
1455.00,4.0042
1454.00,4.0013
1453.00,4.2217
1452.00,4.0464
1451.00,4.0439
1450.00,4.2354
1449.00,4.4278
1448.00,4.4556
1447.00,4.1599
1446.00,3.9506
1445.00,3.8494
1444.00,3.5996
1443.00,3.2567
1442.00,3.0101
1441.00,2.8383
1440.00,2.6771
1439.00,2.5024
1438.00,2.3244
1437.00,2.1527
1436.00,1.9939
1435.00,1.8547
1434.00,1.7333
1433.00,1.6218
1432.00,1.5150
1431.00,1.4144
1430.00,1.3248
1429.00,1.2492
1428.00,1.1882
1427.00,1.1402
1426.00,1.1024
1425.00,1.0727
1424.00,1.0509
1423.00,1.0372
1422.00,1.0305
1421.00,1.0296
1420.00,1.0347
1419.00,1.0471
1418.00,1.0668
1417.00,1.0930
1416.00,1.1252
1415.00,1.1626
1414.00,1.2023
1413.00,1.2400
1412.00,1.2705
1411.00,1.2877
1410.00,1.2871
1409.00,1.2693
1408.00,1.2376
1407.00,1.1956
1406.00,1.1467
1405.00,1.0950
1404.00,1.0448
1403.00,0.9996
1402.00,0.9600
1401.00,0.9252
1400.00,0.8947
1399.00,0.8694
1398.00,0.8504
1397.00,0.8370
1396.00,0.8281
1395.00,0.8224
1394.00,0.8195
1393.00,0.8201
1392.00,0.8260
1391.00,0.8394
1390.00,0.8626
1389.00,0.8983
1388.00,0.9501
1387.00,1.0191
1386.00,1.1017
1385.00,1.1929
1384.00,1.2923
1383.00,1.4034
1382.00,1.5306
1381.00,1.6775
1380.00,1.8458
1379.00,2.0213
1378.00,2.1569
1377.00,2.1937
1376.00,2.1240
1375.00,1.9881
1374.00,1.8327
1373.00,1.6921
1372.00,1.5800
1371.00,1.4962
1370.00,1.4374
1369.00,1.4014
1368.00,1.3833
1367.00,1.3719
1366.00,1.3517
1365.00,1.3115
1364.00,1.2513
1363.00,1.1815
1362.00,1.1152
1361.00,1.0601
1360.00,1.0174
1359.00,0.9851
1358.00,0.9609
1357.00,0.9434
1356.00,0.9321
1355.00,0.9261
1354.00,0.9238
1353.00,0.9239
1352.00,0.9251
1351.00,0.9273
1350.00,0.9313
1349.00,0.9387
1348.00,0.9513
1347.00,0.9690
1346.00,0.9881
1345.00,1.0019
1344.00,1.0036
1343.00,0.9910
1342.00,0.9674
1341.00,0.9382
1340.00,0.9080
1339.00,0.8794
1338.00,0.8534
1337.00,0.8302
1336.00,0.8095
1335.00,0.7912
1334.00,0.7751
1333.00,0.7613
1332.00,0.7499
1331.00,0.7410
1330.00,0.7346
1329.00,0.7307
1328.00,0.7291
1327.00,0.7293
1326.00,0.7306
1325.00,0.7325
1324.00,0.7344
1323.00,0.7363
1322.00,0.7383
1321.00,0.7407
1320.00,0.7439
1319.00,0.7479
1318.00,0.7526
1317.00,0.7575
1316.00,0.7625
1315.00,0.7677
1314.00,0.7731
1313.00,0.7791
1312.00,0.7858
1311.00,0.7930
1310.00,0.8003
1309.00,0.8069
1308.00,0.8122
1307.00,0.8154
1306.00,0.8163
1305.00,0.8150
1304.00,0.8127
1303.00,0.8103
1302.00,0.8086
1301.00,0.8078
1300.00,0.8077
1299.00,0.8074
1298.00,0.8062
1297.00,0.8037
1296.00,0.8002
1295.00,0.7961
1294.00,0.7917
1293.00,0.7868
1292.00,0.7810
1291.00,0.7735
1290.00,0.7637
1289.00,0.7522
1288.00,0.7402
1287.00,0.7289
1286.00,0.7190
1285.00,0.7109
1284.00,0.7049
1283.00,0.7017
1282.00,0.7018
1281.00,0.7052
1280.00,0.7107
1279.00,0.7154
1278.00,0.7159
1277.00,0.7101
1276.00,0.6987
1275.00,0.6847
1274.00,0.6714
1273.00,0.6606
1272.00,0.6529
1271.00,0.6477
1270.00,0.6440
1269.00,0.6410
1268.00,0.6378
1267.00,0.6345
1266.00,0.6310
1265.00,0.6279
1264.00,0.6254
1263.00,0.6239
1262.00,0.6230
1261.00,0.6224
1260.00,0.6221
1259.00,0.6224
1258.00,0.6232
1257.00,0.6244
1256.00,0.6260
1255.00,0.6280
1254.00,0.6303
1253.00,0.6325
1252.00,0.6340
1251.00,0.6342
1250.00,0.6327
1249.00,0.6299
1248.00,0.6263
1247.00,0.6227
1246.00,0.6192
1245.00,0.6158
1244.00,0.6130
1243.00,0.6108
1242.00,0.6089
1241.00,0.6064
1240.00,0.6028
1239.00,0.5985
1238.00,0.5950
1237.00,0.5938
1236.00,0.5958
1235.00,0.6010
1234.00,0.6084
1233.00,0.6168
1232.00,0.6253
1231.00,0.6326
1230.00,0.6375
1229.00,0.6388
1228.00,0.6361
1227.00,0.6298
1226.00,0.6211
1225.00,0.6113
1224.00,0.6014
1223.00,0.5922
1222.00,0.5842
1221.00,0.5775
1220.00,0.5722
1219.00,0.5681
1218.00,0.5652
1217.00,0.5635
1216.00,0.5627
1215.00,0.5627
1214.00,0.5633
1213.00,0.5638
1212.00,0.5639
1211.00,0.5634
1210.00,0.5620
1209.00,0.5597
1208.00,0.5564
1207.00,0.5527
1206.00,0.5494
1205.00,0.5471
1204.00,0.5466
1203.00,0.5484
1202.00,0.5526
1201.00,0.5584
1200.00,0.5638
1199.00,0.5668
1198.00,0.5665
1197.00,0.5639
1196.00,0.5612
1195.00,0.5603
1194.00,0.5619
1193.00,0.5655
1192.00,0.5701
1191.00,0.5743
1190.00,0.5765
1189.00,0.5761
1188.00,0.5731
1187.00,0.5687
1186.00,0.5638
1185.00,0.5593
1184.00,0.5555
1183.00,0.5525
1182.00,0.5502
1181.00,0.5485
1180.00,0.5474
1179.00,0.5466
1178.00,0.5462
1177.00,0.5462
1176.00,0.5472
1175.00,0.5492
1174.00,0.5522
1173.00,0.5560
1172.00,0.5601
1171.00,0.5639
1170.00,0.5669
1169.00,0.5685
1168.00,0.5689
1167.00,0.5687
1166.00,0.5683
1165.00,0.5680
1164.00,0.5683
1163.00,0.5691
1162.00,0.5702
1161.00,0.5714
1160.00,0.5722
1159.00,0.5726
1158.00,0.5724
1157.00,0.5719
1156.00,0.5714
1155.00,0.5710
1154.00,0.5706
1153.00,0.5701
1152.00,0.5693
1151.00,0.5683
1150.00,0.5668
1149.00,0.5650
1148.00,0.5629
1147.00,0.5607
1146.00,0.5585
1145.00,0.5563
1144.00,0.5544
1143.00,0.5533
1142.00,0.5530
1141.00,0.5536
1140.00,0.5552
1139.00,0.5581
1138.00,0.5623
1137.00,0.5677
1136.00,0.5742
1135.00,0.5808
1134.00,0.5863
1133.00,0.5892
1132.00,0.5886
1131.00,0.5849
1130.00,0.5795
1129.00,0.5749
1128.00,0.5732
1127.00,0.5753
1126.00,0.5799
1125.00,0.5837
1124.00,0.5840
1123.00,0.5801
1122.00,0.5735
1121.00,0.5667
1120.00,0.5619
1119.00,0.5599
1118.00,0.5609
1117.00,0.5645
1116.00,0.5695
1115.00,0.5738
1114.00,0.5754
1113.00,0.5727
1112.00,0.5658
1111.00,0.5566
1110.00,0.5470
1109.00,0.5388
1108.00,0.5328
1107.00,0.5296
1106.00,0.5291
1105.00,0.5310
1104.00,0.5349
1103.00,0.5408
1102.00,0.5484
1101.00,0.5568
1100.00,0.5641
1099.00,0.5676
1098.00,0.5653
1097.00,0.5578
1096.00,0.5477
1095.00,0.5380
1094.00,0.5303
1093.00,0.5250
1092.00,0.5213
1091.00,0.5187
1090.00,0.5167
1089.00,0.5153
1088.00,0.5148
1087.00,0.5155
1086.00,0.5173
1085.00,0.5203
1084.00,0.5244
1083.00,0.5296
1082.00,0.5358
1081.00,0.5424
1080.00,0.5488
1079.00,0.5542
1078.00,0.5581
1077.00,0.5598
1076.00,0.5590
1075.00,0.5558
1074.00,0.5505
1073.00,0.5438
1072.00,0.5367
1071.00,0.5301
1070.00,0.5245
1069.00,0.5197
1068.00,0.5156
1067.00,0.5120
1066.00,0.5088
1065.00,0.5061
1064.00,0.5039
1063.00,0.5021
1062.00,0.5008
1061.00,0.4995
1060.00,0.4980
1059.00,0.4961
1058.00,0.4939
1057.00,0.4913
1056.00,0.4886
1055.00,0.4858
1054.00,0.4831
1053.00,0.4805
1052.00,0.4781
1051.00,0.4761
1050.00,0.4746
1049.00,0.4734
1048.00,0.4726
1047.00,0.4722
1046.00,0.4720
1045.00,0.4719
1044.00,0.4718
1043.00,0.4721
1042.00,0.4725
1041.00,0.4729
1040.00,0.4733
1039.00,0.4735
1038.00,0.4737
1037.00,0.4739
1036.00,0.4744
1035.00,0.4755
1034.00,0.4773
1033.00,0.4800
1032.00,0.4833
1031.00,0.4872
1030.00,0.4908
1029.00,0.4938
1028.00,0.4955
1027.00,0.4957
1026.00,0.4942
1025.00,0.4909
1024.00,0.4862
1023.00,0.4807
1022.00,0.4752
1021.00,0.4703
1020.00,0.4662
1019.00,0.4633
1018.00,0.4614
1017.00,0.4601
1016.00,0.4593
1015.00,0.4586
1014.00,0.4578
1013.00,0.4566
1012.00,0.4550
1011.00,0.4533
1010.00,0.4521
1009.00,0.4516
1008.00,0.4519
1007.00,0.4526
1006.00,0.4532
1005.00,0.4532
1004.00,0.4526
1003.00,0.4518
1002.00,0.4511
1001.00,0.4510
1000.00,0.4511
999.00,0.4513
998.00,0.4510
997.00,0.4501
996.00,0.4489
995.00,0.4475
994.00,0.4462
993.00,0.4450
992.00,0.4440
991.00,0.4434
990.00,0.4433
989.00,0.4434
988.00,0.4430
987.00,0.4418
986.00,0.4401
985.00,0.4385
984.00,0.4382
983.00,0.4398
982.00,0.4434
981.00,0.4488
980.00,0.4559
979.00,0.4648
978.00,0.4755
977.00,0.4883
976.00,0.5031
975.00,0.5201
974.00,0.5393
973.00,0.5610
972.00,0.5856
971.00,0.6129
970.00,0.6416
969.00,0.6693
968.00,0.6918
967.00,0.7052
966.00,0.7069
965.00,0.6973
964.00,0.6796
963.00,0.6574
962.00,0.6343
961.00,0.6132
960.00,0.5967
959.00,0.5864
958.00,0.5824
957.00,0.5831
956.00,0.5859
955.00,0.5880
954.00,0.5875
953.00,0.5838
952.00,0.5773
951.00,0.5690
950.00,0.5601
949.00,0.5514
948.00,0.5437
947.00,0.5377
946.00,0.5337
945.00,0.5315
944.00,0.5308
943.00,0.5311
942.00,0.5319
941.00,0.5326
940.00,0.5329
939.00,0.5323
938.00,0.5305
937.00,0.5277
936.00,0.5241
935.00,0.5200
934.00,0.5156
933.00,0.5111
932.00,0.5066
931.00,0.5020
930.00,0.4975
929.00,0.4933
928.00,0.4897
927.00,0.4871
926.00,0.4860
925.00,0.4865
924.00,0.4890
923.00,0.4931
922.00,0.4978
921.00,0.5014
920.00,0.5021
919.00,0.4990
918.00,0.4925
917.00,0.4836
916.00,0.4739
915.00,0.4649
914.00,0.4576
913.00,0.4520
912.00,0.4480
911.00,0.4452
910.00,0.4434
909.00,0.4425
908.00,0.4429
907.00,0.4449
906.00,0.4485
905.00,0.4532
904.00,0.4574
903.00,0.4593
902.00,0.4581
901.00,0.4547
900.00,0.4509
899.00,0.4483
898.00,0.4474
897.00,0.4479
896.00,0.4493
895.00,0.4516
894.00,0.4549
893.00,0.4589
892.00,0.4636
891.00,0.4683
890.00,0.4725
889.00,0.4751
888.00,0.4756
887.00,0.4740
886.00,0.4708
885.00,0.4667
884.00,0.4628
883.00,0.4596
882.00,0.4574
881.00,0.4559
880.00,0.4550
879.00,0.4544
878.00,0.4538
877.00,0.4532
876.00,0.4529
875.00,0.4529
874.00,0.4533
873.00,0.4536
872.00,0.4539
871.00,0.4540
870.00,0.4542
869.00,0.4545
868.00,0.4553
867.00,0.4569
866.00,0.4597
865.00,0.4636
864.00,0.4678
863.00,0.4716
862.00,0.4738
861.00,0.4734
860.00,0.4699
859.00,0.4640
858.00,0.4570
857.00,0.4502
856.00,0.4444
855.00,0.4401
854.00,0.4370
853.00,0.4348
852.00,0.4331
851.00,0.4317
850.00,0.4305
849.00,0.4296
848.00,0.4285
847.00,0.4275
846.00,0.4265
845.00,0.4257
844.00,0.4253
843.00,0.4256
842.00,0.4271
841.00,0.4301
840.00,0.4355
839.00,0.4434
838.00,0.4531
837.00,0.4627
836.00,0.4698
835.00,0.4723
834.00,0.4700
833.00,0.4647
832.00,0.4592
831.00,0.4561
830.00,0.4567
829.00,0.4609
828.00,0.4677
827.00,0.4754
826.00,0.4828
825.00,0.4897
824.00,0.4966
823.00,0.5035
822.00,0.5094
821.00,0.5133
820.00,0.5143
819.00,0.5128
818.00,0.5094
817.00,0.5050
816.00,0.5004
815.00,0.4958
814.00,0.4910
813.00,0.4857
812.00,0.4802
811.00,0.4747
810.00,0.4695
809.00,0.4646
808.00,0.4600
807.00,0.4558
806.00,0.4516
805.00,0.4474
804.00,0.4432
803.00,0.4392
802.00,0.4354
801.00,0.4320
800.00,0.4293
799.00,0.4275
798.00,0.4267
797.00,0.4262
796.00,0.4259
795.00,0.4257
794.00,0.4258
793.00,0.4262
792.00,0.4267
791.00,0.4274
790.00,0.4284
789.00,0.4295
788.00,0.4308
787.00,0.4325
786.00,0.4351
785.00,0.4389
784.00,0.4441
783.00,0.4507
782.00,0.4585
781.00,0.4677
780.00,0.4781
779.00,0.4885
778.00,0.4968
777.00,0.5004
776.00,0.4985
775.00,0.4927
774.00,0.4858
773.00,0.4805
772.00,0.4779
771.00,0.4778
770.00,0.4793
769.00,0.4817
768.00,0.4842
767.00,0.4865
766.00,0.4881
765.00,0.4888
764.00,0.4892
763.00,0.4901
762.00,0.4922
761.00,0.4954
760.00,0.4993
759.00,0.5030
758.00,0.5063
757.00,0.5093
756.00,0.5126
755.00,0.5168
754.00,0.5219
753.00,0.5273
752.00,0.5328
751.00,0.5381
750.00,0.5435
749.00,0.5492
748.00,0.5552
747.00,0.5616
746.00,0.5682
745.00,0.5749
744.00,0.5820
743.00,0.5897
742.00,0.5982
741.00,0.6071
740.00,0.6164
739.00,0.6259
738.00,0.6361
737.00,0.6474
736.00,0.6598
735.00,0.6735
734.00,0.6881
733.00,0.7030
732.00,0.7183
731.00,0.7351
730.00,0.7548
729.00,0.7788
728.00,0.8083
727.00,0.8450
726.00,0.8906
725.00,0.9450
724.00,1.0032
723.00,1.0538
722.00,1.0805
721.00,1.0709
720.00,1.0277
719.00,0.9667
718.00,0.9039
717.00,0.8482
716.00,0.8026
715.00,0.7671
714.00,0.7397
713.00,0.7177
712.00,0.6992
711.00,0.6832
710.00,0.6684
709.00,0.6536
708.00,0.6380
707.00,0.6216
706.00,0.6052
705.00,0.5894
704.00,0.5744
703.00,0.5607
702.00,0.5486
701.00,0.5379
700.00,0.5275
699.00,0.5163
698.00,0.5036
697.00,0.4895
696.00,0.4751
695.00,0.4619
694.00,0.4508
693.00,0.4418
692.00,0.4345
691.00,0.4288
690.00,0.4243
689.00,0.4204
688.00,0.4165
687.00,0.4124
686.00,0.4082
685.00,0.4043
684.00,0.4007
683.00,0.3980
682.00,0.3958
681.00,0.3940
680.00,0.3923
679.00,0.3908
678.00,0.3894
677.00,0.3884
676.00,0.3876
675.00,0.3871
674.00,0.3869
673.00,0.3868
672.00,0.3868
671.00,0.3868
670.00,0.3870
669.00,0.3870
668.00,0.3865
667.00,0.3858
666.00,0.3862
665.00,0.3870
664.00,0.3878
663.00,0.3886
662.00,0.3895
661.00,0.3906
660.00,0.3918
659.00,0.3931
658.00,0.3944
657.00,0.3956
656.00,0.3966
655.00,0.3974
654.00,0.3982
653.00,0.3989
652.00,0.3997
651.00,0.4008
650.00,0.4020
649.00,0.4034
648.00,0.4049
647.00,0.4066
646.00,0.4086
645.00,0.4107
644.00,0.4132
643.00,0.4162
642.00,0.4194
641.00,0.4227
640.00,0.4257
639.00,0.4285
638.00,0.4311
637.00,0.4334
636.00,0.4355
635.00,0.4376
634.00,0.4400
633.00,0.4428
632.00,0.4459
631.00,0.4487
630.00,0.4512
629.00,0.4536
628.00,0.4562
627.00,0.4594
626.00,0.4630
625.00,0.4666
624.00,0.4699
623.00,0.4727
622.00,0.4748
621.00,0.4763
620.00,0.4774
619.00,0.4781
618.00,0.4785
617.00,0.4784
616.00,0.4780
615.00,0.4773
614.00,0.4765
613.00,0.4754
612.00,0.4741
611.00,0.4727
610.00,0.4715
609.00,0.4707
608.00,0.4704
607.00,0.4704
606.00,0.4705
605.00,0.4704
604.00,0.4701
603.00,0.4694
602.00,0.4682
601.00,0.4665
600.00,0.4646
599.00,0.4629
598.00,0.4615
597.00,0.4606
596.00,0.4599
595.00,0.4594
594.00,0.4589
593.00,0.4586
592.00,0.4586
591.00,0.4590
590.00,0.4600
589.00,0.4614
588.00,0.4633
587.00,0.4655
586.00,0.4678
585.00,0.4702
584.00,0.4729
583.00,0.4759
582.00,0.4789
581.00,0.4816
580.00,0.4840
579.00,0.4862
578.00,0.4880
577.00,0.4896
576.00,0.4911
575.00,0.4931
574.00,0.4955
573.00,0.4981
572.00,0.5006
571.00,0.5031
570.00,0.5057
569.00,0.5086
568.00,0.5120
567.00,0.5160
566.00,0.5202
565.00,0.5243
564.00,0.5284
563.00,0.5323
562.00,0.5360
561.00,0.5393
560.00,0.5426
559.00,0.5468
558.00,0.5520
557.00,0.5576
556.00,0.5627
555.00,0.5673
554.00,0.5715
553.00,0.5757
552.00,0.5799
551.00,0.5837
550.00,0.5871
