Created as New Dataset,
cm-1,A
4000.00,0.4770
3999.00,0.4767
3998.00,0.4764
3997.00,0.4762
3996.00,0.4758
3995.00,0.4754
3994.00,0.4750
3993.00,0.4746
3992.00,0.4743
3991.00,0.4740
3990.00,0.4737
3989.00,0.4733
3988.00,0.4728
3987.00,0.4724
3986.00,0.4719
3985.00,0.4714
3984.00,0.4711
3983.00,0.4708
3982.00,0.4705
3981.00,0.4701
3980.00,0.4698
3979.00,0.4695
3978.00,0.4691
3977.00,0.4688
3976.00,0.4685
3975.00,0.4683
3974.00,0.4680
3973.00,0.4677
3972.00,0.4673
3971.00,0.4670
3970.00,0.4667
3969.00,0.4665
3968.00,0.4663
3967.00,0.4661
3966.00,0.4658
3965.00,0.4655
3964.00,0.4651
3963.00,0.4647
3962.00,0.4644
3961.00,0.4641
3960.00,0.4639
3959.00,0.4637
3958.00,0.4634
3957.00,0.4632
3956.00,0.4629
3955.00,0.4627
3954.00,0.4625
3953.00,0.4623
3952.00,0.4621
3951.00,0.4619
3950.00,0.4617
3949.00,0.4615
3948.00,0.4613
3947.00,0.4611
3946.00,0.4608
3945.00,0.4606
3944.00,0.4605
3943.00,0.4604
3942.00,0.4604
3941.00,0.4603
3940.00,0.4602
3939.00,0.4601
3938.00,0.4600
3937.00,0.4599
3936.00,0.4597
3935.00,0.4596
3934.00,0.4595
3933.00,0.4594
3932.00,0.4594
3931.00,0.4592
3930.00,0.4591
3929.00,0.4590
3928.00,0.4589
3927.00,0.4588
3926.00,0.4588
3925.00,0.4587
3924.00,0.4586
3923.00,0.4584
3922.00,0.4583
3921.00,0.4583
3920.00,0.4582
3919.00,0.4581
3918.00,0.4580
3917.00,0.4580
3916.00,0.4580
3915.00,0.4581
3914.00,0.4582
3913.00,0.4583
3912.00,0.4584
3911.00,0.4584
3910.00,0.4583
3909.00,0.4581
3908.00,0.4577
3907.00,0.4573
3906.00,0.4568
3905.00,0.4563
3904.00,0.4559
3903.00,0.4556
3902.00,0.4553
3901.00,0.4551
3900.00,0.4551
3899.00,0.4552
3898.00,0.4552
3897.00,0.4553
3896.00,0.4554
3895.00,0.4555
3894.00,0.4555
3893.00,0.4554
3892.00,0.4553
3891.00,0.4552
3890.00,0.4550
3889.00,0.4547
3888.00,0.4545
3887.00,0.4544
3886.00,0.4543
3885.00,0.4541
3884.00,0.4537
3883.00,0.4535
3882.00,0.4536
3881.00,0.4538
3880.00,0.4538
3879.00,0.4537
3878.00,0.4536
3877.00,0.4537
3876.00,0.4539
3875.00,0.4539
3874.00,0.4536
3873.00,0.4531
3872.00,0.4526
3871.00,0.4525
3870.00,0.4524
3869.00,0.4520
3868.00,0.4513
3867.00,0.4509
3866.00,0.4509
3865.00,0.4510
3864.00,0.4509
3863.00,0.4507
3862.00,0.4507
3861.00,0.4509
3860.00,0.4510
3859.00,0.4508
3858.00,0.4503
3857.00,0.4496
3856.00,0.4486
3855.00,0.4476
3854.00,0.4471
3853.00,0.4471
3852.00,0.4470
3851.00,0.4469
3850.00,0.4471
3849.00,0.4478
3848.00,0.4485
3847.00,0.4490
3846.00,0.4496
3845.00,0.4501
3844.00,0.4503
3843.00,0.4502
3842.00,0.4498
3841.00,0.4492
3840.00,0.4486
3839.00,0.4481
3838.00,0.4477
3837.00,0.4474
3836.00,0.4472
3835.00,0.4471
3834.00,0.4472
3833.00,0.4473
3832.00,0.4475
3831.00,0.4477
3830.00,0.4478
3829.00,0.4480
3828.00,0.4482
3827.00,0.4483
3826.00,0.4481
3825.00,0.4477
3824.00,0.4472
3823.00,0.4469
3822.00,0.4468
3821.00,0.4465
3820.00,0.4459
3819.00,0.4451
3818.00,0.4447
3817.00,0.4448
3816.00,0.4450
3815.00,0.4449
3814.00,0.4449
3813.00,0.4452
3812.00,0.4457
3811.00,0.4459
3810.00,0.4457
3809.00,0.4454
3808.00,0.4452
3807.00,0.4451
3806.00,0.4447
3805.00,0.4441
3804.00,0.4434
3803.00,0.4431
3802.00,0.4430
3801.00,0.4427
3800.00,0.4423
3799.00,0.4421
3798.00,0.4423
3797.00,0.4425
3796.00,0.4426
3795.00,0.4424
3794.00,0.4425
3793.00,0.4428
3792.00,0.4430
3791.00,0.4429
3790.00,0.4427
3789.00,0.4426
3788.00,0.4425
3787.00,0.4424
3786.00,0.4423
3785.00,0.4421
3784.00,0.4418
3783.00,0.4416
3782.00,0.4413
3781.00,0.4411
3780.00,0.4409
3779.00,0.4408
3778.00,0.4405
3777.00,0.4404
3776.00,0.4403
3775.00,0.4403
3774.00,0.4402
3773.00,0.4399
3772.00,0.4396
3771.00,0.4394
3770.00,0.4392
3769.00,0.4389
3768.00,0.4385
3767.00,0.4382
3766.00,0.4382
3765.00,0.4381
3764.00,0.4379
3763.00,0.4376
3762.00,0.4374
3761.00,0.4373
3760.00,0.4371
3759.00,0.4367
3758.00,0.4364
3757.00,0.4362
3756.00,0.4359
3755.00,0.4352
3754.00,0.4344
3753.00,0.4336
3752.00,0.4329
3751.00,0.4323
3750.00,0.4320
3749.00,0.4316
3748.00,0.4310
3747.00,0.4302
3746.00,0.4298
3745.00,0.4299
3744.00,0.4302
3743.00,0.4303
3742.00,0.4304
3741.00,0.4308
3740.00,0.4314
3739.00,0.4315
3738.00,0.4313
3737.00,0.4312
3736.00,0.4313
3735.00,0.4313
3734.00,0.4311
3733.00,0.4310
3732.00,0.4310
3731.00,0.4310
3730.00,0.4309
3729.00,0.4310
3728.00,0.4313
3727.00,0.4316
3726.00,0.4318
3725.00,0.4317
3724.00,0.4317
3723.00,0.4318
3722.00,0.4318
3721.00,0.4316
3720.00,0.4315
3719.00,0.4314
3718.00,0.4315
3717.00,0.4315
3716.00,0.4313
3715.00,0.4309
3714.00,0.4304
3713.00,0.4300
3712.00,0.4295
3711.00,0.4292
3710.00,0.4290
3709.00,0.4291
3708.00,0.4293
3707.00,0.4296
3706.00,0.4298
3705.00,0.4301
3704.00,0.4305
3703.00,0.4308
3702.00,0.4310
3701.00,0.4311
3700.00,0.4311
3699.00,0.4312
3698.00,0.4313
3697.00,0.4315
3696.00,0.4316
3695.00,0.4316
3694.00,0.4314
3693.00,0.4311
3692.00,0.4306
3691.00,0.4299
3690.00,0.4293
3689.00,0.4291
3688.00,0.4290
3687.00,0.4290
3686.00,0.4290
3685.00,0.4292
3684.00,0.4295
3683.00,0.4298
3682.00,0.4299
3681.00,0.4300
3680.00,0.4300
3679.00,0.4297
3678.00,0.4291
3677.00,0.4285
3676.00,0.4282
3675.00,0.4280
3674.00,0.4276
3673.00,0.4271
3672.00,0.4270
3671.00,0.4273
3670.00,0.4277
3669.00,0.4280
3668.00,0.4286
3667.00,0.4296
3666.00,0.4308
3665.00,0.4318
3664.00,0.4327
3663.00,0.4337
3662.00,0.4347
3661.00,0.4358
3660.00,0.4369
3659.00,0.4380
3658.00,0.4395
3657.00,0.4414
3656.00,0.4437
3655.00,0.4459
3654.00,0.4478
3653.00,0.4496
3652.00,0.4513
3651.00,0.4525
3650.00,0.4531
3649.00,0.4532
3648.00,0.4527
3647.00,0.4519
3646.00,0.4506
3645.00,0.4493
3644.00,0.4481
3643.00,0.4471
3642.00,0.4461
3641.00,0.4452
3640.00,0.4444
3639.00,0.4436
3638.00,0.4429
3637.00,0.4422
3636.00,0.4416
3635.00,0.4411
3634.00,0.4407
3633.00,0.4402
3632.00,0.4395
3631.00,0.4390
3630.00,0.4389
3629.00,0.4390
3628.00,0.4391
3627.00,0.4392
3626.00,0.4393
3625.00,0.4397
3624.00,0.4399
3623.00,0.4397
3622.00,0.4393
3621.00,0.4387
3620.00,0.4380
3619.00,0.4372
3618.00,0.4362
3617.00,0.4353
3616.00,0.4345
3615.00,0.4339
3614.00,0.4334
3613.00,0.4331
3612.00,0.4328
3611.00,0.4327
3610.00,0.4326
3609.00,0.4327
3608.00,0.4327
3607.00,0.4327
3606.00,0.4327
3605.00,0.4327
3604.00,0.4327
3603.00,0.4326
3602.00,0.4323
3601.00,0.4318
3600.00,0.4312
3599.00,0.4305
3598.00,0.4297
3597.00,0.4289
3596.00,0.4280
3595.00,0.4270
3594.00,0.4262
3593.00,0.4253
3592.00,0.4246
3591.00,0.4239
3590.00,0.4232
3589.00,0.4225
3588.00,0.4219
3587.00,0.4214
3586.00,0.4211
3585.00,0.4209
3584.00,0.4208
3583.00,0.4207
3582.00,0.4206
3581.00,0.4205
3580.00,0.4204
3579.00,0.4204
3578.00,0.4203
3577.00,0.4202
3576.00,0.4202
3575.00,0.4201
3574.00,0.4199
3573.00,0.4198
3572.00,0.4196
3571.00,0.4193
3570.00,0.4190
3569.00,0.4187
3568.00,0.4185
3567.00,0.4183
3566.00,0.4182
3565.00,0.4182
3564.00,0.4183
3563.00,0.4184
3562.00,0.4186
3561.00,0.4188
3560.00,0.4191
3559.00,0.4194
3558.00,0.4197
3557.00,0.4199
3556.00,0.4200
3555.00,0.4200
3554.00,0.4201
3553.00,0.4202
3552.00,0.4203
3551.00,0.4205
3550.00,0.4206
3549.00,0.4207
3548.00,0.4209
3547.00,0.4210
3546.00,0.4212
3545.00,0.4214
3544.00,0.4215
3543.00,0.4218
3542.00,0.4221
3541.00,0.4225
3540.00,0.4229
3539.00,0.4232
3538.00,0.4235
3537.00,0.4238
3536.00,0.4241
3535.00,0.4244
3534.00,0.4246
3533.00,0.4248
3532.00,0.4250
3531.00,0.4253
3530.00,0.4255
3529.00,0.4259
3528.00,0.4262
3527.00,0.4265
3526.00,0.4267
3525.00,0.4270
3524.00,0.4273
3523.00,0.4276
3522.00,0.4279
3521.00,0.4282
3520.00,0.4286
3519.00,0.4290
3518.00,0.4294
3517.00,0.4299
3516.00,0.4303
3515.00,0.4307
3514.00,0.4311
3513.00,0.4314
3512.00,0.4318
3511.00,0.4321
3510.00,0.4324
3509.00,0.4328
3508.00,0.4332
3507.00,0.4336
3506.00,0.4341
3505.00,0.4345
3504.00,0.4350
3503.00,0.4354
3502.00,0.4359
3501.00,0.4364
3500.00,0.4370
3499.00,0.4376
3498.00,0.4383
3497.00,0.4389
3496.00,0.4396
3495.00,0.4403
3494.00,0.4410
3493.00,0.4417
3492.00,0.4424
3491.00,0.4431
3490.00,0.4437
3489.00,0.4444
3488.00,0.4450
3487.00,0.4457
3486.00,0.4463
3485.00,0.4469
3484.00,0.4475
3483.00,0.4481
3482.00,0.4486
3481.00,0.4491
3480.00,0.4496
3479.00,0.4502
3478.00,0.4507
3477.00,0.4513
3476.00,0.4517
3475.00,0.4522
3474.00,0.4527
3473.00,0.4532
3472.00,0.4538
3471.00,0.4544
3470.00,0.4550
3469.00,0.4557
3468.00,0.4563
3467.00,0.4569
3466.00,0.4576
3465.00,0.4583
3464.00,0.4590
3463.00,0.4597
3462.00,0.4604
3461.00,0.4612
3460.00,0.4620
3459.00,0.4628
3458.00,0.4636
3457.00,0.4644
3456.00,0.4651
3455.00,0.4659
3454.00,0.4667
3453.00,0.4676
3452.00,0.4685
3451.00,0.4695
3450.00,0.4705
3449.00,0.4716
3448.00,0.4727
3447.00,0.4738
3446.00,0.4750
3445.00,0.4763
3444.00,0.4777
3443.00,0.4791
3442.00,0.4805
3441.00,0.4819
3440.00,0.4832
3439.00,0.4845
3438.00,0.4858
3437.00,0.4869
3436.00,0.4878
3435.00,0.4887
3434.00,0.4895
3433.00,0.4902
3432.00,0.4910
3431.00,0.4917
3430.00,0.4924
3429.00,0.4932
3428.00,0.4939
3427.00,0.4946
3426.00,0.4953
3425.00,0.4960
3424.00,0.4967
3423.00,0.4975
3422.00,0.4982
3421.00,0.4990
3420.00,0.4997
3419.00,0.5005
3418.00,0.5014
3417.00,0.5024
3416.00,0.5035
3415.00,0.5045
3414.00,0.5055
3413.00,0.5065
3412.00,0.5074
3411.00,0.5083
3410.00,0.5093
3409.00,0.5103
3408.00,0.5113
3407.00,0.5124
3406.00,0.5134
3405.00,0.5146
3404.00,0.5157
3403.00,0.5169
3402.00,0.5181
3401.00,0.5193
3400.00,0.5204
3399.00,0.5214
3398.00,0.5225
3397.00,0.5237
3396.00,0.5248
3395.00,0.5260
3394.00,0.5272
3393.00,0.5285
3392.00,0.5297
3391.00,0.5309
3390.00,0.5321
3389.00,0.5332
3388.00,0.5343
3387.00,0.5354
3386.00,0.5366
3385.00,0.5378
3384.00,0.5390
3383.00,0.5404
3382.00,0.5417
3381.00,0.5431
3380.00,0.5444
3379.00,0.5458
3378.00,0.5472
3377.00,0.5486
3376.00,0.5501
3375.00,0.5516
3374.00,0.5531
3373.00,0.5547
3372.00,0.5562
3371.00,0.5578
3370.00,0.5594
3369.00,0.5610
3368.00,0.5626
3367.00,0.5640
3366.00,0.5656
3365.00,0.5671
3364.00,0.5687
3363.00,0.5704
3362.00,0.5721
3361.00,0.5738
3360.00,0.5755
3359.00,0.5771
3358.00,0.5787
3357.00,0.5803
3356.00,0.5819
3355.00,0.5834
3354.00,0.5849
3353.00,0.5864
3352.00,0.5879
3351.00,0.5893
3350.00,0.5906
3349.00,0.5918
3348.00,0.5929
3347.00,0.5939
3346.00,0.5949
3345.00,0.5958
3344.00,0.5967
3343.00,0.5975
3342.00,0.5981
3341.00,0.5987
3340.00,0.5992
3339.00,0.5997
3338.00,0.6001
3337.00,0.6003
3336.00,0.6005
3335.00,0.6005
3334.00,0.6004
3333.00,0.6002
3332.00,0.6000
3331.00,0.5997
3330.00,0.5995
3329.00,0.5992
3328.00,0.5988
3327.00,0.5984
3326.00,0.5979
3325.00,0.5974
3324.00,0.5969
3323.00,0.5964
3322.00,0.5958
3321.00,0.5952
3320.00,0.5945
3319.00,0.5938
3318.00,0.5932
3317.00,0.5927
3316.00,0.5924
3315.00,0.5920
3314.00,0.5916
3313.00,0.5911
3312.00,0.5906
3311.00,0.5902
3310.00,0.5898
3309.00,0.5894
3308.00,0.5891
3307.00,0.5888
3306.00,0.5887
3305.00,0.5886
3304.00,0.5885
3303.00,0.5884
3302.00,0.5883
3301.00,0.5883
3300.00,0.5884
3299.00,0.5885
3298.00,0.5885
3297.00,0.5887
3296.00,0.5888
3295.00,0.5890
3294.00,0.5893
3293.00,0.5896
3292.00,0.5900
3291.00,0.5904
3290.00,0.5908
3289.00,0.5913
3288.00,0.5917
3287.00,0.5922
3286.00,0.5928
3285.00,0.5934
3284.00,0.5941
3283.00,0.5947
3282.00,0.5953
3281.00,0.5958
3280.00,0.5964
3279.00,0.5970
3278.00,0.5975
3277.00,0.5981
3276.00,0.5986
3275.00,0.5991
3274.00,0.5997
3273.00,0.6003
3272.00,0.6010
3271.00,0.6016
3270.00,0.6022
3269.00,0.6026
3268.00,0.6030
3267.00,0.6034
3266.00,0.6038
3265.00,0.6042
3264.00,0.6046
3263.00,0.6050
3262.00,0.6053
3261.00,0.6056
3260.00,0.6058
3259.00,0.6060
3258.00,0.6061
3257.00,0.6062
3256.00,0.6063
3255.00,0.6063
3254.00,0.6062
3253.00,0.6061
3252.00,0.6059
3251.00,0.6058
3250.00,0.6055
3249.00,0.6053
3248.00,0.6049
3247.00,0.6046
3246.00,0.6042
3245.00,0.6038
3244.00,0.6034
3243.00,0.6028
3242.00,0.6022
3241.00,0.6016
3240.00,0.6008
3239.00,0.6000
3238.00,0.5991
3237.00,0.5983
3236.00,0.5975
3235.00,0.5968
3234.00,0.5961
3233.00,0.5954
3232.00,0.5946
3231.00,0.5937
3230.00,0.5929
3229.00,0.5920
3228.00,0.5912
3227.00,0.5904
3226.00,0.5896
3225.00,0.5888
3224.00,0.5879
3223.00,0.5870
3222.00,0.5861
3221.00,0.5852
3220.00,0.5844
3219.00,0.5835
3218.00,0.5827
3217.00,0.5819
3216.00,0.5811
3215.00,0.5803
3214.00,0.5796
3213.00,0.5790
3212.00,0.5784
3211.00,0.5777
3210.00,0.5772
3209.00,0.5766
3208.00,0.5760
3207.00,0.5754
3206.00,0.5749
3205.00,0.5744
3204.00,0.5739
3203.00,0.5733
3202.00,0.5728
3201.00,0.5723
3200.00,0.5719
3199.00,0.5713
3198.00,0.5708
3197.00,0.5703
3196.00,0.5698
3195.00,0.5693
3194.00,0.5688
3193.00,0.5683
3192.00,0.5677
3191.00,0.5673
3190.00,0.5668
3189.00,0.5664
3188.00,0.5659
3187.00,0.5653
3186.00,0.5647
3185.00,0.5641
3184.00,0.5635
3183.00,0.5629
3182.00,0.5623
3181.00,0.5616
3180.00,0.5609
3179.00,0.5602
3178.00,0.5595
3177.00,0.5588
3176.00,0.5581
3175.00,0.5572
3174.00,0.5564
3173.00,0.5557
3172.00,0.5551
3171.00,0.5545
3170.00,0.5539
3169.00,0.5531
3168.00,0.5523
3167.00,0.5515
3166.00,0.5507
3165.00,0.5499
3164.00,0.5492
3163.00,0.5484
3162.00,0.5477
3161.00,0.5470
3160.00,0.5463
3159.00,0.5457
3158.00,0.5450
3157.00,0.5443
3156.00,0.5436
3155.00,0.5430
3154.00,0.5423
3153.00,0.5418
3152.00,0.5412
3151.00,0.5406
3150.00,0.5400
3149.00,0.5394
3148.00,0.5388
3147.00,0.5381
3146.00,0.5374
3145.00,0.5368
3144.00,0.5363
3143.00,0.5358
3142.00,0.5354
3141.00,0.5350
3140.00,0.5346
3139.00,0.5342
3138.00,0.5338
3137.00,0.5335
3136.00,0.5332
3135.00,0.5329
3134.00,0.5326
3133.00,0.5323
3132.00,0.5321
3131.00,0.5320
3130.00,0.5319
3129.00,0.5318
3128.00,0.5317
3127.00,0.5316
3126.00,0.5315
3125.00,0.5315
3124.00,0.5315
3123.00,0.5315
3122.00,0.5316
3121.00,0.5318
3120.00,0.5319
3119.00,0.5321
3118.00,0.5323
3117.00,0.5325
3116.00,0.5328
3115.00,0.5331
3114.00,0.5335
3113.00,0.5340
3112.00,0.5346
3111.00,0.5352
3110.00,0.5360
3109.00,0.5368
3108.00,0.5378
3107.00,0.5387
3106.00,0.5397
3105.00,0.5407
3104.00,0.5417
3103.00,0.5427
3102.00,0.5436
3101.00,0.5447
3100.00,0.5457
3099.00,0.5468
3098.00,0.5479
3097.00,0.5490
3096.00,0.5502
3095.00,0.5515
3094.00,0.5529
3093.00,0.5543
3092.00,0.5558
3091.00,0.5574
3090.00,0.5590
3089.00,0.5609
3088.00,0.5629
3087.00,0.5651
3086.00,0.5674
3085.00,0.5697
3084.00,0.5721
3083.00,0.5747
3082.00,0.5774
3081.00,0.5804
3080.00,0.5834
3079.00,0.5867
3078.00,0.5901
3077.00,0.5936
3076.00,0.5973
3075.00,0.6011
3074.00,0.6050
3073.00,0.6090
3072.00,0.6130
3071.00,0.6170
3070.00,0.6210
3069.00,0.6251
3068.00,0.6292
3067.00,0.6333
3066.00,0.6373
3065.00,0.6413
3064.00,0.6451
3063.00,0.6488
3062.00,0.6524
3061.00,0.6559
3060.00,0.6592
3059.00,0.6624
3058.00,0.6656
3057.00,0.6688
3056.00,0.6720
3055.00,0.6751
3054.00,0.6783
3053.00,0.6816
3052.00,0.6849
3051.00,0.6884
3050.00,0.6920
3049.00,0.6957
3048.00,0.6996
3047.00,0.7037
3046.00,0.7080
3045.00,0.7123
3044.00,0.7167
3043.00,0.7211
3042.00,0.7256
3041.00,0.7302
3040.00,0.7349
3039.00,0.7398
3038.00,0.7449
3037.00,0.7502
3036.00,0.7557
3035.00,0.7615
3034.00,0.7677
3033.00,0.7744
3032.00,0.7814
3031.00,0.7889
3030.00,0.7965
3029.00,0.8044
3028.00,0.8125
3027.00,0.8207
3026.00,0.8292
3025.00,0.8380
3024.00,0.8472
3023.00,0.8568
3022.00,0.8667
3021.00,0.8770
3020.00,0.8877
3019.00,0.8986
3018.00,0.9099
3017.00,0.9213
3016.00,0.9330
3015.00,0.9449
3014.00,0.9570
3013.00,0.9695
3012.00,0.9825
3011.00,0.9963
3010.00,1.0109
3009.00,1.0264
3008.00,1.0426
3007.00,1.0594
3006.00,1.0769
3005.00,1.0953
3004.00,1.1144
3003.00,1.1344
3002.00,1.1551
3001.00,1.1766
3000.00,1.1988
2999.00,1.2221
2998.00,1.2467
2997.00,1.2732
2996.00,1.3021
2995.00,1.3338
2994.00,1.3686
2993.00,1.4066
2992.00,1.4481
2991.00,1.4937
2990.00,1.5444
2989.00,1.6007
2988.00,1.6627
2987.00,1.7306
2986.00,1.8047
2985.00,1.8860
2984.00,1.9761
2983.00,2.0770
2982.00,2.1896
2981.00,2.3134
2980.00,2.4479
2979.00,2.5943
2978.00,2.7548
2977.00,2.9282
2976.00,3.1128
2975.00,3.3118
2974.00,3.5061
2973.00,3.6161
2972.00,3.6359
2971.00,3.6467
2970.00,3.6914
2969.00,3.7355
2968.00,3.7711
2967.00,3.8274
2966.00,3.8934
2965.00,3.9404
2964.00,3.9699
2963.00,4.0098
2962.00,4.1203
2961.00,4.3801
2960.00,4.5275
2959.00,4.4461
2958.00,4.3426
2957.00,4.3721
2956.00,4.5289
2955.00,4.6592
2954.00,4.4866
2953.00,4.3026
2952.00,4.3361
2951.00,4.5807
2950.00,4.4823
2949.00,4.2557
2948.00,4.0903
2947.00,4.0763
2946.00,4.1630
2945.00,4.4604
2944.00,4.5843
2943.00,4.3982
2942.00,4.3792
2941.00,4.7657
2940.00,5.0463
2939.00,5.1060
2938.00,5.1587
2937.00,5.4643
2936.00,4.8450
2935.00,4.4442
2934.00,4.3124
2933.00,4.3078
2932.00,4.2770
2931.00,4.1690
2930.00,4.0777
2929.00,4.0742
2928.00,4.1847
2927.00,4.4445
2926.00,4.5173
2925.00,4.3185
2924.00,4.1527
2923.00,4.1642
2922.00,4.3636
2921.00,4.4572
2920.00,4.2315
2919.00,4.0919
2918.00,4.1433
2917.00,4.5546
2916.00,4.5500
2915.00,4.0746
2914.00,3.8166
2913.00,3.7051
2912.00,3.6897
2911.00,3.7301
2910.00,3.8472
2909.00,4.1002
2908.00,4.5675
2907.00,4.9296
2906.00,4.8422
2905.00,4.3923
2904.00,4.2444
2903.00,4.1731
2902.00,4.1887
2901.00,4.1983
2900.00,4.2051
2899.00,4.3736
2898.00,4.5490
2897.00,4.4207
2896.00,4.2051
2895.00,4.0963
2894.00,4.1842
2893.00,4.3891
2892.00,4.1981
2891.00,3.9697
2890.00,3.8591
2889.00,3.9232
2888.00,4.0502
2887.00,4.2074
2886.00,4.2877
2885.00,4.1431
2884.00,4.0017
2883.00,3.9713
2882.00,3.9775
2881.00,3.9284
2880.00,3.8709
2879.00,3.8813
2878.00,4.0041
2877.00,4.0851
2876.00,3.9929
2875.00,3.9017
2874.00,3.8976
2873.00,3.9670
2872.00,4.0052
2871.00,3.9987
2870.00,3.9748
2869.00,4.0227
2868.00,4.3062
2867.00,4.5639
2866.00,4.5880
2865.00,4.5140
2864.00,4.2366
2863.00,3.9943
2862.00,3.8163
2861.00,3.8120
2860.00,3.8266
2859.00,3.8203
2858.00,3.8308
2857.00,3.8319
2856.00,3.8513
2855.00,3.8778
2854.00,3.9523
2853.00,4.1149
2852.00,4.3322
2851.00,4.4629
2850.00,4.3628
2849.00,4.2515
2848.00,4.1877
2847.00,4.2429
2846.00,4.4326
2845.00,4.5782
2844.00,4.4174
2843.00,4.1861
2842.00,4.0262
2841.00,3.9350
2840.00,3.8505
2839.00,3.6943
2838.00,3.4729
2837.00,3.2377
2836.00,3.0226
2835.00,2.8300
2834.00,2.6534
2833.00,2.4894
2832.00,2.3390
2831.00,2.2051
2830.00,2.0870
2829.00,1.9814
2828.00,1.8864
2827.00,1.8014
2826.00,1.7260
2825.00,1.6587
2824.00,1.5978
2823.00,1.5420
2822.00,1.4905
2821.00,1.4430
2820.00,1.3994
2819.00,1.3592
2818.00,1.3221
2817.00,1.2877
2816.00,1.2557
2815.00,1.2257
2814.00,1.1974
2813.00,1.1706
2812.00,1.1453
2811.00,1.1213
2810.00,1.0984
2809.00,1.0766
2808.00,1.0555
2807.00,1.0354
2806.00,1.0161
2805.00,0.9977
2804.00,0.9801
2803.00,0.9633
2802.00,0.9472
2801.00,0.9317
2800.00,0.9169
2799.00,0.9028
2798.00,0.8893
2797.00,0.8764
2796.00,0.8639
2795.00,0.8519
2794.00,0.8403
2793.00,0.8291
2792.00,0.8182
2791.00,0.8077
2790.00,0.7975
2789.00,0.7876
2788.00,0.7778
2787.00,0.7682
2786.00,0.7589
2785.00,0.7498
2784.00,0.7409
2783.00,0.7322
2782.00,0.7238
2781.00,0.7156
2780.00,0.7078
2779.00,0.7002
2778.00,0.6930
2777.00,0.6863
2776.00,0.6799
2775.00,0.6739
2774.00,0.6683
2773.00,0.6630
2772.00,0.6580
2771.00,0.6534
2770.00,0.6493
2769.00,0.6456
2768.00,0.6423
2767.00,0.6393
2766.00,0.6367
2765.00,0.6343
2764.00,0.6323
2763.00,0.6306
2762.00,0.6291
2761.00,0.6277
2760.00,0.6264
2759.00,0.6253
2758.00,0.6242
2757.00,0.6232
2756.00,0.6222
2755.00,0.6213
2754.00,0.6206
2753.00,0.6200
2752.00,0.6197
2751.00,0.6196
2750.00,0.6197
2749.00,0.6201
2748.00,0.6206
2747.00,0.6212
2746.00,0.6220
2745.00,0.6230
2744.00,0.6243
2743.00,0.6260
2742.00,0.6279
2741.00,0.6303
2740.00,0.6331
2739.00,0.6363
2738.00,0.6399
2737.00,0.6439
2736.00,0.6483
2735.00,0.6529
2734.00,0.6577
2733.00,0.6624
2732.00,0.6667
2731.00,0.6702
2730.00,0.6727
2729.00,0.6739
2728.00,0.6740
2727.00,0.6732
2726.00,0.6718
2725.00,0.6700
2724.00,0.6679
2723.00,0.6654
2722.00,0.6627
2721.00,0.6597
2720.00,0.6565
2719.00,0.6532
2718.00,0.6497
2717.00,0.6461
2716.00,0.6423
2715.00,0.6383
2714.00,0.6343
2713.00,0.6303
2712.00,0.6264
2711.00,0.6229
2710.00,0.6197
2709.00,0.6169
2708.00,0.6145
2707.00,0.6125
2706.00,0.6107
2705.00,0.6093
2704.00,0.6080
2703.00,0.6071
2702.00,0.6065
2701.00,0.6061
2700.00,0.6061
2699.00,0.6062
2698.00,0.6066
2697.00,0.6071
2696.00,0.6079
2695.00,0.6088
2694.00,0.6099
2693.00,0.6110
2692.00,0.6123
2691.00,0.6135
2690.00,0.6148
2689.00,0.6161
2688.00,0.6173
2687.00,0.6183
2686.00,0.6193
2685.00,0.6201
2684.00,0.6207
2683.00,0.6213
2682.00,0.6217
2681.00,0.6220
2680.00,0.6221
2679.00,0.6222
2678.00,0.6222
2677.00,0.6222
2676.00,0.6223
2675.00,0.6224
2674.00,0.6224
2673.00,0.6225
2672.00,0.6223
2671.00,0.6220
2670.00,0.6213
2669.00,0.6204
2668.00,0.6192
2667.00,0.6176
2666.00,0.6157
2665.00,0.6135
2664.00,0.6113
2663.00,0.6090
2662.00,0.6067
2661.00,0.6044
2660.00,0.6021
2659.00,0.5998
2658.00,0.5975
2657.00,0.5954
2656.00,0.5933
2655.00,0.5914
2654.00,0.5895
2653.00,0.5877
2652.00,0.5860
2651.00,0.5843
2650.00,0.5827
2649.00,0.5811
2648.00,0.5796
2647.00,0.5780
2646.00,0.5766
2645.00,0.5752
2644.00,0.5738
2643.00,0.5726
2642.00,0.5713
2641.00,0.5701
2640.00,0.5689
2639.00,0.5678
2638.00,0.5667
2637.00,0.5657
2636.00,0.5648
2635.00,0.5639
2634.00,0.5629
2633.00,0.5619
2632.00,0.5610
2631.00,0.5600
2630.00,0.5591
2629.00,0.5582
2628.00,0.5572
2627.00,0.5563
2626.00,0.5553
2625.00,0.5543
2624.00,0.5533
2623.00,0.5523
2622.00,0.5513
2621.00,0.5503
2620.00,0.5492
2619.00,0.5480
2618.00,0.5470
2617.00,0.5460
2616.00,0.5450
2615.00,0.5440
2614.00,0.5430
2613.00,0.5419
2612.00,0.5408
2611.00,0.5397
2610.00,0.5388
2609.00,0.5379
2608.00,0.5370
2607.00,0.5361
2606.00,0.5352
2605.00,0.5343
2604.00,0.5333
2603.00,0.5323
2602.00,0.5312
2601.00,0.5301
2600.00,0.5288
2599.00,0.5274
2598.00,0.5260
2597.00,0.5245
2596.00,0.5229
2595.00,0.5213
2594.00,0.5197
2593.00,0.5181
2592.00,0.5165
2591.00,0.5149
2590.00,0.5132
2589.00,0.5116
2588.00,0.5100
2587.00,0.5084
2586.00,0.5068
2585.00,0.5052
2584.00,0.5036
2583.00,0.5020
2582.00,0.5003
2581.00,0.4987
2580.00,0.4970
2579.00,0.4953
2578.00,0.4936
2577.00,0.4919
2576.00,0.4903
2575.00,0.4887
2574.00,0.4873
2573.00,0.4859
2572.00,0.4845
2571.00,0.4832
2570.00,0.4820
2569.00,0.4807
2568.00,0.4795
2567.00,0.4782
2566.00,0.4769
2565.00,0.4756
2564.00,0.4742
2563.00,0.4729
2562.00,0.4716
2561.00,0.4703
2560.00,0.4691
2559.00,0.4678
2558.00,0.4666
2557.00,0.4653
2556.00,0.4641
2555.00,0.4628
2554.00,0.4616
2553.00,0.4604
2552.00,0.4592
2551.00,0.4581
2550.00,0.4570
2549.00,0.4560
2548.00,0.4551
2547.00,0.4543
2546.00,0.4535
2545.00,0.4527
2544.00,0.4519
2543.00,0.4510
2542.00,0.4502
2541.00,0.4494
2540.00,0.4486
2539.00,0.4479
2538.00,0.4471
2537.00,0.4464
2536.00,0.4457
2535.00,0.4450
2534.00,0.4444
2533.00,0.4437
2532.00,0.4430
2531.00,0.4421
2530.00,0.4412
2529.00,0.4403
2528.00,0.4392
2527.00,0.4382
2526.00,0.4371
2525.00,0.4361
2524.00,0.4350
2523.00,0.4339
2522.00,0.4327
2521.00,0.4316
2520.00,0.4306
2519.00,0.4297
2518.00,0.4287
2517.00,0.4278
2516.00,0.4269
2515.00,0.4259
2514.00,0.4251
2513.00,0.4243
2512.00,0.4235
2511.00,0.4227
2510.00,0.4220
2509.00,0.4214
2508.00,0.4208
2507.00,0.4202
2506.00,0.4197
2505.00,0.4192
2504.00,0.4188
2503.00,0.4185
2502.00,0.4182
2501.00,0.4180
2500.00,0.4178
2499.00,0.4175
2498.00,0.4173
2497.00,0.4170
2496.00,0.4167
2495.00,0.4164
2494.00,0.4161
2493.00,0.4157
2492.00,0.4152
2491.00,0.4147
2490.00,0.4142
2489.00,0.4136
2488.00,0.4130
2487.00,0.4124
2486.00,0.4118
2485.00,0.4112
2484.00,0.4106
2483.00,0.4100
2482.00,0.4093
2481.00,0.4087
2480.00,0.4081
2479.00,0.4076
2478.00,0.4071
2477.00,0.4066
2476.00,0.4061
2475.00,0.4056
2474.00,0.4051
2473.00,0.4047
2472.00,0.4044
2471.00,0.4040
2470.00,0.4037
2469.00,0.4034
2468.00,0.4031
2467.00,0.4027
2466.00,0.4024
2465.00,0.4021
2464.00,0.4018
2463.00,0.4016
2462.00,0.4013
2461.00,0.4010
2460.00,0.4007
2459.00,0.4005
2458.00,0.4002
2457.00,0.4000
2456.00,0.3998
2455.00,0.3997
2454.00,0.3995
2453.00,0.3994
2452.00,0.3992
2451.00,0.3990
2450.00,0.3988
2449.00,0.3987
2448.00,0.3987
2447.00,0.3987
2446.00,0.3987
2445.00,0.3987
2444.00,0.3987
2443.00,0.3986
2442.00,0.3986
2441.00,0.3986
2440.00,0.3986
2439.00,0.3985
2438.00,0.3985
2437.00,0.3985
2436.00,0.3986
2435.00,0.3986
2434.00,0.3986
2433.00,0.3987
2432.00,0.3988
2431.00,0.3989
2430.00,0.3990
2429.00,0.3990
2428.00,0.3990
2427.00,0.3990
2426.00,0.3991
2425.00,0.3991
2424.00,0.3992
2423.00,0.3992
2422.00,0.3993
2421.00,0.3995
2420.00,0.3996
2419.00,0.3997
2418.00,0.3998
2417.00,0.3998
2416.00,0.3998
2415.00,0.3998
2414.00,0.3999
2413.00,0.4000
2412.00,0.4001
2411.00,0.4002
2410.00,0.4003
2409.00,0.4003
2408.00,0.4003
2407.00,0.4003
2406.00,0.4003
2405.00,0.4002
2404.00,0.4002
2403.00,0.4002
2402.00,0.4001
2401.00,0.4001
2400.00,0.4001
2399.00,0.4001
2398.00,0.4000
2397.00,0.4000
2396.00,0.4000
2395.00,0.3999
2394.00,0.3998
2393.00,0.3997
2392.00,0.3997
2391.00,0.3998
2390.00,0.3998
2389.00,0.3999
2388.00,0.3999
2387.00,0.3999
2386.00,0.4000
2385.00,0.4000
2384.00,0.4001
2383.00,0.4002
2382.00,0.4003
2381.00,0.4004
2380.00,0.4006
2379.00,0.4008
2378.00,0.4011
2377.00,0.4013
2376.00,0.4015
2375.00,0.4016
2374.00,0.4016
2373.00,0.4015
2372.00,0.4013
2371.00,0.4011
2370.00,0.4007
2369.00,0.4004
2368.00,0.4001
2367.00,0.3998
2366.00,0.3996
2365.00,0.3995
2364.00,0.3995
2363.00,0.3996
2362.00,0.3997
2361.00,0.3998
2360.00,0.3999
2359.00,0.4000
2358.00,0.4000
2357.00,0.4000
2356.00,0.3999
2355.00,0.3999
2354.00,0.3999
2353.00,0.3998
2352.00,0.3997
2351.00,0.3995
2350.00,0.3993
2349.00,0.3991
2348.00,0.3990
2347.00,0.3989
2346.00,0.3988
2345.00,0.3986
2344.00,0.3983
2343.00,0.3981
2342.00,0.3980
2341.00,0.3982
2340.00,0.3983
2339.00,0.3983
2338.00,0.3981
2337.00,0.3980
2336.00,0.3979
2335.00,0.3977
2334.00,0.3975
2333.00,0.3972
2332.00,0.3969
2331.00,0.3967
2330.00,0.3965
2329.00,0.3963
2328.00,0.3961
2327.00,0.3958
2326.00,0.3954
2325.00,0.3949
2324.00,0.3945
2323.00,0.3942
2322.00,0.3939
2321.00,0.3937
2320.00,0.3936
2319.00,0.3934
2318.00,0.3931
2317.00,0.3927
2316.00,0.3923
2315.00,0.3918
2314.00,0.3913
2313.00,0.3909
2312.00,0.3906
2311.00,0.3904
2310.00,0.3901
2309.00,0.3898
2308.00,0.3894
2307.00,0.3890
2306.00,0.3886
2305.00,0.3882
2304.00,0.3878
2303.00,0.3874
2302.00,0.3870
2301.00,0.3866
2300.00,0.3863
2299.00,0.3859
2298.00,0.3856
2297.00,0.3852
2296.00,0.3849
2295.00,0.3845
2294.00,0.3841
2293.00,0.3837
2292.00,0.3832
2291.00,0.3828
2290.00,0.3824
2289.00,0.3820
2288.00,0.3816
2287.00,0.3812
2286.00,0.3807
2285.00,0.3803
2284.00,0.3798
2283.00,0.3793
2282.00,0.3789
2281.00,0.3785
2280.00,0.3781
2279.00,0.3776
2278.00,0.3772
2277.00,0.3768
2276.00,0.3764
2275.00,0.3760
2274.00,0.3757
2273.00,0.3755
2272.00,0.3753
2271.00,0.3750
2270.00,0.3748
2269.00,0.3746
2268.00,0.3745
2267.00,0.3744
2266.00,0.3743
2265.00,0.3741
2264.00,0.3739
2263.00,0.3737
2262.00,0.3734
2261.00,0.3731
2260.00,0.3729
2259.00,0.3726
2258.00,0.3723
2257.00,0.3720
2256.00,0.3716
2255.00,0.3713
2254.00,0.3709
2253.00,0.3706
2252.00,0.3704
2251.00,0.3702
2250.00,0.3699
2249.00,0.3696
2248.00,0.3693
2247.00,0.3690
2246.00,0.3688
2245.00,0.3686
2244.00,0.3684
2243.00,0.3682
2242.00,0.3679
2241.00,0.3677
2240.00,0.3675
2239.00,0.3672
2238.00,0.3670
2237.00,0.3668
2236.00,0.3666
2235.00,0.3664
2234.00,0.3661
2233.00,0.3659
2232.00,0.3658
2231.00,0.3656
2230.00,0.3654
2229.00,0.3653
2228.00,0.3651
2227.00,0.3649
2226.00,0.3647
2225.00,0.3645
2224.00,0.3644
2223.00,0.3642
2222.00,0.3641
2221.00,0.3640
2220.00,0.3639
2219.00,0.3638
2218.00,0.3637
2217.00,0.3636
2216.00,0.3635
2215.00,0.3634
2214.00,0.3633
2213.00,0.3633
2212.00,0.3633
2211.00,0.3633
2210.00,0.3632
2209.00,0.3631
2208.00,0.3630
2207.00,0.3630
2206.00,0.3630
2205.00,0.3631
2204.00,0.3631
2203.00,0.3630
2202.00,0.3630
2201.00,0.3629
2200.00,0.3629
2199.00,0.3629
2198.00,0.3629
2197.00,0.3629
2196.00,0.3630
2195.00,0.3630
2194.00,0.3630
2193.00,0.3630
2192.00,0.3630
2191.00,0.3630
2190.00,0.3630
2189.00,0.3630
2188.00,0.3630
2187.00,0.3630
2186.00,0.3630
2185.00,0.3630
2184.00,0.3630
2183.00,0.3630
2182.00,0.3630
2181.00,0.3629
2180.00,0.3628
2179.00,0.3627
2178.00,0.3626
2177.00,0.3625
2176.00,0.3624
2175.00,0.3624
2174.00,0.3623
2173.00,0.3623
2172.00,0.3622
2171.00,0.3621
2170.00,0.3620
2169.00,0.3619
2168.00,0.3618
2167.00,0.3617
2166.00,0.3616
2165.00,0.3615
2164.00,0.3614
2163.00,0.3612
2162.00,0.3611
2161.00,0.3609
2160.00,0.3608
2159.00,0.3607
2158.00,0.3605
2157.00,0.3603
2156.00,0.3602
2155.00,0.3601
2154.00,0.3600
2153.00,0.3599
2152.00,0.3597
2151.00,0.3595
2150.00,0.3593
2149.00,0.3590
2148.00,0.3587
2147.00,0.3584
2146.00,0.3580
2145.00,0.3576
2144.00,0.3571
2143.00,0.3565
2142.00,0.3559
2141.00,0.3553
2140.00,0.3548
2139.00,0.3543
2138.00,0.3538
2137.00,0.3534
2136.00,0.3531
2135.00,0.3527
2134.00,0.3523
2133.00,0.3519
2132.00,0.3516
2131.00,0.3513
2130.00,0.3510
2129.00,0.3508
2128.00,0.3506
2127.00,0.3504
2126.00,0.3501
2125.00,0.3499
2124.00,0.3497
2123.00,0.3496
2122.00,0.3494
2121.00,0.3493
2120.00,0.3492
2119.00,0.3491
2118.00,0.3490
2117.00,0.3488
2116.00,0.3487
2115.00,0.3486
2114.00,0.3485
2113.00,0.3484
2112.00,0.3484
2111.00,0.3484
2110.00,0.3483
2109.00,0.3482
2108.00,0.3481
2107.00,0.3480
2106.00,0.3479
2105.00,0.3478
2104.00,0.3478
2103.00,0.3477
2102.00,0.3475
2101.00,0.3474
2100.00,0.3472
2099.00,0.3471
2098.00,0.3470
2097.00,0.3469
2096.00,0.3469
2095.00,0.3467
2094.00,0.3466
2093.00,0.3465
2092.00,0.3465
2091.00,0.3464
2090.00,0.3462
2089.00,0.3461
2088.00,0.3461
2087.00,0.3460
2086.00,0.3459
2085.00,0.3458
2084.00,0.3457
2083.00,0.3456
2082.00,0.3456
2081.00,0.3456
2080.00,0.3457
2079.00,0.3457
2078.00,0.3457
2077.00,0.3457
2076.00,0.3457
2075.00,0.3458
2074.00,0.3458
2073.00,0.3458
2072.00,0.3459
2071.00,0.3459
2070.00,0.3460
2069.00,0.3461
2068.00,0.3462
2067.00,0.3463
2066.00,0.3463
2065.00,0.3464
2064.00,0.3466
2063.00,0.3467
2062.00,0.3468
2061.00,0.3469
2060.00,0.3469
2059.00,0.3469
2058.00,0.3469
2057.00,0.3470
2056.00,0.3471
2055.00,0.3471
2054.00,0.3472
2053.00,0.3473
2052.00,0.3475
2051.00,0.3477
2050.00,0.3478
2049.00,0.3480
2048.00,0.3482
2047.00,0.3484
2046.00,0.3486
2045.00,0.3489
2044.00,0.3491
2043.00,0.3493
2042.00,0.3494
2041.00,0.3497
2040.00,0.3499
2039.00,0.3501
2038.00,0.3503
2037.00,0.3504
2036.00,0.3504
2035.00,0.3505
2034.00,0.3506
2033.00,0.3507
2032.00,0.3506
2031.00,0.3506
2030.00,0.3505
2029.00,0.3504
2028.00,0.3504
2027.00,0.3503
2026.00,0.3502
2025.00,0.3500
2024.00,0.3498
2023.00,0.3496
2022.00,0.3492
2021.00,0.3488
2020.00,0.3483
2019.00,0.3476
2018.00,0.3469
2017.00,0.3462
2016.00,0.3456
2015.00,0.3449
2014.00,0.3442
2013.00,0.3434
2012.00,0.3425
2011.00,0.3418
2010.00,0.3411
2009.00,0.3405
2008.00,0.3400
2007.00,0.3395
2006.00,0.3391
2005.00,0.3387
2004.00,0.3384
2003.00,0.3381
2002.00,0.3379
2001.00,0.3377
2000.00,0.3375
1999.00,0.3373
1998.00,0.3371
1997.00,0.3370
1996.00,0.3369
1995.00,0.3368
1994.00,0.3366
1993.00,0.3365
1992.00,0.3366
1991.00,0.3367
1990.00,0.3368
1989.00,0.3368
1988.00,0.3366
1987.00,0.3363
1986.00,0.3361
1985.00,0.3360
1984.00,0.3358
1983.00,0.3355
1982.00,0.3353
1981.00,0.3351
1980.00,0.3350
1979.00,0.3349
1978.00,0.3348
1977.00,0.3348
1976.00,0.3347
1975.00,0.3346
1974.00,0.3344
1973.00,0.3343
1972.00,0.3343
1971.00,0.3343
1970.00,0.3343
1969.00,0.3343
1968.00,0.3343
1967.00,0.3344
1966.00,0.3346
1965.00,0.3348
1964.00,0.3349
1963.00,0.3349
1962.00,0.3348
1961.00,0.3347
1960.00,0.3348
1959.00,0.3349
1958.00,0.3349
1957.00,0.3350
1956.00,0.3351
1955.00,0.3352
1954.00,0.3354
1953.00,0.3355
1952.00,0.3356
1951.00,0.3356
1950.00,0.3355
1949.00,0.3355
1948.00,0.3355
1947.00,0.3355
1946.00,0.3356
1945.00,0.3357
1944.00,0.3360
1943.00,0.3364
1942.00,0.3369
1941.00,0.3375
1940.00,0.3380
1939.00,0.3382
1938.00,0.3382
1937.00,0.3382
1936.00,0.3382
1935.00,0.3381
1934.00,0.3381
1933.00,0.3381
1932.00,0.3382
1931.00,0.3383
1930.00,0.3383
1929.00,0.3384
1928.00,0.3385
1927.00,0.3385
1926.00,0.3384
1925.00,0.3384
1924.00,0.3384
1923.00,0.3387
1922.00,0.3391
1921.00,0.3396
1920.00,0.3400
1919.00,0.3402
1918.00,0.3403
1917.00,0.3404
1916.00,0.3407
1915.00,0.3408
1914.00,0.3408
1913.00,0.3408
1912.00,0.3407
1911.00,0.3407
1910.00,0.3407
1909.00,0.3410
1908.00,0.3412
1907.00,0.3414
1906.00,0.3415
1905.00,0.3414
1904.00,0.3412
1903.00,0.3410
1902.00,0.3409
1901.00,0.3408
1900.00,0.3409
1899.00,0.3408
1898.00,0.3408
1897.00,0.3408
1896.00,0.3408
1895.00,0.3409
1894.00,0.3411
1893.00,0.3413
1892.00,0.3414
1891.00,0.3414
1890.00,0.3415
1889.00,0.3417
1888.00,0.3420
1887.00,0.3422
1886.00,0.3422
1885.00,0.3421
1884.00,0.3420
1883.00,0.3419
1882.00,0.3419
1881.00,0.3418
1880.00,0.3416
1879.00,0.3414
1878.00,0.3413
1877.00,0.3411
1876.00,0.3409
1875.00,0.3406
1874.00,0.3403
1873.00,0.3399
1872.00,0.3396
1871.00,0.3393
1870.00,0.3391
1869.00,0.3390
1868.00,0.3391
1867.00,0.3391
1866.00,0.3390
1865.00,0.3386
1864.00,0.3380
1863.00,0.3373
1862.00,0.3367
1861.00,0.3362
1860.00,0.3359
1859.00,0.3357
1858.00,0.3354
1857.00,0.3351
1856.00,0.3348
1855.00,0.3345
1854.00,0.3341
1853.00,0.3338
1852.00,0.3336
1851.00,0.3334
1850.00,0.3333
1849.00,0.3332
1848.00,0.3332
1847.00,0.3332
1846.00,0.3333
1845.00,0.3334
1844.00,0.3335
1843.00,0.3336
1842.00,0.3337
1841.00,0.3336
1840.00,0.3333
1839.00,0.3328
1838.00,0.3322
1837.00,0.3319
1836.00,0.3318
1835.00,0.3317
1834.00,0.3316
1833.00,0.3314
1832.00,0.3313
1831.00,0.3313
1830.00,0.3313
1829.00,0.3313
1828.00,0.3314
1827.00,0.3315
1826.00,0.3314
1825.00,0.3315
1824.00,0.3316
1823.00,0.3316
1822.00,0.3316
1821.00,0.3314
1820.00,0.3312
1819.00,0.3310
1818.00,0.3310
1817.00,0.3311
1816.00,0.3314
1815.00,0.3316
1814.00,0.3318
1813.00,0.3320
1812.00,0.3323
1811.00,0.3328
1810.00,0.3334
1809.00,0.3340
1808.00,0.3347
1807.00,0.3356
1806.00,0.3367
1805.00,0.3381
1804.00,0.3395
1803.00,0.3410
1802.00,0.3426
1801.00,0.3441
1800.00,0.3455
1799.00,0.3464
1798.00,0.3467
1797.00,0.3468
1796.00,0.3470
1795.00,0.3472
1794.00,0.3475
1793.00,0.3477
1792.00,0.3478
1791.00,0.3480
1790.00,0.3481
1789.00,0.3481
1788.00,0.3477
1787.00,0.3471
1786.00,0.3464
1785.00,0.3461
1784.00,0.3461
1783.00,0.3463
1782.00,0.3464
1781.00,0.3464
1780.00,0.3465
1779.00,0.3466
1778.00,0.3467
1777.00,0.3467
1776.00,0.3466
1775.00,0.3465
1774.00,0.3465
1773.00,0.3469
1772.00,0.3475
1771.00,0.3482
1770.00,0.3485
1769.00,0.3488
1768.00,0.3493
1767.00,0.3498
1766.00,0.3504
1765.00,0.3507
1764.00,0.3509
1763.00,0.3510
1762.00,0.3515
1761.00,0.3523
1760.00,0.3534
1759.00,0.3544
1758.00,0.3553
1757.00,0.3565
1756.00,0.3579
1755.00,0.3594
1754.00,0.3609
1753.00,0.3629
1752.00,0.3657
1751.00,0.3696
1750.00,0.3746
1749.00,0.3804
1748.00,0.3865
1747.00,0.3927
1746.00,0.3991
1745.00,0.4056
1744.00,0.4121
1743.00,0.4178
1742.00,0.4221
1741.00,0.4245
1740.00,0.4248
1739.00,0.4229
1738.00,0.4196
1737.00,0.4156
1736.00,0.4110
1735.00,0.4053
1734.00,0.3995
1733.00,0.3949
1732.00,0.3918
1731.00,0.3891
1730.00,0.3862
1729.00,0.3832
1728.00,0.3807
1727.00,0.3789
1726.00,0.3779
1725.00,0.3774
1724.00,0.3774
1723.00,0.3777
1722.00,0.3783
1721.00,0.3790
1720.00,0.3797
1719.00,0.3805
1718.00,0.3819
1717.00,0.3841
1716.00,0.3870
1715.00,0.3896
1714.00,0.3913
1713.00,0.3921
1712.00,0.3926
1711.00,0.3932
1710.00,0.3942
1709.00,0.3954
1708.00,0.3966
1707.00,0.3977
1706.00,0.3985
1705.00,0.3990
1704.00,0.3991
1703.00,0.3988
1702.00,0.3978
1701.00,0.3961
1700.00,0.3941
1699.00,0.3920
1698.00,0.3903
1697.00,0.3893
1696.00,0.3884
1695.00,0.3875
1694.00,0.3866
1693.00,0.3854
1692.00,0.3838
1691.00,0.3819
1690.00,0.3805
1689.00,0.3799
1688.00,0.3798
1687.00,0.3797
1686.00,0.3797
1685.00,0.3800
1684.00,0.3807
1683.00,0.3813
1682.00,0.3814
1681.00,0.3812
1680.00,0.3807
1679.00,0.3804
1678.00,0.3803
1677.00,0.3805
1676.00,0.3809
1675.00,0.3814
1674.00,0.3820
1673.00,0.3828
1672.00,0.3835
1671.00,0.3840
1670.00,0.3845
1669.00,0.3851
1668.00,0.3860
1667.00,0.3867
1666.00,0.3874
1665.00,0.3882
1664.00,0.3890
1663.00,0.3900
1662.00,0.3913
1661.00,0.3930
1660.00,0.3950
1659.00,0.3970
1658.00,0.3990
1657.00,0.4011
1656.00,0.4032
1655.00,0.4055
1654.00,0.4089
1653.00,0.4136
1652.00,0.4180
1651.00,0.4207
1650.00,0.4222
1649.00,0.4230
1648.00,0.4234
1647.00,0.4244
1646.00,0.4269
1645.00,0.4302
1644.00,0.4333
1643.00,0.4357
1642.00,0.4379
1641.00,0.4402
1640.00,0.4426
1639.00,0.4451
1638.00,0.4477
1637.00,0.4510
1636.00,0.4551
1635.00,0.4594
1634.00,0.4632
1633.00,0.4665
1632.00,0.4696
1631.00,0.4727
1630.00,0.4759
1629.00,0.4798
1628.00,0.4841
1627.00,0.4886
1626.00,0.4933
1625.00,0.4986
1624.00,0.5048
1623.00,0.5115
1622.00,0.5188
1621.00,0.5266
1620.00,0.5348
1619.00,0.5435
1618.00,0.5539
1617.00,0.5672
1616.00,0.5827
1615.00,0.5982
1614.00,0.6134
1613.00,0.6294
1612.00,0.6473
1611.00,0.6667
1610.00,0.6867
1609.00,0.7062
1608.00,0.7236
1607.00,0.7374
1606.00,0.7477
1605.00,0.7565
1604.00,0.7657
1603.00,0.7761
1602.00,0.7887
1601.00,0.8049
1600.00,0.8251
1599.00,0.8486
1598.00,0.8760
1597.00,0.9095
1596.00,0.9510
1595.00,1.0011
1594.00,1.0610
1593.00,1.1340
1592.00,1.2236
1591.00,1.3313
1590.00,1.4599
1589.00,1.6168
1588.00,1.8111
1587.00,2.0436
1586.00,2.3069
1585.00,2.6197
1584.00,3.0746
1583.00,3.7948
1582.00,3.9067
1581.00,3.9412
1580.00,3.9384
1579.00,3.8410
1578.00,3.9603
1577.00,3.7024
1576.00,3.5742
1575.00,3.1016
1574.00,2.6733
1573.00,2.3962
1572.00,2.1803
1571.00,1.9899
1570.00,1.8371
1569.00,1.7456
1568.00,1.7166
1567.00,1.7383
1566.00,1.8053
1565.00,1.9247
1564.00,2.1008
1563.00,2.3119
1562.00,2.5131
1561.00,2.6953
1560.00,2.8085
1559.00,2.5911
1558.00,2.2587
1557.00,2.0080
1556.00,1.8005
1555.00,1.6065
1554.00,1.4382
1553.00,1.3075
1552.00,1.2085
1551.00,1.1282
1550.00,1.0608
1549.00,1.0078
1548.00,0.9686
1547.00,0.9386
1546.00,0.9142
1545.00,0.8952
1544.00,0.8815
1543.00,0.8713
1542.00,0.8625
1541.00,0.8543
1540.00,0.8463
1539.00,0.8384
1538.00,0.8311
1537.00,0.8248
1536.00,0.8188
1535.00,0.8120
1534.00,0.8048
1533.00,0.7997
1532.00,0.7978
1531.00,0.7985
1530.00,0.8007
1529.00,0.8044
1528.00,0.8083
1527.00,0.8105
1526.00,0.8104
1525.00,0.8089
1524.00,0.8075
1523.00,0.8070
1522.00,0.8096
1521.00,0.8169
1520.00,0.8275
1519.00,0.8381
1518.00,0.8470
1517.00,0.8537
1516.00,0.8559
1515.00,0.8510
1514.00,0.8386
1513.00,0.8200
1512.00,0.7979
1511.00,0.7756
1510.00,0.7558
1509.00,0.7397
1508.00,0.7275
1507.00,0.7188
1506.00,0.7145
1505.00,0.7136
1504.00,0.7141
1503.00,0.7154
1502.00,0.7176
1501.00,0.7208
1500.00,0.7253
1499.00,0.7305
1498.00,0.7366
1497.00,0.7451
1496.00,0.7564
1495.00,0.7687
1494.00,0.7811
1493.00,0.7941
1492.00,0.8087
1491.00,0.8250
1490.00,0.8427
1489.00,0.8615
1488.00,0.8810
1487.00,0.9008
1486.00,0.9221
1485.00,0.9466
1484.00,0.9751
1483.00,1.0077
1482.00,1.0461
1481.00,1.0921
1480.00,1.1455
1479.00,1.2061
1478.00,1.2770
1477.00,1.3634
1476.00,1.4672
1475.00,1.5887
1474.00,1.7353
1473.00,1.9255
1472.00,2.1738
1471.00,2.4713
1470.00,2.7963
1469.00,3.1659
1468.00,3.6728
1467.00,4.2271
1466.00,4.0236
1465.00,3.7345
1464.00,3.5996
1463.00,3.5938
1462.00,3.7924
1461.00,4.0139
1460.00,3.9004
1459.00,3.9907
1458.00,4.0826
1457.00,4.1558
1456.00,4.2142
1455.00,3.9808
1454.00,3.8340
1453.00,3.8419
1452.00,4.1545
1451.00,4.5872
1450.00,4.0869
1449.00,3.8887
1448.00,3.8079
1447.00,3.7206
1446.00,3.5653
1445.00,3.4468
1444.00,3.3143
1443.00,3.1181
1442.00,2.9442
1441.00,2.8037
1440.00,2.6600
1439.00,2.4956
1438.00,2.3236
1437.00,2.1558
1436.00,2.0006
1435.00,1.8639
1434.00,1.7438
1433.00,1.6323
1432.00,1.5252
1431.00,1.4245
1430.00,1.3348
1429.00,1.2588
1428.00,1.1974
1427.00,1.1493
1426.00,1.1120
1425.00,1.0832
1424.00,1.0622
1423.00,1.0488
1422.00,1.0421
1421.00,1.0413
1420.00,1.0475
1419.00,1.0619
1418.00,1.0838
1417.00,1.1117
1416.00,1.1452
1415.00,1.1835
1414.00,1.2244
1413.00,1.2635
1412.00,1.2952
1411.00,1.3127
1410.00,1.3118
1409.00,1.2932
1408.00,1.2604
1407.00,1.2172
1406.00,1.1672
1405.00,1.1143
1404.00,1.0628
1403.00,1.0160
1402.00,0.9748
1401.00,0.9385
1400.00,0.9069
1399.00,0.8809
1398.00,0.8615
1397.00,0.8479
1396.00,0.8387
1395.00,0.8324
1394.00,0.8288
1393.00,0.8287
1392.00,0.8339
1391.00,0.8468
1390.00,0.8694
1389.00,0.9048
1388.00,0.9566
1387.00,1.0257
1386.00,1.1080
1385.00,1.1986
1384.00,1.2967
1383.00,1.4063
1382.00,1.5319
1381.00,1.6775
1380.00,1.8440
1379.00,2.0160
1378.00,2.1465
1377.00,2.1809
1376.00,2.1133
1375.00,1.9813
1374.00,1.8291
1373.00,1.6906
1372.00,1.5794
1371.00,1.4957
1370.00,1.4370
1369.00,1.4015
1368.00,1.3844
1367.00,1.3741
1366.00,1.3548
1365.00,1.3150
1364.00,1.2551
1363.00,1.1859
1362.00,1.1204
1361.00,1.0659
1360.00,1.0234
1359.00,0.9908
1358.00,0.9660
1357.00,0.9481
1356.00,0.9365
1355.00,0.9301
1354.00,0.9277
1353.00,0.9277
1352.00,0.9292
1351.00,0.9316
1350.00,0.9357
1349.00,0.9434
1348.00,0.9567
1347.00,0.9751
1346.00,0.9949
1345.00,1.0090
1344.00,1.0106
1343.00,0.9976
1342.00,0.9736
1341.00,0.9445
1340.00,0.9149
1339.00,0.8870
1338.00,0.8612
1337.00,0.8373
1336.00,0.8155
1335.00,0.7961
1334.00,0.7792
1333.00,0.7649
1332.00,0.7532
1331.00,0.7443
1330.00,0.7381
1329.00,0.7342
1328.00,0.7325
1327.00,0.7325
1326.00,0.7336
1325.00,0.7354
1324.00,0.7373
1323.00,0.7394
1322.00,0.7416
1321.00,0.7444
1320.00,0.7480
1319.00,0.7523
1318.00,0.7571
1317.00,0.7618
1316.00,0.7664
1315.00,0.7711
1314.00,0.7764
1313.00,0.7825
1312.00,0.7891
1311.00,0.7961
1310.00,0.8031
1309.00,0.8096
1308.00,0.8149
1307.00,0.8182
1306.00,0.8191
1305.00,0.8179
1304.00,0.8156
1303.00,0.8132
1302.00,0.8113
1301.00,0.8105
1300.00,0.8106
1299.00,0.8106
1298.00,0.8097
1297.00,0.8075
1296.00,0.8041
1295.00,0.8002
1294.00,0.7959
1293.00,0.7912
1292.00,0.7856
1291.00,0.7783
1290.00,0.7688
1289.00,0.7573
1288.00,0.7452
1287.00,0.7335
1286.00,0.7232
1285.00,0.7146
1284.00,0.7083
1283.00,0.7049
1282.00,0.7049
1281.00,0.7084
1280.00,0.7142
1279.00,0.7193
1278.00,0.7201
1277.00,0.7141
1276.00,0.7024
1275.00,0.6880
1274.00,0.6743
1273.00,0.6634
1272.00,0.6555
1271.00,0.6502
1270.00,0.6466
1269.00,0.6434
1268.00,0.6402
1267.00,0.6367
1266.00,0.6329
1265.00,0.6294
1264.00,0.6267
1263.00,0.6248
1262.00,0.6236
1261.00,0.6230
1260.00,0.6228
1259.00,0.6233
1258.00,0.6243
1257.00,0.6258
1256.00,0.6277
1255.00,0.6302
1254.00,0.6330
1253.00,0.6358
1252.00,0.6376
1251.00,0.6378
1250.00,0.6361
1249.00,0.6329
1248.00,0.6291
1247.00,0.6255
1246.00,0.6221
1245.00,0.6190
1244.00,0.6165
1243.00,0.6147
1242.00,0.6129
1241.00,0.6102
1240.00,0.6063
1239.00,0.6018
1238.00,0.5982
1237.00,0.5970
1236.00,0.5991
1235.00,0.6044
1234.00,0.6121
1233.00,0.6209
1232.00,0.6297
1231.00,0.6371
1230.00,0.6421
1229.00,0.6435
1228.00,0.6410
1227.00,0.6349
1226.00,0.6263
1225.00,0.6162
1224.00,0.6061
1223.00,0.5968
1222.00,0.5888
1221.00,0.5821
1220.00,0.5765
1219.00,0.5723
1218.00,0.5694
1217.00,0.5677
1216.00,0.5672
1215.00,0.5675
1214.00,0.5682
1213.00,0.5687
1212.00,0.5688
1211.00,0.5682
1210.00,0.5666
1209.00,0.5640
1208.00,0.5606
1207.00,0.5569
1206.00,0.5535
1205.00,0.5510
1204.00,0.5503
1203.00,0.5519
1202.00,0.5560
1201.00,0.5615
1200.00,0.5667
1199.00,0.5695
1198.00,0.5690
1197.00,0.5662
1196.00,0.5633
1195.00,0.5620
1194.00,0.5630
1193.00,0.5660
1192.00,0.5701
1191.00,0.5742
1190.00,0.5765
1189.00,0.5761
1188.00,0.5731
1187.00,0.5687
1186.00,0.5641
1185.00,0.5602
1184.00,0.5571
1183.00,0.5548
1182.00,0.5529
1181.00,0.5513
1180.00,0.5501
1179.00,0.5494
1178.00,0.5491
1177.00,0.5494
1176.00,0.5504
1175.00,0.5524
1174.00,0.5554
1173.00,0.5593
1172.00,0.5634
1171.00,0.5672
1170.00,0.5701
1169.00,0.5718
1168.00,0.5722
1167.00,0.5721
1166.00,0.5716
1165.00,0.5711
1164.00,0.5710
1163.00,0.5715
1162.00,0.5723
1161.00,0.5733
1160.00,0.5741
1159.00,0.5747
1158.00,0.5749
1157.00,0.5748
1156.00,0.5745
1155.00,0.5741
1154.00,0.5738
1153.00,0.5733
1152.00,0.5726
1151.00,0.5715
1150.00,0.5700
1149.00,0.5680
1148.00,0.5659
1147.00,0.5636
1146.00,0.5615
1145.00,0.5594
1144.00,0.5577
1143.00,0.5565
1142.00,0.5560
1141.00,0.5563
1140.00,0.5578
1139.00,0.5609
1138.00,0.5655
1137.00,0.5713
1136.00,0.5780
1135.00,0.5850
1134.00,0.5909
1133.00,0.5940
1132.00,0.5933
1131.00,0.5892
1130.00,0.5834
1129.00,0.5786
1128.00,0.5769
1127.00,0.5792
1126.00,0.5840
1125.00,0.5881
1124.00,0.5885
1123.00,0.5844
1122.00,0.5774
1121.00,0.5701
1120.00,0.5649
1119.00,0.5628
1118.00,0.5641
1117.00,0.5679
1116.00,0.5731
1115.00,0.5776
1114.00,0.5791
1113.00,0.5762
1112.00,0.5691
1111.00,0.5594
1110.00,0.5495
1109.00,0.5411
1108.00,0.5351
1107.00,0.5318
1106.00,0.5314
1105.00,0.5334
1104.00,0.5377
1103.00,0.5441
1102.00,0.5521
1101.00,0.5609
1100.00,0.5685
1099.00,0.5720
1098.00,0.5696
1097.00,0.5619
1096.00,0.5515
1095.00,0.5414
1094.00,0.5334
1093.00,0.5277
1092.00,0.5238
1091.00,0.5210
1090.00,0.5190
1089.00,0.5178
1088.00,0.5175
1087.00,0.5181
1086.00,0.5198
1085.00,0.5225
1084.00,0.5266
1083.00,0.5319
1082.00,0.5382
1081.00,0.5450
1080.00,0.5517
1079.00,0.5577
1078.00,0.5620
1077.00,0.5637
1076.00,0.5627
1075.00,0.5591
1074.00,0.5535
1073.00,0.5467
1072.00,0.5397
1071.00,0.5332
1070.00,0.5275
1069.00,0.5226
1068.00,0.5185
1067.00,0.5150
1066.00,0.5121
1065.00,0.5095
1064.00,0.5073
1063.00,0.5055
1062.00,0.5040
1061.00,0.5025
1060.00,0.5009
1059.00,0.4989
1058.00,0.4967
1057.00,0.4940
1056.00,0.4914
1055.00,0.4889
1054.00,0.4865
1053.00,0.4839
1052.00,0.4813
1051.00,0.4789
1050.00,0.4770
1049.00,0.4756
1048.00,0.4747
1047.00,0.4743
1046.00,0.4741
1045.00,0.4739
1044.00,0.4737
1043.00,0.4737
1042.00,0.4740
1041.00,0.4744
1040.00,0.4748
1039.00,0.4752
1038.00,0.4754
1037.00,0.4755
1036.00,0.4759
1035.00,0.4770
1034.00,0.4790
1033.00,0.4817
1032.00,0.4850
1031.00,0.4887
1030.00,0.4923
1029.00,0.4954
1028.00,0.4973
1027.00,0.4975
1026.00,0.4958
1025.00,0.4923
1024.00,0.4875
1023.00,0.4820
1022.00,0.4766
1021.00,0.4717
1020.00,0.4677
1019.00,0.4648
1018.00,0.4629
1017.00,0.4617
1016.00,0.4609
1015.00,0.4602
1014.00,0.4594
1013.00,0.4583
1012.00,0.4567
1011.00,0.4550
1010.00,0.4538
1009.00,0.4534
1008.00,0.4537
1007.00,0.4544
1006.00,0.4551
1005.00,0.4555
1004.00,0.4554
1003.00,0.4550
1002.00,0.4547
1001.00,0.4544
1000.00,0.4543
999.00,0.4541
998.00,0.4536
997.00,0.4527
996.00,0.4515
995.00,0.4502
994.00,0.4490
993.00,0.4478
992.00,0.4469
991.00,0.4464
990.00,0.4463
989.00,0.4463
988.00,0.4457
987.00,0.4445
986.00,0.4427
985.00,0.4413
984.00,0.4411
983.00,0.4427
982.00,0.4464
981.00,0.4519
980.00,0.4593
979.00,0.4685
978.00,0.4795
977.00,0.4923
976.00,0.5071
975.00,0.5239
974.00,0.5427
973.00,0.5641
972.00,0.5884
971.00,0.6152
970.00,0.6433
969.00,0.6701
968.00,0.6920
967.00,0.7056
966.00,0.7083
965.00,0.7004
964.00,0.6844
963.00,0.6635
962.00,0.6410
961.00,0.6200
960.00,0.6032
959.00,0.5926
958.00,0.5882
957.00,0.5886
956.00,0.5913
955.00,0.5937
954.00,0.5936
953.00,0.5901
952.00,0.5836
951.00,0.5751
950.00,0.5660
949.00,0.5572
948.00,0.5494
947.00,0.5431
946.00,0.5386
945.00,0.5359
944.00,0.5347
943.00,0.5348
942.00,0.5356
941.00,0.5364
940.00,0.5366
939.00,0.5358
938.00,0.5339
937.00,0.5310
936.00,0.5273
935.00,0.5233
934.00,0.5191
933.00,0.5147
932.00,0.5102
931.00,0.5056
930.00,0.5011
929.00,0.4969
928.00,0.4933
927.00,0.4908
926.00,0.4898
925.00,0.4905
924.00,0.4932
923.00,0.4975
922.00,0.5022
921.00,0.5056
920.00,0.5060
919.00,0.5028
918.00,0.4962
917.00,0.4874
916.00,0.4779
915.00,0.4691
914.00,0.4617
913.00,0.4558
912.00,0.4515
911.00,0.4486
910.00,0.4469
909.00,0.4463
908.00,0.4467
907.00,0.4486
906.00,0.4522
905.00,0.4569
904.00,0.4612
903.00,0.4631
902.00,0.4616
901.00,0.4577
900.00,0.4535
899.00,0.4507
898.00,0.4498
897.00,0.4504
896.00,0.4521
895.00,0.4547
894.00,0.4583
893.00,0.4625
892.00,0.4671
891.00,0.4719
890.00,0.4760
889.00,0.4784
888.00,0.4786
887.00,0.4767
886.00,0.4733
885.00,0.4692
884.00,0.4652
883.00,0.4622
882.00,0.4601
881.00,0.4588
880.00,0.4581
879.00,0.4576
878.00,0.4571
877.00,0.4567
876.00,0.4564
875.00,0.4564
874.00,0.4566
873.00,0.4568
872.00,0.4567
871.00,0.4566
870.00,0.4567
869.00,0.4571
868.00,0.4580
867.00,0.4599
866.00,0.4629
865.00,0.4668
864.00,0.4711
863.00,0.4749
862.00,0.4768
861.00,0.4760
860.00,0.4723
859.00,0.4665
858.00,0.4597
857.00,0.4532
856.00,0.4477
855.00,0.4435
854.00,0.4404
853.00,0.4382
852.00,0.4365
851.00,0.4354
850.00,0.4343
849.00,0.4331
848.00,0.4319
847.00,0.4306
846.00,0.4295
845.00,0.4284
844.00,0.4276
843.00,0.4276
842.00,0.4288
841.00,0.4320
840.00,0.4376
839.00,0.4460
838.00,0.4563
837.00,0.4664
836.00,0.4737
835.00,0.4763
834.00,0.4741
833.00,0.4689
832.00,0.4635
831.00,0.4605
830.00,0.4611
829.00,0.4653
828.00,0.4719
827.00,0.4792
826.00,0.4861
825.00,0.4924
824.00,0.4988
823.00,0.5054
822.00,0.5113
821.00,0.5149
820.00,0.5157
819.00,0.5140
818.00,0.5104
817.00,0.5058
816.00,0.5009
815.00,0.4961
814.00,0.4912
813.00,0.4860
812.00,0.4806
811.00,0.4751
810.00,0.4700
809.00,0.4650
808.00,0.4604
807.00,0.4561
806.00,0.4519
805.00,0.4477
804.00,0.4433
803.00,0.4389
802.00,0.4348
801.00,0.4313
800.00,0.4287
799.00,0.4273
798.00,0.4266
797.00,0.4264
796.00,0.4265
795.00,0.4267
794.00,0.4270
793.00,0.4275
792.00,0.4281
791.00,0.4290
790.00,0.4303
789.00,0.4315
788.00,0.4329
787.00,0.4347
786.00,0.4372
785.00,0.4407
784.00,0.4456
783.00,0.4521
782.00,0.4603
781.00,0.4700
780.00,0.4808
779.00,0.4917
778.00,0.5003
777.00,0.5042
776.00,0.5020
775.00,0.4955
774.00,0.4879
773.00,0.4820
772.00,0.4792
771.00,0.4793
770.00,0.4812
769.00,0.4839
768.00,0.4866
767.00,0.4890
766.00,0.4906
765.00,0.4914
764.00,0.4918
763.00,0.4927
762.00,0.4947
761.00,0.4981
760.00,0.5022
759.00,0.5066
758.00,0.5105
757.00,0.5138
756.00,0.5169
755.00,0.5204
754.00,0.5245
753.00,0.5294
752.00,0.5347
751.00,0.5405
750.00,0.5466
749.00,0.5526
748.00,0.5585
747.00,0.5647
746.00,0.5712
745.00,0.5781
744.00,0.5853
743.00,0.5929
742.00,0.6011
741.00,0.6099
740.00,0.6191
739.00,0.6290
738.00,0.6395
737.00,0.6508
736.00,0.6630
735.00,0.6761
734.00,0.6902
733.00,0.7051
732.00,0.7212
731.00,0.7390
730.00,0.7596
729.00,0.7840
728.00,0.8138
727.00,0.8509
726.00,0.8972
725.00,0.9523
724.00,1.0109
723.00,1.0616
722.00,1.0883
721.00,1.0783
720.00,1.0343
719.00,0.9726
718.00,0.9094
717.00,0.8535
716.00,0.8078
715.00,0.7726
714.00,0.7459
713.00,0.7249
712.00,0.7073
711.00,0.6915
710.00,0.6762
709.00,0.6605
708.00,0.6443
707.00,0.6283
706.00,0.6129
705.00,0.5979
704.00,0.5833
703.00,0.5694
702.00,0.5569
701.00,0.5454
700.00,0.5342
699.00,0.5223
698.00,0.5091
697.00,0.4948
696.00,0.4803
695.00,0.4673
694.00,0.4564
693.00,0.4474
692.00,0.4400
691.00,0.4340
690.00,0.4290
689.00,0.4246
688.00,0.4202
687.00,0.4161
686.00,0.4122
685.00,0.4086
684.00,0.4054
683.00,0.4026
682.00,0.4003
681.00,0.3984
680.00,0.3969
679.00,0.3957
678.00,0.3948
677.00,0.3939
676.00,0.3929
675.00,0.3921
674.00,0.3917
673.00,0.3913
672.00,0.3911
671.00,0.3911
670.00,0.3913
669.00,0.3916
668.00,0.3919
667.00,0.3916
666.00,0.3911
665.00,0.3914
664.00,0.3925
663.00,0.3935
662.00,0.3943
661.00,0.3951
660.00,0.3959
659.00,0.3968
658.00,0.3978
657.00,0.3987
656.00,0.3997
655.00,0.4009
654.00,0.4022
653.00,0.4036
652.00,0.4047
651.00,0.4057
650.00,0.4068
649.00,0.4080
648.00,0.4093
647.00,0.4107
646.00,0.4126
645.00,0.4150
644.00,0.4179
643.00,0.4211
642.00,0.4244
641.00,0.4277
640.00,0.4309
639.00,0.4338
638.00,0.4364
637.00,0.4389
636.00,0.4414
635.00,0.4439
634.00,0.4464
633.00,0.4490
632.00,0.4517
631.00,0.4545
630.00,0.4572
629.00,0.4600
628.00,0.4631
627.00,0.4662
626.00,0.4693
625.00,0.4721
624.00,0.4750
623.00,0.4780
622.00,0.4807
621.00,0.4827
620.00,0.4840
619.00,0.4849
618.00,0.4854
617.00,0.4855
616.00,0.4851
615.00,0.4843
614.00,0.4831
613.00,0.4816
612.00,0.4798
611.00,0.4781
610.00,0.4769
609.00,0.4763
608.00,0.4767
607.00,0.4775
606.00,0.4782
605.00,0.4782
604.00,0.4776
603.00,0.4764
602.00,0.4750
601.00,0.4733
600.00,0.4715
599.00,0.4697
598.00,0.4680
597.00,0.4665
596.00,0.4653
595.00,0.4647
594.00,0.4646
593.00,0.4648
592.00,0.4651
591.00,0.4657
590.00,0.4663
589.00,0.4668
588.00,0.4677
587.00,0.4695
586.00,0.4722
585.00,0.4751
584.00,0.4778
583.00,0.4804
582.00,0.4830
581.00,0.4857
580.00,0.4882
579.00,0.4906
578.00,0.4928
577.00,0.4950
576.00,0.4969
575.00,0.4986
574.00,0.5003
573.00,0.5023
572.00,0.5047
571.00,0.5076
570.00,0.5107
569.00,0.5140
568.00,0.5179
567.00,0.5224
566.00,0.5269
565.00,0.5308
564.00,0.5341
563.00,0.5377
562.00,0.5420
561.00,0.5465
560.00,0.5508
559.00,0.5551
558.00,0.5599
557.00,0.5649
556.00,0.5695
555.00,0.5734
554.00,0.5770
553.00,0.5810
552.00,0.5855
551.00,0.5901
550.00,0.5944
