Created as New Dataset,
cm-1,A
4000.00,0.3522
3999.00,0.3520
3998.00,0.3517
3997.00,0.3515
3996.00,0.3513
3995.00,0.3511
3994.00,0.3508
3993.00,0.3506
3992.00,0.3502
3991.00,0.3499
3990.00,0.3496
3989.00,0.3492
3988.00,0.3488
3987.00,0.3483
3986.00,0.3479
3985.00,0.3475
3984.00,0.3471
3983.00,0.3467
3982.00,0.3463
3981.00,0.3458
3980.00,0.3454
3979.00,0.3450
3978.00,0.3446
3977.00,0.3442
3976.00,0.3439
3975.00,0.3436
3974.00,0.3433
3973.00,0.3431
3972.00,0.3428
3971.00,0.3425
3970.00,0.3421
3969.00,0.3419
3968.00,0.3416
3967.00,0.3414
3966.00,0.3412
3965.00,0.3410
3964.00,0.3407
3963.00,0.3405
3962.00,0.3403
3961.00,0.3402
3960.00,0.3400
3959.00,0.3399
3958.00,0.3398
3957.00,0.3396
3956.00,0.3394
3955.00,0.3392
3954.00,0.3391
3953.00,0.3389
3952.00,0.3388
3951.00,0.3386
3950.00,0.3384
3949.00,0.3382
3948.00,0.3380
3947.00,0.3378
3946.00,0.3376
3945.00,0.3374
3944.00,0.3372
3943.00,0.3370
3942.00,0.3368
3941.00,0.3366
3940.00,0.3364
3939.00,0.3362
3938.00,0.3361
3937.00,0.3360
3936.00,0.3360
3935.00,0.3359
3934.00,0.3359
3933.00,0.3358
3932.00,0.3358
3931.00,0.3358
3930.00,0.3357
3929.00,0.3357
3928.00,0.3357
3927.00,0.3358
3926.00,0.3358
3925.00,0.3359
3924.00,0.3359
3923.00,0.3359
3922.00,0.3358
3921.00,0.3358
3920.00,0.3358
3919.00,0.3358
3918.00,0.3358
3917.00,0.3358
3916.00,0.3357
3915.00,0.3356
3914.00,0.3355
3913.00,0.3354
3912.00,0.3353
3911.00,0.3351
3910.00,0.3350
3909.00,0.3349
3908.00,0.3347
3907.00,0.3346
3906.00,0.3345
3905.00,0.3345
3904.00,0.3345
3903.00,0.3345
3902.00,0.3345
3901.00,0.3345
3900.00,0.3345
3899.00,0.3345
3898.00,0.3344
3897.00,0.3343
3896.00,0.3342
3895.00,0.3341
3894.00,0.3341
3893.00,0.3340
3892.00,0.3339
3891.00,0.3338
3890.00,0.3337
3889.00,0.3337
3888.00,0.3336
3887.00,0.3336
3886.00,0.3335
3885.00,0.3335
3884.00,0.3334
3883.00,0.3334
3882.00,0.3333
3881.00,0.3332
3880.00,0.3330
3879.00,0.3328
3878.00,0.3326
3877.00,0.3326
3876.00,0.3325
3875.00,0.3325
3874.00,0.3324
3873.00,0.3323
3872.00,0.3322
3871.00,0.3321
3870.00,0.3319
3869.00,0.3317
3868.00,0.3315
3867.00,0.3314
3866.00,0.3313
3865.00,0.3312
3864.00,0.3311
3863.00,0.3311
3862.00,0.3310
3861.00,0.3309
3860.00,0.3307
3859.00,0.3305
3858.00,0.3303
3857.00,0.3301
3856.00,0.3299
3855.00,0.3299
3854.00,0.3299
3853.00,0.3300
3852.00,0.3300
3851.00,0.3301
3850.00,0.3301
3849.00,0.3300
3848.00,0.3299
3847.00,0.3298
3846.00,0.3296
3845.00,0.3294
3844.00,0.3292
3843.00,0.3291
3842.00,0.3290
3841.00,0.3290
3840.00,0.3290
3839.00,0.3290
3838.00,0.3289
3837.00,0.3288
3836.00,0.3286
3835.00,0.3285
3834.00,0.3285
3833.00,0.3285
3832.00,0.3284
3831.00,0.3283
3830.00,0.3282
3829.00,0.3282
3828.00,0.3281
3827.00,0.3281
3826.00,0.3280
3825.00,0.3279
3824.00,0.3278
3823.00,0.3277
3822.00,0.3277
3821.00,0.3275
3820.00,0.3274
3819.00,0.3272
3818.00,0.3271
3817.00,0.3270
3816.00,0.3270
3815.00,0.3268
3814.00,0.3266
3813.00,0.3263
3812.00,0.3260
3811.00,0.3257
3810.00,0.3255
3809.00,0.3253
3808.00,0.3251
3807.00,0.3249
3806.00,0.3247
3805.00,0.3245
3804.00,0.3244
3803.00,0.3242
3802.00,0.3241
3801.00,0.3240
3800.00,0.3238
3799.00,0.3237
3798.00,0.3237
3797.00,0.3236
3796.00,0.3234
3795.00,0.3233
3794.00,0.3231
3793.00,0.3230
3792.00,0.3228
3791.00,0.3226
3790.00,0.3224
3789.00,0.3223
3788.00,0.3222
3787.00,0.3221
3786.00,0.3219
3785.00,0.3218
3784.00,0.3216
3783.00,0.3215
3782.00,0.3214
3781.00,0.3212
3780.00,0.3210
3779.00,0.3208
3778.00,0.3205
3777.00,0.3204
3776.00,0.3203
3775.00,0.3201
3774.00,0.3200
3773.00,0.3198
3772.00,0.3196
3771.00,0.3193
3770.00,0.3191
3769.00,0.3190
3768.00,0.3188
3767.00,0.3187
3766.00,0.3186
3765.00,0.3184
3764.00,0.3183
3763.00,0.3183
3762.00,0.3182
3761.00,0.3181
3760.00,0.3180
3759.00,0.3179
3758.00,0.3177
3757.00,0.3175
3756.00,0.3174
3755.00,0.3172
3754.00,0.3171
3753.00,0.3169
3752.00,0.3168
3751.00,0.3166
3750.00,0.3164
3749.00,0.3163
3748.00,0.3162
3747.00,0.3162
3746.00,0.3161
3745.00,0.3159
3744.00,0.3157
3743.00,0.3156
3742.00,0.3155
3741.00,0.3153
3740.00,0.3151
3739.00,0.3150
3738.00,0.3148
3737.00,0.3147
3736.00,0.3146
3735.00,0.3145
3734.00,0.3145
3733.00,0.3145
3732.00,0.3143
3731.00,0.3142
3730.00,0.3140
3729.00,0.3138
3728.00,0.3136
3727.00,0.3134
3726.00,0.3132
3725.00,0.3131
3724.00,0.3130
3723.00,0.3129
3722.00,0.3129
3721.00,0.3128
3720.00,0.3127
3719.00,0.3126
3718.00,0.3125
3717.00,0.3124
3716.00,0.3123
3715.00,0.3122
3714.00,0.3121
3713.00,0.3120
3712.00,0.3120
3711.00,0.3119
3710.00,0.3119
3709.00,0.3120
3708.00,0.3120
3707.00,0.3119
3706.00,0.3119
3705.00,0.3118
3704.00,0.3117
3703.00,0.3117
3702.00,0.3116
3701.00,0.3116
3700.00,0.3115
3699.00,0.3115
3698.00,0.3114
3697.00,0.3114
3696.00,0.3114
3695.00,0.3114
3694.00,0.3114
3693.00,0.3113
3692.00,0.3113
3691.00,0.3113
3690.00,0.3114
3689.00,0.3116
3688.00,0.3118
3687.00,0.3119
3686.00,0.3120
3685.00,0.3120
3684.00,0.3119
3683.00,0.3119
3682.00,0.3118
3681.00,0.3116
3680.00,0.3115
3679.00,0.3114
3678.00,0.3113
3677.00,0.3114
3676.00,0.3114
3675.00,0.3115
3674.00,0.3115
3673.00,0.3115
3672.00,0.3116
3671.00,0.3116
3670.00,0.3117
3669.00,0.3118
3668.00,0.3120
3667.00,0.3122
3666.00,0.3125
3665.00,0.3128
3664.00,0.3132
3663.00,0.3137
3662.00,0.3144
3661.00,0.3153
3660.00,0.3163
3659.00,0.3177
3658.00,0.3194
3657.00,0.3214
3656.00,0.3238
3655.00,0.3262
3654.00,0.3285
3653.00,0.3307
3652.00,0.3327
3651.00,0.3343
3650.00,0.3355
3649.00,0.3358
3648.00,0.3355
3647.00,0.3345
3646.00,0.3331
3645.00,0.3315
3644.00,0.3298
3643.00,0.3281
3642.00,0.3264
3641.00,0.3248
3640.00,0.3235
3639.00,0.3223
3638.00,0.3213
3637.00,0.3204
3636.00,0.3197
3635.00,0.3191
3634.00,0.3187
3633.00,0.3183
3632.00,0.3179
3631.00,0.3176
3630.00,0.3174
3629.00,0.3172
3628.00,0.3172
3627.00,0.3172
3626.00,0.3172
3625.00,0.3173
3624.00,0.3172
3623.00,0.3171
3622.00,0.3170
3621.00,0.3167
3620.00,0.3164
3619.00,0.3161
3618.00,0.3158
3617.00,0.3155
3616.00,0.3153
3615.00,0.3151
3614.00,0.3149
3613.00,0.3148
3612.00,0.3148
3611.00,0.3147
3610.00,0.3147
3609.00,0.3146
3608.00,0.3145
3607.00,0.3144
3606.00,0.3142
3605.00,0.3139
3604.00,0.3136
3603.00,0.3131
3602.00,0.3125
3601.00,0.3118
3600.00,0.3110
3599.00,0.3102
3598.00,0.3093
3597.00,0.3085
3596.00,0.3076
3595.00,0.3068
3594.00,0.3061
3593.00,0.3054
3592.00,0.3048
3591.00,0.3043
3590.00,0.3038
3589.00,0.3034
3588.00,0.3031
3587.00,0.3028
3586.00,0.3026
3585.00,0.3024
3584.00,0.3022
3583.00,0.3020
3582.00,0.3018
3581.00,0.3017
3580.00,0.3016
3579.00,0.3015
3578.00,0.3013
3577.00,0.3012
3576.00,0.3011
3575.00,0.3011
3574.00,0.3011
3573.00,0.3011
3572.00,0.3011
3571.00,0.3010
3570.00,0.3010
3569.00,0.3009
3568.00,0.3009
3567.00,0.3010
3566.00,0.3011
3565.00,0.3011
3564.00,0.3011
3563.00,0.3010
3562.00,0.3010
3561.00,0.3010
3560.00,0.3010
3559.00,0.3011
3558.00,0.3011
3557.00,0.3012
3556.00,0.3014
3555.00,0.3015
3554.00,0.3017
3553.00,0.3020
3552.00,0.3022
3551.00,0.3024
3550.00,0.3027
3549.00,0.3030
3548.00,0.3032
3547.00,0.3034
3546.00,0.3036
3545.00,0.3038
3544.00,0.3041
3543.00,0.3043
3542.00,0.3046
3541.00,0.3047
3540.00,0.3049
3539.00,0.3051
3538.00,0.3054
3537.00,0.3056
3536.00,0.3059
3535.00,0.3060
3534.00,0.3062
3533.00,0.3063
3532.00,0.3064
3531.00,0.3066
3530.00,0.3068
3529.00,0.3070
3528.00,0.3073
3527.00,0.3075
3526.00,0.3078
3525.00,0.3081
3524.00,0.3083
3523.00,0.3086
3522.00,0.3088
3521.00,0.3090
3520.00,0.3092
3519.00,0.3095
3518.00,0.3098
3517.00,0.3102
3516.00,0.3106
3515.00,0.3110
3514.00,0.3114
3513.00,0.3117
3512.00,0.3122
3511.00,0.3126
3510.00,0.3130
3509.00,0.3134
3508.00,0.3138
3507.00,0.3142
3506.00,0.3146
3505.00,0.3150
3504.00,0.3154
3503.00,0.3158
3502.00,0.3163
3501.00,0.3168
3500.00,0.3172
3499.00,0.3177
3498.00,0.3181
3497.00,0.3186
3496.00,0.3192
3495.00,0.3197
3494.00,0.3203
3493.00,0.3209
3492.00,0.3215
3491.00,0.3221
3490.00,0.3227
3489.00,0.3234
3488.00,0.3240
3487.00,0.3247
3486.00,0.3253
3485.00,0.3259
3484.00,0.3264
3483.00,0.3269
3482.00,0.3274
3481.00,0.3279
3480.00,0.3284
3479.00,0.3289
3478.00,0.3293
3477.00,0.3296
3476.00,0.3300
3475.00,0.3304
3474.00,0.3308
3473.00,0.3313
3472.00,0.3318
3471.00,0.3323
3470.00,0.3329
3469.00,0.3334
3468.00,0.3340
3467.00,0.3345
3466.00,0.3350
3465.00,0.3355
3464.00,0.3361
3463.00,0.3366
3462.00,0.3372
3461.00,0.3377
3460.00,0.3384
3459.00,0.3390
3458.00,0.3397
3457.00,0.3404
3456.00,0.3411
3455.00,0.3417
3454.00,0.3425
3453.00,0.3432
3452.00,0.3440
3451.00,0.3448
3450.00,0.3457
3449.00,0.3465
3448.00,0.3475
3447.00,0.3485
3446.00,0.3497
3445.00,0.3509
3444.00,0.3522
3443.00,0.3534
3442.00,0.3547
3441.00,0.3559
3440.00,0.3570
3439.00,0.3581
3438.00,0.3591
3437.00,0.3600
3436.00,0.3609
3435.00,0.3617
3434.00,0.3624
3433.00,0.3630
3432.00,0.3637
3431.00,0.3643
3430.00,0.3650
3429.00,0.3657
3428.00,0.3664
3427.00,0.3671
3426.00,0.3678
3425.00,0.3684
3424.00,0.3691
3423.00,0.3698
3422.00,0.3705
3421.00,0.3714
3420.00,0.3723
3419.00,0.3731
3418.00,0.3740
3417.00,0.3749
3416.00,0.3758
3415.00,0.3768
3414.00,0.3778
3413.00,0.3787
3412.00,0.3797
3411.00,0.3807
3410.00,0.3817
3409.00,0.3828
3408.00,0.3839
3407.00,0.3850
3406.00,0.3862
3405.00,0.3874
3404.00,0.3886
3403.00,0.3898
3402.00,0.3910
3401.00,0.3922
3400.00,0.3933
3399.00,0.3944
3398.00,0.3955
3397.00,0.3967
3396.00,0.3979
3395.00,0.3992
3394.00,0.4005
3393.00,0.4018
3392.00,0.4029
3391.00,0.4040
3390.00,0.4050
3389.00,0.4062
3388.00,0.4074
3387.00,0.4086
3386.00,0.4098
3385.00,0.4110
3384.00,0.4123
3383.00,0.4136
3382.00,0.4150
3381.00,0.4164
3380.00,0.4178
3379.00,0.4193
3378.00,0.4207
3377.00,0.4222
3376.00,0.4237
3375.00,0.4252
3374.00,0.4268
3373.00,0.4284
3372.00,0.4301
3371.00,0.4318
3370.00,0.4335
3369.00,0.4351
3368.00,0.4368
3367.00,0.4385
3366.00,0.4402
3365.00,0.4419
3364.00,0.4437
3363.00,0.4456
3362.00,0.4474
3361.00,0.4491
3360.00,0.4509
3359.00,0.4527
3358.00,0.4545
3357.00,0.4563
3356.00,0.4581
3355.00,0.4599
3354.00,0.4617
3353.00,0.4635
3352.00,0.4653
3351.00,0.4671
3350.00,0.4690
3349.00,0.4707
3348.00,0.4724
3347.00,0.4741
3346.00,0.4757
3345.00,0.4774
3344.00,0.4789
3343.00,0.4803
3342.00,0.4816
3341.00,0.4829
3340.00,0.4840
3339.00,0.4851
3338.00,0.4861
3337.00,0.4871
3336.00,0.4880
3335.00,0.4887
3334.00,0.4893
3333.00,0.4899
3332.00,0.4903
3331.00,0.4907
3330.00,0.4909
3329.00,0.4911
3328.00,0.4912
3327.00,0.4911
3326.00,0.4909
3325.00,0.4907
3324.00,0.4904
3323.00,0.4901
3322.00,0.4896
3321.00,0.4891
3320.00,0.4884
3319.00,0.4878
3318.00,0.4870
3317.00,0.4862
3316.00,0.4853
3315.00,0.4844
3314.00,0.4835
3313.00,0.4826
3312.00,0.4818
3311.00,0.4809
3310.00,0.4800
3309.00,0.4791
3308.00,0.4781
3307.00,0.4771
3306.00,0.4761
3305.00,0.4751
3304.00,0.4742
3303.00,0.4733
3302.00,0.4724
3301.00,0.4716
3300.00,0.4708
3299.00,0.4700
3298.00,0.4693
3297.00,0.4686
3296.00,0.4680
3295.00,0.4674
3294.00,0.4668
3293.00,0.4662
3292.00,0.4656
3291.00,0.4651
3290.00,0.4647
3289.00,0.4644
3288.00,0.4642
3287.00,0.4640
3286.00,0.4638
3285.00,0.4637
3284.00,0.4637
3283.00,0.4637
3282.00,0.4638
3281.00,0.4639
3280.00,0.4640
3279.00,0.4641
3278.00,0.4643
3277.00,0.4646
3276.00,0.4648
3275.00,0.4651
3274.00,0.4654
3273.00,0.4657
3272.00,0.4661
3271.00,0.4665
3270.00,0.4668
3269.00,0.4672
3268.00,0.4676
3267.00,0.4681
3266.00,0.4685
3265.00,0.4690
3264.00,0.4695
3263.00,0.4700
3262.00,0.4705
3261.00,0.4710
3260.00,0.4714
3259.00,0.4718
3258.00,0.4722
3257.00,0.4727
3256.00,0.4732
3255.00,0.4737
3254.00,0.4741
3253.00,0.4745
3252.00,0.4749
3251.00,0.4752
3250.00,0.4756
3249.00,0.4759
3248.00,0.4762
3247.00,0.4764
3246.00,0.4766
3245.00,0.4767
3244.00,0.4769
3243.00,0.4770
3242.00,0.4772
3241.00,0.4773
3240.00,0.4774
3239.00,0.4774
3238.00,0.4774
3237.00,0.4773
3236.00,0.4772
3235.00,0.4771
3234.00,0.4769
3233.00,0.4767
3232.00,0.4765
3231.00,0.4763
3230.00,0.4760
3229.00,0.4757
3228.00,0.4754
3227.00,0.4750
3226.00,0.4746
3225.00,0.4743
3224.00,0.4740
3223.00,0.4736
3222.00,0.4731
3221.00,0.4727
3220.00,0.4722
3219.00,0.4718
3218.00,0.4714
3217.00,0.4709
3216.00,0.4705
3215.00,0.4701
3214.00,0.4696
3213.00,0.4691
3212.00,0.4686
3211.00,0.4680
3210.00,0.4675
3209.00,0.4671
3208.00,0.4667
3207.00,0.4662
3206.00,0.4658
3205.00,0.4653
3204.00,0.4649
3203.00,0.4644
3202.00,0.4639
3201.00,0.4634
3200.00,0.4629
3199.00,0.4624
3198.00,0.4619
3197.00,0.4614
3196.00,0.4609
3195.00,0.4603
3194.00,0.4598
3193.00,0.4592
3192.00,0.4587
3191.00,0.4581
3190.00,0.4574
3189.00,0.4567
3188.00,0.4561
3187.00,0.4554
3186.00,0.4548
3185.00,0.4542
3184.00,0.4536
3183.00,0.4529
3182.00,0.4521
3181.00,0.4513
3180.00,0.4506
3179.00,0.4499
3178.00,0.4491
3177.00,0.4483
3176.00,0.4475
3175.00,0.4466
3174.00,0.4459
3173.00,0.4452
3172.00,0.4445
3171.00,0.4437
3170.00,0.4429
3169.00,0.4421
3168.00,0.4413
3167.00,0.4405
3166.00,0.4396
3165.00,0.4388
3164.00,0.4379
3163.00,0.4371
3162.00,0.4363
3161.00,0.4354
3160.00,0.4346
3159.00,0.4338
3158.00,0.4331
3157.00,0.4324
3156.00,0.4317
3155.00,0.4309
3154.00,0.4301
3153.00,0.4294
3152.00,0.4287
3151.00,0.4281
3150.00,0.4274
3149.00,0.4268
3148.00,0.4262
3147.00,0.4255
3146.00,0.4249
3145.00,0.4242
3144.00,0.4236
3143.00,0.4231
3142.00,0.4226
3141.00,0.4221
3140.00,0.4217
3139.00,0.4212
3138.00,0.4208
3137.00,0.4205
3136.00,0.4202
3135.00,0.4198
3134.00,0.4194
3133.00,0.4191
3132.00,0.4188
3131.00,0.4186
3130.00,0.4183
3129.00,0.4182
3128.00,0.4180
3127.00,0.4179
3126.00,0.4178
3125.00,0.4178
3124.00,0.4178
3123.00,0.4178
3122.00,0.4178
3121.00,0.4179
3120.00,0.4181
3119.00,0.4182
3118.00,0.4184
3117.00,0.4187
3116.00,0.4190
3115.00,0.4194
3114.00,0.4198
3113.00,0.4203
3112.00,0.4209
3111.00,0.4214
3110.00,0.4220
3109.00,0.4227
3108.00,0.4235
3107.00,0.4243
3106.00,0.4251
3105.00,0.4259
3104.00,0.4268
3103.00,0.4277
3102.00,0.4286
3101.00,0.4295
3100.00,0.4305
3099.00,0.4314
3098.00,0.4324
3097.00,0.4335
3096.00,0.4347
3095.00,0.4360
3094.00,0.4375
3093.00,0.4390
3092.00,0.4407
3091.00,0.4425
3090.00,0.4443
3089.00,0.4463
3088.00,0.4484
3087.00,0.4506
3086.00,0.4528
3085.00,0.4551
3084.00,0.4575
3083.00,0.4601
3082.00,0.4628
3081.00,0.4656
3080.00,0.4685
3079.00,0.4716
3078.00,0.4749
3077.00,0.4784
3076.00,0.4820
3075.00,0.4857
3074.00,0.4896
3073.00,0.4935
3072.00,0.4975
3071.00,0.5014
3070.00,0.5054
3069.00,0.5094
3068.00,0.5134
3067.00,0.5173
3066.00,0.5212
3065.00,0.5250
3064.00,0.5288
3063.00,0.5323
3062.00,0.5357
3061.00,0.5389
3060.00,0.5420
3059.00,0.5451
3058.00,0.5481
3057.00,0.5512
3056.00,0.5543
3055.00,0.5575
3054.00,0.5608
3053.00,0.5641
3052.00,0.5676
3051.00,0.5711
3050.00,0.5748
3049.00,0.5787
3048.00,0.5827
3047.00,0.5868
3046.00,0.5910
3045.00,0.5952
3044.00,0.5995
3043.00,0.6038
3042.00,0.6082
3041.00,0.6127
3040.00,0.6174
3039.00,0.6222
3038.00,0.6273
3037.00,0.6327
3036.00,0.6383
3035.00,0.6443
3034.00,0.6505
3033.00,0.6570
3032.00,0.6639
3031.00,0.6710
3030.00,0.6784
3029.00,0.6860
3028.00,0.6938
3027.00,0.7019
3026.00,0.7102
3025.00,0.7189
3024.00,0.7278
3023.00,0.7370
3022.00,0.7466
3021.00,0.7565
3020.00,0.7667
3019.00,0.7771
3018.00,0.7877
3017.00,0.7985
3016.00,0.8094
3015.00,0.8207
3014.00,0.8325
3013.00,0.8449
3012.00,0.8578
3011.00,0.8714
3010.00,0.8855
3009.00,0.9005
3008.00,0.9161
3007.00,0.9324
3006.00,0.9494
3005.00,0.9671
3004.00,0.9853
3003.00,1.0040
3002.00,1.0232
3001.00,1.0432
3000.00,1.0642
2999.00,1.0866
2998.00,1.1106
2997.00,1.1364
2996.00,1.1644
2995.00,1.1949
2994.00,1.2284
2993.00,1.2652
2992.00,1.3061
2991.00,1.3518
2990.00,1.4028
2989.00,1.4592
2988.00,1.5209
2987.00,1.5886
2986.00,1.6637
2985.00,1.7472
2984.00,1.8397
2983.00,1.9420
2982.00,2.0559
2981.00,2.1833
2980.00,2.3252
2979.00,2.4817
2978.00,2.6533
2977.00,2.8399
2976.00,3.0416
2975.00,3.2588
2974.00,3.4865
2973.00,3.6878
2972.00,3.8040
2971.00,3.8446
2970.00,3.8447
2969.00,3.8515
2968.00,3.9181
2967.00,4.0746
2966.00,4.3070
2965.00,4.3901
2964.00,4.1724
2963.00,4.0153
2962.00,3.9823
2961.00,4.1409
2960.00,4.5095
2959.00,5.0703
2958.00,5.4103
2957.00,4.4015
2956.00,4.0696
2955.00,3.9610
2954.00,4.1090
2953.00,4.4024
2952.00,4.3378
2951.00,4.1753
2950.00,4.1026
2949.00,4.1056
2948.00,4.0449
2947.00,4.0004
2946.00,4.0413
2945.00,4.1716
2944.00,4.3788
2943.00,4.4064
2942.00,4.1686
2941.00,4.0078
2940.00,4.0155
2939.00,4.0959
2938.00,4.0876
2937.00,3.9986
2936.00,3.9455
2935.00,3.9715
2934.00,4.0661
2933.00,4.2498
2932.00,4.2755
2931.00,4.0677
2930.00,3.9199
2929.00,3.9205
2928.00,3.9669
2927.00,3.9643
2926.00,3.9694
2925.00,4.1127
2924.00,4.5133
2923.00,4.3737
2922.00,4.0527
2921.00,3.8831
2920.00,3.8955
2919.00,4.0227
2918.00,4.2959
2917.00,4.5235
2916.00,4.1889
2915.00,3.9540
2914.00,3.8693
2913.00,3.8527
2912.00,3.8500
2911.00,3.8819
2910.00,3.9113
2909.00,3.9597
2908.00,4.0693
2907.00,4.2039
2906.00,4.2341
2905.00,4.1411
2904.00,4.1238
2903.00,4.1788
2902.00,4.2773
2901.00,4.2636
2900.00,4.1476
2899.00,4.0577
2898.00,3.9342
2897.00,3.8384
2896.00,3.7971
2895.00,3.8283
2894.00,3.9134
2893.00,4.1038
2892.00,4.4748
2891.00,4.3908
2890.00,4.0180
2889.00,3.7577
2888.00,3.6458
2887.00,3.6288
2886.00,3.6922
2885.00,3.8616
2884.00,4.0947
2883.00,4.2021
2882.00,4.1901
2881.00,4.2043
2880.00,4.1451
2879.00,3.9717
2878.00,3.8560
2877.00,3.8928
2876.00,4.0627
2875.00,4.3404
2874.00,4.6545
2873.00,4.6028
2872.00,4.6091
2871.00,4.7829
2870.00,4.5501
2869.00,4.5280
2868.00,4.5073
2867.00,4.1847
2866.00,3.9598
2865.00,3.9057
2864.00,3.9513
2863.00,3.9109
2862.00,4.0115
2861.00,4.3717
2860.00,4.2323
2859.00,4.0677
2858.00,4.0786
2857.00,4.3617
2856.00,4.4576
2855.00,4.3569
2854.00,4.2977
2853.00,4.1409
2852.00,4.0376
2851.00,3.9400
2850.00,3.8573
2849.00,3.8334
2848.00,3.9259
2847.00,4.1322
2846.00,4.2989
2845.00,4.3374
2844.00,4.3632
2843.00,4.4313
2842.00,4.3793
2841.00,4.1291
2840.00,3.8730
2839.00,3.6494
2838.00,3.4347
2837.00,3.2101
2836.00,2.9885
2835.00,2.7864
2834.00,2.6050
2833.00,2.4406
2832.00,2.2916
2831.00,2.1574
2830.00,2.0367
2829.00,1.9282
2828.00,1.8307
2827.00,1.7433
2826.00,1.6648
2825.00,1.5940
2824.00,1.5300
2823.00,1.4722
2822.00,1.4197
2821.00,1.3716
2820.00,1.3271
2819.00,1.2858
2818.00,1.2473
2817.00,1.2114
2816.00,1.1779
2815.00,1.1466
2814.00,1.1174
2813.00,1.0899
2812.00,1.0639
2811.00,1.0393
2810.00,1.0160
2809.00,0.9938
2808.00,0.9727
2807.00,0.9524
2806.00,0.9331
2805.00,0.9148
2804.00,0.8974
2803.00,0.8808
2802.00,0.8649
2801.00,0.8497
2800.00,0.8351
2799.00,0.8212
2798.00,0.8079
2797.00,0.7950
2796.00,0.7826
2795.00,0.7707
2794.00,0.7592
2793.00,0.7481
2792.00,0.7372
2791.00,0.7267
2790.00,0.7163
2789.00,0.7060
2788.00,0.6959
2787.00,0.6861
2786.00,0.6765
2785.00,0.6671
2784.00,0.6578
2783.00,0.6488
2782.00,0.6401
2781.00,0.6317
2780.00,0.6237
2779.00,0.6162
2778.00,0.6090
2777.00,0.6022
2776.00,0.5958
2775.00,0.5897
2774.00,0.5840
2773.00,0.5786
2772.00,0.5737
2771.00,0.5691
2770.00,0.5649
2769.00,0.5610
2768.00,0.5575
2767.00,0.5544
2766.00,0.5516
2765.00,0.5491
2764.00,0.5470
2763.00,0.5451
2762.00,0.5434
2761.00,0.5419
2760.00,0.5406
2759.00,0.5393
2758.00,0.5383
2757.00,0.5372
2756.00,0.5362
2755.00,0.5353
2754.00,0.5345
2753.00,0.5340
2752.00,0.5336
2751.00,0.5335
2750.00,0.5335
2749.00,0.5338
2748.00,0.5342
2747.00,0.5348
2746.00,0.5357
2745.00,0.5367
2744.00,0.5380
2743.00,0.5396
2742.00,0.5415
2741.00,0.5438
2740.00,0.5465
2739.00,0.5496
2738.00,0.5532
2737.00,0.5571
2736.00,0.5615
2735.00,0.5663
2734.00,0.5712
2733.00,0.5760
2732.00,0.5804
2731.00,0.5839
2730.00,0.5863
2729.00,0.5876
2728.00,0.5878
2727.00,0.5869
2726.00,0.5854
2725.00,0.5835
2724.00,0.5812
2723.00,0.5788
2722.00,0.5762
2721.00,0.5733
2720.00,0.5702
2719.00,0.5668
2718.00,0.5631
2717.00,0.5593
2716.00,0.5553
2715.00,0.5513
2714.00,0.5472
2713.00,0.5432
2712.00,0.5394
2711.00,0.5359
2710.00,0.5328
2709.00,0.5301
2708.00,0.5277
2707.00,0.5257
2706.00,0.5239
2705.00,0.5225
2704.00,0.5213
2703.00,0.5203
2702.00,0.5196
2701.00,0.5192
2700.00,0.5191
2699.00,0.5193
2698.00,0.5198
2697.00,0.5205
2696.00,0.5213
2695.00,0.5222
2694.00,0.5232
2693.00,0.5243
2692.00,0.5255
2691.00,0.5268
2690.00,0.5281
2689.00,0.5294
2688.00,0.5305
2687.00,0.5316
2686.00,0.5325
2685.00,0.5332
2684.00,0.5338
2683.00,0.5343
2682.00,0.5347
2681.00,0.5351
2680.00,0.5354
2679.00,0.5357
2678.00,0.5360
2677.00,0.5364
2676.00,0.5367
2675.00,0.5371
2674.00,0.5373
2673.00,0.5375
2672.00,0.5375
2671.00,0.5372
2670.00,0.5367
2669.00,0.5359
2668.00,0.5347
2667.00,0.5332
2666.00,0.5315
2665.00,0.5295
2664.00,0.5274
2663.00,0.5251
2662.00,0.5229
2661.00,0.5205
2660.00,0.5181
2659.00,0.5156
2658.00,0.5132
2657.00,0.5109
2656.00,0.5087
2655.00,0.5065
2654.00,0.5045
2653.00,0.5026
2652.00,0.5007
2651.00,0.4989
2650.00,0.4972
2649.00,0.4955
2648.00,0.4939
2647.00,0.4924
2646.00,0.4908
2645.00,0.4894
2644.00,0.4880
2643.00,0.4867
2642.00,0.4854
2641.00,0.4842
2640.00,0.4831
2639.00,0.4820
2638.00,0.4809
2637.00,0.4799
2636.00,0.4789
2635.00,0.4779
2634.00,0.4770
2633.00,0.4761
2632.00,0.4751
2631.00,0.4741
2630.00,0.4732
2629.00,0.4722
2628.00,0.4712
2627.00,0.4702
2626.00,0.4692
2625.00,0.4682
2624.00,0.4672
2623.00,0.4662
2622.00,0.4652
2621.00,0.4642
2620.00,0.4632
2619.00,0.4622
2618.00,0.4611
2617.00,0.4601
2616.00,0.4591
2615.00,0.4581
2614.00,0.4571
2613.00,0.4561
2612.00,0.4551
2611.00,0.4541
2610.00,0.4530
2609.00,0.4520
2608.00,0.4510
2607.00,0.4501
2606.00,0.4491
2605.00,0.4482
2604.00,0.4472
2603.00,0.4462
2602.00,0.4451
2601.00,0.4439
2600.00,0.4426
2599.00,0.4412
2598.00,0.4398
2597.00,0.4384
2596.00,0.4370
2595.00,0.4354
2594.00,0.4338
2593.00,0.4321
2592.00,0.4304
2591.00,0.4288
2590.00,0.4273
2589.00,0.4257
2588.00,0.4240
2587.00,0.4223
2586.00,0.4207
2585.00,0.4190
2584.00,0.4173
2583.00,0.4157
2582.00,0.4139
2581.00,0.4121
2580.00,0.4103
2579.00,0.4085
2578.00,0.4068
2577.00,0.4051
2576.00,0.4036
2575.00,0.4021
2574.00,0.4006
2573.00,0.3991
2572.00,0.3976
2571.00,0.3962
2570.00,0.3948
2569.00,0.3934
2568.00,0.3920
2567.00,0.3907
2566.00,0.3894
2565.00,0.3881
2564.00,0.3868
2563.00,0.3855
2562.00,0.3841
2561.00,0.3827
2560.00,0.3813
2559.00,0.3800
2558.00,0.3788
2557.00,0.3777
2556.00,0.3765
2555.00,0.3754
2554.00,0.3743
2553.00,0.3732
2552.00,0.3722
2551.00,0.3711
2550.00,0.3701
2549.00,0.3691
2548.00,0.3681
2547.00,0.3672
2546.00,0.3664
2545.00,0.3657
2544.00,0.3649
2543.00,0.3640
2542.00,0.3633
2541.00,0.3625
2540.00,0.3617
2539.00,0.3609
2538.00,0.3603
2537.00,0.3597
2536.00,0.3592
2535.00,0.3587
2534.00,0.3582
2533.00,0.3575
2532.00,0.3568
2531.00,0.3560
2530.00,0.3551
2529.00,0.3541
2528.00,0.3531
2527.00,0.3521
2526.00,0.3511
2525.00,0.3501
2524.00,0.3490
2523.00,0.3479
2522.00,0.3468
2521.00,0.3458
2520.00,0.3448
2519.00,0.3439
2518.00,0.3429
2517.00,0.3420
2516.00,0.3411
2515.00,0.3403
2514.00,0.3394
2513.00,0.3386
2512.00,0.3378
2511.00,0.3370
2510.00,0.3363
2509.00,0.3357
2508.00,0.3351
2507.00,0.3345
2506.00,0.3339
2505.00,0.3334
2504.00,0.3331
2503.00,0.3327
2502.00,0.3325
2501.00,0.3322
2500.00,0.3319
2499.00,0.3315
2498.00,0.3312
2497.00,0.3309
2496.00,0.3306
2495.00,0.3303
2494.00,0.3300
2493.00,0.3297
2492.00,0.3293
2491.00,0.3289
2490.00,0.3284
2489.00,0.3279
2488.00,0.3273
2487.00,0.3267
2486.00,0.3262
2485.00,0.3256
2484.00,0.3251
2483.00,0.3246
2482.00,0.3241
2481.00,0.3236
2480.00,0.3231
2479.00,0.3227
2478.00,0.3222
2477.00,0.3217
2476.00,0.3213
2475.00,0.3209
2474.00,0.3205
2473.00,0.3202
2472.00,0.3199
2471.00,0.3196
2470.00,0.3194
2469.00,0.3192
2468.00,0.3189
2467.00,0.3187
2466.00,0.3184
2465.00,0.3181
2464.00,0.3179
2463.00,0.3176
2462.00,0.3174
2461.00,0.3172
2460.00,0.3170
2459.00,0.3167
2458.00,0.3165
2457.00,0.3163
2456.00,0.3162
2455.00,0.3161
2454.00,0.3160
2453.00,0.3158
2452.00,0.3157
2451.00,0.3156
2450.00,0.3155
2449.00,0.3154
2448.00,0.3154
2447.00,0.3154
2446.00,0.3153
2445.00,0.3153
2444.00,0.3154
2443.00,0.3154
2442.00,0.3155
2441.00,0.3155
2440.00,0.3155
2439.00,0.3156
2438.00,0.3156
2437.00,0.3157
2436.00,0.3158
2435.00,0.3160
2434.00,0.3161
2433.00,0.3162
2432.00,0.3163
2431.00,0.3164
2430.00,0.3165
2429.00,0.3166
2428.00,0.3167
2427.00,0.3168
2426.00,0.3169
2425.00,0.3170
2424.00,0.3171
2423.00,0.3172
2422.00,0.3173
2421.00,0.3174
2420.00,0.3175
2419.00,0.3175
2418.00,0.3175
2417.00,0.3176
2416.00,0.3176
2415.00,0.3177
2414.00,0.3177
2413.00,0.3178
2412.00,0.3179
2411.00,0.3179
2410.00,0.3180
2409.00,0.3180
2408.00,0.3181
2407.00,0.3181
2406.00,0.3182
2405.00,0.3182
2404.00,0.3182
2403.00,0.3182
2402.00,0.3182
2401.00,0.3182
2400.00,0.3182
2399.00,0.3182
2398.00,0.3182
2397.00,0.3182
2396.00,0.3181
2395.00,0.3181
2394.00,0.3181
2393.00,0.3180
2392.00,0.3181
2391.00,0.3181
2390.00,0.3182
2389.00,0.3182
2388.00,0.3182
2387.00,0.3182
2386.00,0.3182
2385.00,0.3183
2384.00,0.3183
2383.00,0.3184
2382.00,0.3185
2381.00,0.3186
2380.00,0.3187
2379.00,0.3187
2378.00,0.3188
2377.00,0.3188
2376.00,0.3188
2375.00,0.3187
2374.00,0.3186
2373.00,0.3184
2372.00,0.3183
2371.00,0.3182
2370.00,0.3181
2369.00,0.3182
2368.00,0.3182
2367.00,0.3182
2366.00,0.3182
2365.00,0.3181
2364.00,0.3180
2363.00,0.3179
2362.00,0.3179
2361.00,0.3179
2360.00,0.3180
2359.00,0.3179
2358.00,0.3177
2357.00,0.3176
2356.00,0.3175
2355.00,0.3174
2354.00,0.3174
2353.00,0.3175
2352.00,0.3174
2351.00,0.3172
2350.00,0.3170
2349.00,0.3168
2348.00,0.3167
2347.00,0.3167
2346.00,0.3167
2345.00,0.3166
2344.00,0.3164
2343.00,0.3161
2342.00,0.3160
2341.00,0.3159
2340.00,0.3158
2339.00,0.3158
2338.00,0.3157
2337.00,0.3156
2336.00,0.3154
2335.00,0.3152
2334.00,0.3150
2333.00,0.3148
2332.00,0.3147
2331.00,0.3145
2330.00,0.3142
2329.00,0.3139
2328.00,0.3136
2327.00,0.3133
2326.00,0.3130
2325.00,0.3128
2324.00,0.3126
2323.00,0.3125
2322.00,0.3123
2321.00,0.3121
2320.00,0.3117
2319.00,0.3114
2318.00,0.3110
2317.00,0.3107
2316.00,0.3104
2315.00,0.3102
2314.00,0.3100
2313.00,0.3097
2312.00,0.3094
2311.00,0.3091
2310.00,0.3087
2309.00,0.3083
2308.00,0.3079
2307.00,0.3075
2306.00,0.3072
2305.00,0.3069
2304.00,0.3066
2303.00,0.3063
2302.00,0.3061
2301.00,0.3059
2300.00,0.3057
2299.00,0.3055
2298.00,0.3054
2297.00,0.3052
2296.00,0.3050
2295.00,0.3047
2294.00,0.3044
2293.00,0.3041
2292.00,0.3038
2291.00,0.3035
2290.00,0.3031
2289.00,0.3028
2288.00,0.3025
2287.00,0.3021
2286.00,0.3018
2285.00,0.3015
2284.00,0.3012
2283.00,0.3009
2282.00,0.3005
2281.00,0.3001
2280.00,0.2997
2279.00,0.2992
2278.00,0.2989
2277.00,0.2985
2276.00,0.2982
2275.00,0.2979
2274.00,0.2976
2273.00,0.2974
2272.00,0.2972
2271.00,0.2971
2270.00,0.2969
2269.00,0.2968
2268.00,0.2966
2267.00,0.2964
2266.00,0.2963
2265.00,0.2962
2264.00,0.2961
2263.00,0.2960
2262.00,0.2958
2261.00,0.2956
2260.00,0.2954
2259.00,0.2951
2258.00,0.2948
2257.00,0.2945
2256.00,0.2941
2255.00,0.2938
2254.00,0.2935
2253.00,0.2933
2252.00,0.2931
2251.00,0.2928
2250.00,0.2925
2249.00,0.2923
2248.00,0.2920
2247.00,0.2918
2246.00,0.2916
2245.00,0.2914
2244.00,0.2912
2243.00,0.2909
2242.00,0.2907
2241.00,0.2905
2240.00,0.2904
2239.00,0.2902
2238.00,0.2901
2237.00,0.2900
2236.00,0.2899
2235.00,0.2898
2234.00,0.2896
2233.00,0.2895
2232.00,0.2894
2231.00,0.2893
2230.00,0.2892
2229.00,0.2891
2228.00,0.2890
2227.00,0.2888
2226.00,0.2887
2225.00,0.2885
2224.00,0.2883
2223.00,0.2882
2222.00,0.2881
2221.00,0.2880
2220.00,0.2879
2219.00,0.2878
2218.00,0.2877
2217.00,0.2876
2216.00,0.2875
2215.00,0.2874
2214.00,0.2874
2213.00,0.2873
2212.00,0.2873
2211.00,0.2873
2210.00,0.2872
2209.00,0.2872
2208.00,0.2872
2207.00,0.2872
2206.00,0.2873
2205.00,0.2873
2204.00,0.2873
2203.00,0.2873
2202.00,0.2873
2201.00,0.2874
2200.00,0.2875
2199.00,0.2876
2198.00,0.2877
2197.00,0.2877
2196.00,0.2878
2195.00,0.2878
2194.00,0.2879
2193.00,0.2880
2192.00,0.2881
2191.00,0.2882
2190.00,0.2882
2189.00,0.2882
2188.00,0.2882
2187.00,0.2883
2186.00,0.2883
2185.00,0.2883
2184.00,0.2882
2183.00,0.2882
2182.00,0.2881
2181.00,0.2880
2180.00,0.2879
2179.00,0.2878
2178.00,0.2877
2177.00,0.2876
2176.00,0.2875
2175.00,0.2873
2174.00,0.2872
2173.00,0.2872
2172.00,0.2872
2171.00,0.2872
2170.00,0.2872
2169.00,0.2871
2168.00,0.2871
2167.00,0.2870
2166.00,0.2869
2165.00,0.2868
2164.00,0.2868
2163.00,0.2867
2162.00,0.2867
2161.00,0.2866
2160.00,0.2865
2159.00,0.2864
2158.00,0.2862
2157.00,0.2861
2156.00,0.2859
2155.00,0.2857
2154.00,0.2856
2153.00,0.2855
2152.00,0.2853
2151.00,0.2851
2150.00,0.2847
2149.00,0.2844
2148.00,0.2840
2147.00,0.2836
2146.00,0.2832
2145.00,0.2827
2144.00,0.2822
2143.00,0.2816
2142.00,0.2810
2141.00,0.2805
2140.00,0.2800
2139.00,0.2796
2138.00,0.2792
2137.00,0.2789
2136.00,0.2786
2135.00,0.2784
2134.00,0.2781
2133.00,0.2779
2132.00,0.2777
2131.00,0.2776
2130.00,0.2774
2129.00,0.2772
2128.00,0.2771
2127.00,0.2770
2126.00,0.2769
2125.00,0.2767
2124.00,0.2766
2123.00,0.2764
2122.00,0.2763
2121.00,0.2763
2120.00,0.2762
2119.00,0.2761
2118.00,0.2760
2117.00,0.2759
2116.00,0.2757
2115.00,0.2756
2114.00,0.2755
2113.00,0.2754
2112.00,0.2752
2111.00,0.2750
2110.00,0.2748
2109.00,0.2747
2108.00,0.2745
2107.00,0.2744
2106.00,0.2743
2105.00,0.2743
2104.00,0.2743
2103.00,0.2742
2102.00,0.2742
2101.00,0.2741
2100.00,0.2740
2099.00,0.2740
2098.00,0.2739
2097.00,0.2739
2096.00,0.2739
2095.00,0.2739
2094.00,0.2739
2093.00,0.2739
2092.00,0.2740
2091.00,0.2741
2090.00,0.2740
2089.00,0.2740
2088.00,0.2740
2087.00,0.2739
2086.00,0.2739
2085.00,0.2739
2084.00,0.2739
2083.00,0.2739
2082.00,0.2738
2081.00,0.2738
2080.00,0.2738
2079.00,0.2737
2078.00,0.2737
2077.00,0.2736
2076.00,0.2736
2075.00,0.2736
2074.00,0.2736
2073.00,0.2737
2072.00,0.2737
2071.00,0.2737
2070.00,0.2737
2069.00,0.2738
2068.00,0.2740
2067.00,0.2742
2066.00,0.2744
2065.00,0.2746
2064.00,0.2748
2063.00,0.2750
2062.00,0.2752
2061.00,0.2754
2060.00,0.2756
2059.00,0.2757
2058.00,0.2759
2057.00,0.2761
2056.00,0.2763
2055.00,0.2764
2054.00,0.2766
2053.00,0.2768
2052.00,0.2770
2051.00,0.2772
2050.00,0.2774
2049.00,0.2776
2048.00,0.2779
2047.00,0.2781
2046.00,0.2783
2045.00,0.2785
2044.00,0.2787
2043.00,0.2788
2042.00,0.2789
2041.00,0.2790
2040.00,0.2792
2039.00,0.2793
2038.00,0.2794
2037.00,0.2795
2036.00,0.2796
2035.00,0.2797
2034.00,0.2798
2033.00,0.2799
2032.00,0.2800
2031.00,0.2800
2030.00,0.2800
2029.00,0.2801
2028.00,0.2801
2027.00,0.2802
2026.00,0.2803
2025.00,0.2803
2024.00,0.2802
2023.00,0.2801
2022.00,0.2799
2021.00,0.2796
2020.00,0.2791
2019.00,0.2785
2018.00,0.2778
2017.00,0.2771
2016.00,0.2764
2015.00,0.2757
2014.00,0.2750
2013.00,0.2743
2012.00,0.2737
2011.00,0.2730
2010.00,0.2723
2009.00,0.2717
2008.00,0.2711
2007.00,0.2706
2006.00,0.2702
2005.00,0.2698
2004.00,0.2695
2003.00,0.2693
2002.00,0.2690
2001.00,0.2688
2000.00,0.2686
1999.00,0.2684
1998.00,0.2682
1997.00,0.2681
1996.00,0.2681
1995.00,0.2680
1994.00,0.2679
1993.00,0.2679
1992.00,0.2678
1991.00,0.2678
1990.00,0.2678
1989.00,0.2678
1988.00,0.2677
1987.00,0.2676
1986.00,0.2677
1985.00,0.2677
1984.00,0.2678
1983.00,0.2677
1982.00,0.2676
1981.00,0.2676
1980.00,0.2676
1979.00,0.2675
1978.00,0.2675
1977.00,0.2674
1976.00,0.2674
1975.00,0.2673
1974.00,0.2672
1973.00,0.2671
1972.00,0.2671
1971.00,0.2671
1970.00,0.2671
1969.00,0.2670
1968.00,0.2669
1967.00,0.2669
1966.00,0.2669
1965.00,0.2670
1964.00,0.2670
1963.00,0.2670
1962.00,0.2671
1961.00,0.2672
1960.00,0.2673
1959.00,0.2675
1958.00,0.2676
1957.00,0.2677
1956.00,0.2679
1955.00,0.2681
1954.00,0.2684
1953.00,0.2686
1952.00,0.2688
1951.00,0.2689
1950.00,0.2690
1949.00,0.2692
1948.00,0.2693
1947.00,0.2694
1946.00,0.2696
1945.00,0.2700
1944.00,0.2703
1943.00,0.2706
1942.00,0.2711
1941.00,0.2716
1940.00,0.2722
1939.00,0.2724
1938.00,0.2725
1937.00,0.2724
1936.00,0.2724
1935.00,0.2723
1934.00,0.2723
1933.00,0.2722
1932.00,0.2722
1931.00,0.2722
1930.00,0.2722
1929.00,0.2722
1928.00,0.2722
1927.00,0.2723
1926.00,0.2723
1925.00,0.2724
1924.00,0.2723
1923.00,0.2724
1922.00,0.2727
1921.00,0.2733
1920.00,0.2739
1919.00,0.2743
1918.00,0.2747
1917.00,0.2750
1916.00,0.2754
1915.00,0.2755
1914.00,0.2754
1913.00,0.2754
1912.00,0.2754
1911.00,0.2755
1910.00,0.2755
1909.00,0.2756
1908.00,0.2758
1907.00,0.2760
1906.00,0.2762
1905.00,0.2762
1904.00,0.2762
1903.00,0.2762
1902.00,0.2762
1901.00,0.2763
1900.00,0.2763
1899.00,0.2763
1898.00,0.2763
1897.00,0.2762
1896.00,0.2762
1895.00,0.2762
1894.00,0.2763
1893.00,0.2764
1892.00,0.2765
1891.00,0.2766
1890.00,0.2767
1889.00,0.2768
1888.00,0.2769
1887.00,0.2770
1886.00,0.2771
1885.00,0.2772
1884.00,0.2772
1883.00,0.2772
1882.00,0.2773
1881.00,0.2774
1880.00,0.2774
1879.00,0.2774
1878.00,0.2773
1877.00,0.2772
1876.00,0.2772
1875.00,0.2770
1874.00,0.2769
1873.00,0.2768
1872.00,0.2768
1871.00,0.2768
1870.00,0.2765
1869.00,0.2760
1868.00,0.2756
1867.00,0.2754
1866.00,0.2752
1865.00,0.2750
1864.00,0.2747
1863.00,0.2743
1862.00,0.2739
1861.00,0.2735
1860.00,0.2731
1859.00,0.2728
1858.00,0.2724
1857.00,0.2721
1856.00,0.2719
1855.00,0.2716
1854.00,0.2714
1853.00,0.2712
1852.00,0.2711
1851.00,0.2709
1850.00,0.2707
1849.00,0.2706
1848.00,0.2706
1847.00,0.2709
1846.00,0.2713
1845.00,0.2714
1844.00,0.2719
1843.00,0.2709
1842.00,0.2700
1841.00,0.2702
1840.00,0.2701
1839.00,0.2702
1838.00,0.2702
1837.00,0.2702
1836.00,0.2703
1835.00,0.2703
1834.00,0.2703
1833.00,0.2703
1832.00,0.2704
1831.00,0.2704
1830.00,0.2704
1829.00,0.2702
1828.00,0.2701
1827.00,0.2700
1826.00,0.2700
1825.00,0.2700
1824.00,0.2699
1823.00,0.2699
1822.00,0.2698
1821.00,0.2699
1820.00,0.2700
1819.00,0.2699
1818.00,0.2700
1817.00,0.2701
1816.00,0.2703
1815.00,0.2705
1814.00,0.2706
1813.00,0.2707
1812.00,0.2707
1811.00,0.2708
1810.00,0.2711
1809.00,0.2717
1808.00,0.2723
1807.00,0.2729
1806.00,0.2735
1805.00,0.2743
1804.00,0.2751
1803.00,0.2760
1802.00,0.2768
1801.00,0.2774
1800.00,0.2779
1799.00,0.2784
1798.00,0.2788
1797.00,0.2792
1796.00,0.2796
1795.00,0.2801
1794.00,0.2807
1793.00,0.2813
1792.00,0.2816
1791.00,0.2824
1790.00,0.2818
1789.00,0.2814
1788.00,0.2819
1787.00,0.2821
1786.00,0.2824
1785.00,0.2826
1784.00,0.2830
1783.00,0.2833
1782.00,0.2836
1781.00,0.2840
1780.00,0.2845
1779.00,0.2850
1778.00,0.2854
1777.00,0.2860
1776.00,0.2865
1775.00,0.2870
1774.00,0.2874
1773.00,0.2882
1772.00,0.2891
1771.00,0.2901
1770.00,0.2915
1769.00,0.2925
1768.00,0.2932
1767.00,0.2937
1766.00,0.2941
1765.00,0.2947
1764.00,0.2953
1763.00,0.2961
1762.00,0.2970
1761.00,0.2983
1760.00,0.2997
1759.00,0.3009
1758.00,0.3021
1757.00,0.3035
1756.00,0.3054
1755.00,0.3078
1754.00,0.3106
1753.00,0.3139
1752.00,0.3181
1751.00,0.3230
1750.00,0.3284
1749.00,0.3343
1748.00,0.3410
1747.00,0.3485
1746.00,0.3565
1745.00,0.3645
1744.00,0.3720
1743.00,0.3784
1742.00,0.3830
1741.00,0.3854
1740.00,0.3852
1739.00,0.3827
1738.00,0.3792
1737.00,0.3751
1736.00,0.3702
1735.00,0.3637
1734.00,0.3561
1733.00,0.3495
1732.00,0.3442
1731.00,0.3392
1730.00,0.3348
1729.00,0.3316
1728.00,0.3295
1727.00,0.3281
1726.00,0.3271
1725.00,0.3264
1724.00,0.3261
1723.00,0.3262
1722.00,0.3268
1721.00,0.3278
1720.00,0.3292
1719.00,0.3304
1718.00,0.3315
1717.00,0.3331
1716.00,0.3350
1715.00,0.3367
1714.00,0.3381
1713.00,0.3397
1712.00,0.3414
1711.00,0.3431
1710.00,0.3449
1709.00,0.3468
1708.00,0.3485
1707.00,0.3495
1706.00,0.3497
1705.00,0.3496
1704.00,0.3496
1703.00,0.3497
1702.00,0.3495
1701.00,0.3479
1700.00,0.3453
1699.00,0.3429
1698.00,0.3406
1697.00,0.3380
1696.00,0.3355
1695.00,0.3338
1694.00,0.3327
1693.00,0.3312
1692.00,0.3294
1691.00,0.3278
1690.00,0.3267
1689.00,0.3263
1688.00,0.3267
1687.00,0.3273
1686.00,0.3282
1685.00,0.3270
1684.00,0.3257
1683.00,0.3256
1682.00,0.3253
1681.00,0.3255
1680.00,0.3258
1679.00,0.3261
1678.00,0.3266
1677.00,0.3272
1676.00,0.3282
1675.00,0.3286
1674.00,0.3306
1673.00,0.3322
1672.00,0.3323
1671.00,0.3328
1670.00,0.3334
1669.00,0.3350
1668.00,0.3369
1667.00,0.3385
1666.00,0.3396
1665.00,0.3407
1664.00,0.3421
1663.00,0.3436
1662.00,0.3456
1661.00,0.3480
1660.00,0.3503
1659.00,0.3523
1658.00,0.3544
1657.00,0.3571
1656.00,0.3609
1655.00,0.3650
1654.00,0.3695
1653.00,0.3734
1652.00,0.3798
1651.00,0.3789
1650.00,0.3784
1649.00,0.3826
1648.00,0.3857
1647.00,0.3901
1646.00,0.3941
1645.00,0.3984
1644.00,0.4026
1643.00,0.4066
1642.00,0.4106
1641.00,0.4146
1640.00,0.4185
1639.00,0.4225
1638.00,0.4266
1637.00,0.4309
1636.00,0.4357
1635.00,0.4409
1634.00,0.4459
1633.00,0.4498
1632.00,0.4528
1631.00,0.4557
1630.00,0.4591
1629.00,0.4631
1628.00,0.4677
1627.00,0.4726
1626.00,0.4777
1625.00,0.4832
1624.00,0.4891
1623.00,0.4956
1622.00,0.5029
1621.00,0.5109
1620.00,0.5193
1619.00,0.5284
1618.00,0.5392
1617.00,0.5528
1616.00,0.5687
1615.00,0.5847
1614.00,0.6003
1613.00,0.6171
1612.00,0.6363
1611.00,0.6574
1610.00,0.6792
1609.00,0.7007
1608.00,0.7207
1607.00,0.7378
1606.00,0.7520
1605.00,0.7653
1604.00,0.7798
1603.00,0.7962
1602.00,0.8157
1601.00,0.8404
1600.00,0.8715
1599.00,0.9089
1598.00,0.9538
1597.00,1.0094
1596.00,1.0793
1595.00,1.1652
1594.00,1.2697
1593.00,1.3991
1592.00,1.5610
1591.00,1.7569
1590.00,1.9834
1589.00,2.2522
1588.00,2.6030
1587.00,3.0556
1586.00,3.3902
1585.00,3.5920
1584.00,3.6833
1583.00,3.6380
1582.00,3.8567
1581.00,3.6484
1580.00,3.4444
1579.00,3.0154
1578.00,2.5356
1577.00,2.1796
1576.00,1.9130
1575.00,1.7153
1574.00,1.5742
1573.00,1.4762
1572.00,1.4089
1571.00,1.3661
1570.00,1.3511
1569.00,1.3714
1568.00,1.4282
1567.00,1.5176
1566.00,1.6405
1565.00,1.8074
1564.00,2.0238
1563.00,2.2617
1562.00,2.4460
1561.00,2.5067
1560.00,2.3635
1559.00,2.0511
1558.00,1.7718
1557.00,1.5728
1556.00,1.4134
1555.00,1.2693
1554.00,1.1456
1553.00,1.0512
1552.00,0.9833
1551.00,0.9328
1550.00,0.8945
1549.00,0.8686
1548.00,0.8544
1547.00,0.8490
1546.00,0.8502
1545.00,0.8572
1544.00,0.8690
1543.00,0.8829
1542.00,0.8951
1541.00,0.9016
1540.00,0.8982
1539.00,0.8847
1538.00,0.8650
1537.00,0.8429
1536.00,0.8192
1535.00,0.7925
1534.00,0.7631
1533.00,0.7358
1532.00,0.7143
1531.00,0.6980
1530.00,0.6853
1529.00,0.6757
1528.00,0.6686
1527.00,0.6625
1526.00,0.6571
1525.00,0.6532
1524.00,0.6513
1523.00,0.6515
1522.00,0.6547
1521.00,0.6619
1520.00,0.6717
1519.00,0.6808
1518.00,0.6886
1517.00,0.6953
1516.00,0.6992
1515.00,0.6977
1514.00,0.6896
1513.00,0.6761
1512.00,0.6595
1511.00,0.6424
1510.00,0.6275
1509.00,0.6156
1508.00,0.6065
1507.00,0.5997
1506.00,0.5975
1505.00,0.5990
1504.00,0.6008
1503.00,0.6021
1502.00,0.6041
1501.00,0.6077
1500.00,0.6128
1499.00,0.6189
1498.00,0.6262
1497.00,0.6357
1496.00,0.6471
1495.00,0.6585
1494.00,0.6694
1493.00,0.6811
1492.00,0.6949
1491.00,0.7108
1490.00,0.7291
1489.00,0.7503
1488.00,0.7738
1487.00,0.7992
1486.00,0.8271
1485.00,0.8583
1484.00,0.8930
1483.00,0.9313
1482.00,0.9745
1481.00,1.0242
1480.00,1.0800
1479.00,1.1417
1478.00,1.2128
1477.00,1.2982
1476.00,1.3995
1475.00,1.5170
1474.00,1.6590
1473.00,1.8452
1472.00,2.0920
1471.00,2.3935
1470.00,2.7287
1469.00,3.0902
1468.00,3.4506
1467.00,3.6498
1466.00,3.7519
1465.00,3.9218
1464.00,4.1215
1463.00,4.0757
1462.00,3.8730
1461.00,3.9664
1460.00,4.0413
1459.00,4.0469
1458.00,4.3663
1457.00,4.0706
1456.00,3.6814
1455.00,3.6029
1454.00,3.6610
1453.00,3.7466
1452.00,3.8456
1451.00,4.1985
1450.00,5.5806
1449.00,4.2295
1448.00,3.9510
1447.00,4.1203
1446.00,4.1336
1445.00,4.0548
1444.00,3.8336
1443.00,3.4719
1442.00,3.2508
1441.00,3.1169
1440.00,2.9632
1439.00,2.7658
1438.00,2.5662
1437.00,2.3772
1436.00,2.1964
1435.00,2.0322
1434.00,1.8879
1433.00,1.7559
1432.00,1.6304
1431.00,1.5135
1430.00,1.4105
1429.00,1.3239
1428.00,1.2535
1427.00,1.1975
1426.00,1.1529
1425.00,1.1171
1424.00,1.0893
1423.00,1.0695
1422.00,1.0564
1421.00,1.0479
1420.00,1.0429
1419.00,1.0413
1418.00,1.0437
1417.00,1.0501
1416.00,1.0603
1415.00,1.0739
1414.00,1.0897
1413.00,1.1054
1412.00,1.1183
1411.00,1.1250
1410.00,1.1236
1409.00,1.1137
1408.00,1.0959
1407.00,1.0707
1406.00,1.0392
1405.00,1.0032
1404.00,0.9660
1403.00,0.9308
1402.00,0.8989
1401.00,0.8701
1400.00,0.8444
1399.00,0.8231
1398.00,0.8069
1397.00,0.7957
1396.00,0.7880
1395.00,0.7830
1394.00,0.7805
1393.00,0.7811
1392.00,0.7866
1391.00,0.7991
1390.00,0.8211
1389.00,0.8556
1388.00,0.9060
1387.00,0.9735
1386.00,1.0549
1385.00,1.1456
1384.00,1.2448
1383.00,1.3554
1382.00,1.4810
1381.00,1.6243
1380.00,1.7853
1379.00,1.9498
1378.00,2.0762
1377.00,2.1163
1376.00,2.0617
1375.00,1.9416
1374.00,1.7961
1373.00,1.6594
1372.00,1.5469
1371.00,1.4604
1370.00,1.3981
1369.00,1.3578
1368.00,1.3349
1367.00,1.3187
1366.00,1.2953
1365.00,1.2547
1364.00,1.1967
1363.00,1.1305
1362.00,1.0675
1361.00,1.0153
1360.00,0.9750
1359.00,0.9448
1358.00,0.9227
1357.00,0.9074
1356.00,0.8980
1355.00,0.8937
1354.00,0.8933
1353.00,0.8955
1352.00,0.8990
1351.00,0.9037
1350.00,0.9099
1349.00,0.9194
1348.00,0.9336
1347.00,0.9525
1346.00,0.9730
1345.00,0.9886
1344.00,0.9925
1343.00,0.9815
1342.00,0.9582
1341.00,0.9285
1340.00,0.8973
1339.00,0.8672
1338.00,0.8391
1337.00,0.8131
1336.00,0.7895
1335.00,0.7685
1334.00,0.7504
1333.00,0.7350
1332.00,0.7225
1331.00,0.7129
1330.00,0.7062
1329.00,0.7022
1328.00,0.7007
1327.00,0.7010
1326.00,0.7026
1325.00,0.7048
1324.00,0.7072
1323.00,0.7097
1322.00,0.7122
1321.00,0.7150
1320.00,0.7182
1319.00,0.7220
1318.00,0.7264
1317.00,0.7314
1316.00,0.7369
1315.00,0.7428
1314.00,0.7491
1313.00,0.7559
1312.00,0.7632
1311.00,0.7709
1310.00,0.7786
1309.00,0.7856
1308.00,0.7912
1307.00,0.7945
1306.00,0.7951
1305.00,0.7933
1304.00,0.7901
1303.00,0.7863
1302.00,0.7829
1301.00,0.7801
1300.00,0.7778
1299.00,0.7751
1298.00,0.7712
1297.00,0.7659
1296.00,0.7596
1295.00,0.7529
1294.00,0.7464
1293.00,0.7398
1292.00,0.7325
1291.00,0.7239
1290.00,0.7142
1289.00,0.7039
1288.00,0.6940
1287.00,0.6851
1286.00,0.6773
1285.00,0.6709
1284.00,0.6660
1283.00,0.6635
1282.00,0.6641
1281.00,0.6678
1280.00,0.6738
1279.00,0.6795
1278.00,0.6815
1277.00,0.6775
1276.00,0.6677
1275.00,0.6549
1274.00,0.6421
1273.00,0.6312
1272.00,0.6229
1271.00,0.6172
1270.00,0.6132
1269.00,0.6103
1268.00,0.6075
1267.00,0.6043
1266.00,0.6004
1265.00,0.5961
1264.00,0.5920
1263.00,0.5886
1262.00,0.5859
1261.00,0.5840
1260.00,0.5831
1259.00,0.5832
1258.00,0.5842
1257.00,0.5857
1256.00,0.5875
1255.00,0.5897
1254.00,0.5920
1253.00,0.5944
1252.00,0.5962
1251.00,0.5969
1250.00,0.5962
1249.00,0.5943
1248.00,0.5916
1247.00,0.5883
1246.00,0.5848
1245.00,0.5809
1244.00,0.5772
1243.00,0.5738
1242.00,0.5707
1241.00,0.5676
1240.00,0.5642
1239.00,0.5612
1238.00,0.5593
1237.00,0.5593
1236.00,0.5615
1235.00,0.5659
1234.00,0.5717
1233.00,0.5780
1232.00,0.5837
1231.00,0.5878
1230.00,0.5891
1229.00,0.5869
1228.00,0.5810
1227.00,0.5723
1226.00,0.5619
1225.00,0.5512
1224.00,0.5415
1223.00,0.5336
1222.00,0.5276
1221.00,0.5234
1220.00,0.5205
1219.00,0.5189
1218.00,0.5184
1217.00,0.5188
1216.00,0.5197
1215.00,0.5209
1214.00,0.5220
1213.00,0.5227
1212.00,0.5225
1211.00,0.5212
1210.00,0.5188
1209.00,0.5151
1208.00,0.5106
1207.00,0.5059
1206.00,0.5018
1205.00,0.4989
1204.00,0.4976
1203.00,0.4986
1202.00,0.5018
1201.00,0.5062
1200.00,0.5102
1199.00,0.5120
1198.00,0.5109
1197.00,0.5078
1196.00,0.5045
1195.00,0.5026
1194.00,0.5029
1193.00,0.5049
1192.00,0.5080
1191.00,0.5113
1190.00,0.5135
1189.00,0.5137
1188.00,0.5121
1187.00,0.5091
1186.00,0.5059
1185.00,0.5030
1184.00,0.5008
1183.00,0.4992
1182.00,0.4978
1181.00,0.4965
1180.00,0.4953
1179.00,0.4943
1178.00,0.4938
1177.00,0.4938
1176.00,0.4944
1175.00,0.4959
1174.00,0.4983
1173.00,0.5015
1172.00,0.5051
1171.00,0.5087
1170.00,0.5117
1169.00,0.5137
1168.00,0.5148
1167.00,0.5152
1166.00,0.5152
1165.00,0.5152
1164.00,0.5154
1163.00,0.5161
1162.00,0.5172
1161.00,0.5185
1160.00,0.5198
1159.00,0.5209
1158.00,0.5219
1157.00,0.5226
1156.00,0.5231
1155.00,0.5236
1154.00,0.5239
1153.00,0.5240
1152.00,0.5237
1151.00,0.5234
1150.00,0.5228
1149.00,0.5221
1148.00,0.5212
1147.00,0.5203
1146.00,0.5194
1145.00,0.5187
1144.00,0.5185
1143.00,0.5191
1142.00,0.5206
1141.00,0.5232
1140.00,0.5267
1139.00,0.5314
1138.00,0.5371
1137.00,0.5440
1136.00,0.5520
1135.00,0.5602
1134.00,0.5669
1133.00,0.5698
1132.00,0.5680
1131.00,0.5621
1130.00,0.5541
1129.00,0.5467
1128.00,0.5419
1127.00,0.5403
1126.00,0.5408
1125.00,0.5415
1124.00,0.5406
1123.00,0.5375
1122.00,0.5331
1121.00,0.5288
1120.00,0.5257
1119.00,0.5246
1118.00,0.5256
1117.00,0.5283
1116.00,0.5317
1115.00,0.5342
1114.00,0.5343
1113.00,0.5309
1112.00,0.5244
1111.00,0.5159
1110.00,0.5071
1109.00,0.4993
1108.00,0.4933
1107.00,0.4895
1106.00,0.4879
1105.00,0.4883
1104.00,0.4906
1103.00,0.4946
1102.00,0.4997
1101.00,0.5051
1100.00,0.5097
1099.00,0.5121
1098.00,0.5114
1097.00,0.5082
1096.00,0.5039
1095.00,0.4998
1094.00,0.4966
1093.00,0.4942
1092.00,0.4922
1091.00,0.4904
1090.00,0.4888
1089.00,0.4873
1088.00,0.4867
1087.00,0.4872
1086.00,0.4891
1085.00,0.4924
1084.00,0.4970
1083.00,0.5030
1082.00,0.5099
1081.00,0.5174
1080.00,0.5247
1079.00,0.5309
1078.00,0.5348
1077.00,0.5357
1076.00,0.5333
1075.00,0.5279
1074.00,0.5206
1073.00,0.5123
1072.00,0.5043
1071.00,0.4972
1070.00,0.4913
1069.00,0.4865
1068.00,0.4827
1067.00,0.4796
1066.00,0.4771
1065.00,0.4750
1064.00,0.4734
1063.00,0.4720
1062.00,0.4709
1061.00,0.4698
1060.00,0.4686
1059.00,0.4671
1058.00,0.4653
1057.00,0.4632
1056.00,0.4610
1055.00,0.4588
1054.00,0.4565
1053.00,0.4541
1052.00,0.4519
1051.00,0.4503
1050.00,0.4493
1049.00,0.4489
1048.00,0.4490
1047.00,0.4494
1046.00,0.4496
1045.00,0.4496
1044.00,0.4491
1043.00,0.4486
1042.00,0.4484
1041.00,0.4485
1040.00,0.4489
1039.00,0.4497
1038.00,0.4505
1037.00,0.4513
1036.00,0.4525
1035.00,0.4543
1034.00,0.4570
1033.00,0.4604
1032.00,0.4644
1031.00,0.4685
1030.00,0.4723
1029.00,0.4751
1028.00,0.4764
1027.00,0.4756
1026.00,0.4723
1025.00,0.4670
1024.00,0.4604
1023.00,0.4538
1022.00,0.4476
1021.00,0.4423
1020.00,0.4380
1019.00,0.4348
1018.00,0.4328
1017.00,0.4316
1016.00,0.4309
1015.00,0.4304
1014.00,0.4300
1013.00,0.4294
1012.00,0.4285
1011.00,0.4276
1010.00,0.4271
1009.00,0.4272
1008.00,0.4282
1007.00,0.4297
1006.00,0.4316
1005.00,0.4334
1004.00,0.4349
1003.00,0.4360
1002.00,0.4370
1001.00,0.4378
1000.00,0.4384
999.00,0.4388
998.00,0.4388
997.00,0.4382
996.00,0.4371
995.00,0.4356
994.00,0.4339
993.00,0.4322
992.00,0.4307
991.00,0.4293
990.00,0.4281
989.00,0.4269
988.00,0.4256
987.00,0.4242
986.00,0.4229
985.00,0.4222
984.00,0.4226
983.00,0.4242
982.00,0.4270
981.00,0.4309
980.00,0.4357
979.00,0.4417
978.00,0.4494
977.00,0.4600
976.00,0.4751
975.00,0.4961
974.00,0.5247
973.00,0.5625
972.00,0.6105
971.00,0.6682
970.00,0.7299
969.00,0.7839
968.00,0.8137
967.00,0.8082
966.00,0.7709
965.00,0.7159
964.00,0.6577
963.00,0.6050
962.00,0.5621
961.00,0.5309
960.00,0.5116
959.00,0.5032
958.00,0.5027
957.00,0.5057
956.00,0.5078
955.00,0.5058
954.00,0.4988
953.00,0.4880
952.00,0.4754
951.00,0.4631
950.00,0.4526
949.00,0.4444
948.00,0.4387
947.00,0.4356
946.00,0.4345
945.00,0.4353
944.00,0.4374
943.00,0.4405
942.00,0.4441
941.00,0.4476
940.00,0.4503
939.00,0.4521
938.00,0.4525
937.00,0.4518
936.00,0.4504
935.00,0.4485
934.00,0.4464
933.00,0.4439
932.00,0.4410
931.00,0.4379
930.00,0.4349
929.00,0.4323
928.00,0.4305
927.00,0.4300
926.00,0.4310
925.00,0.4337
924.00,0.4381
923.00,0.4437
922.00,0.4492
921.00,0.4526
920.00,0.4525
919.00,0.4484
918.00,0.4411
917.00,0.4322
916.00,0.4234
915.00,0.4157
914.00,0.4096
913.00,0.4051
912.00,0.4020
911.00,0.4001
910.00,0.3992
909.00,0.3991
908.00,0.4002
907.00,0.4029
906.00,0.4072
905.00,0.4121
904.00,0.4162
903.00,0.4179
902.00,0.4168
901.00,0.4139
900.00,0.4112
899.00,0.4101
898.00,0.4107
897.00,0.4127
896.00,0.4154
895.00,0.4188
894.00,0.4227
893.00,0.4270
892.00,0.4315
891.00,0.4361
890.00,0.4399
889.00,0.4422
888.00,0.4423
887.00,0.4403
886.00,0.4369
885.00,0.4331
884.00,0.4297
883.00,0.4272
882.00,0.4258
881.00,0.4254
880.00,0.4255
879.00,0.4259
878.00,0.4262
877.00,0.4266
876.00,0.4271
875.00,0.4277
874.00,0.4282
873.00,0.4285
872.00,0.4287
871.00,0.4291
870.00,0.4298
869.00,0.4308
868.00,0.4322
867.00,0.4345
866.00,0.4380
865.00,0.4427
864.00,0.4477
863.00,0.4518
862.00,0.4535
861.00,0.4516
860.00,0.4463
859.00,0.4387
858.00,0.4305
857.00,0.4233
856.00,0.4177
855.00,0.4137
854.00,0.4111
853.00,0.4094
852.00,0.4082
851.00,0.4073
850.00,0.4064
849.00,0.4052
848.00,0.4038
847.00,0.4023
846.00,0.4009
845.00,0.3998
844.00,0.3993
843.00,0.3995
842.00,0.4011
841.00,0.4045
840.00,0.4103
839.00,0.4185
838.00,0.4282
837.00,0.4370
836.00,0.4424
835.00,0.4429
834.00,0.4390
833.00,0.4326
832.00,0.4265
831.00,0.4229
830.00,0.4227
829.00,0.4257
828.00,0.4308
827.00,0.4371
826.00,0.4440
825.00,0.4513
824.00,0.4590
823.00,0.4666
822.00,0.4731
821.00,0.4773
820.00,0.4789
819.00,0.4781
818.00,0.4756
817.00,0.4721
816.00,0.4681
815.00,0.4642
814.00,0.4601
813.00,0.4556
812.00,0.4506
811.00,0.4453
810.00,0.4398
809.00,0.4343
808.00,0.4292
807.00,0.4244
806.00,0.4200
805.00,0.4158
804.00,0.4116
803.00,0.4074
802.00,0.4035
801.00,0.4001
800.00,0.3975
799.00,0.3959
798.00,0.3949
797.00,0.3940
796.00,0.3932
795.00,0.3927
794.00,0.3927
793.00,0.3933
792.00,0.3946
791.00,0.3962
790.00,0.3981
789.00,0.4000
788.00,0.4021
787.00,0.4047
786.00,0.4080
785.00,0.4123
784.00,0.4177
783.00,0.4244
782.00,0.4326
781.00,0.4421
780.00,0.4526
779.00,0.4625
778.00,0.4694
777.00,0.4714
776.00,0.4684
775.00,0.4623
774.00,0.4557
773.00,0.4509
772.00,0.4486
771.00,0.4488
770.00,0.4508
769.00,0.4537
768.00,0.4567
767.00,0.4593
766.00,0.4615
765.00,0.4631
764.00,0.4646
763.00,0.4668
762.00,0.4699
761.00,0.4738
760.00,0.4781
759.00,0.4821
758.00,0.4852
757.00,0.4874
756.00,0.4891
755.00,0.4908
754.00,0.4933
753.00,0.4965
752.00,0.5007
751.00,0.5055
750.00,0.5108
749.00,0.5161
748.00,0.5214
747.00,0.5270
746.00,0.5331
745.00,0.5398
744.00,0.5472
743.00,0.5553
742.00,0.5644
741.00,0.5741
740.00,0.5842
739.00,0.5947
738.00,0.6056
737.00,0.6169
736.00,0.6287
735.00,0.6411
734.00,0.6538
733.00,0.6670
732.00,0.6811
731.00,0.6970
730.00,0.7162
729.00,0.7396
728.00,0.7687
727.00,0.8049
726.00,0.8496
725.00,0.9020
724.00,0.9576
723.00,1.0065
722.00,1.0339
721.00,1.0275
720.00,0.9877
719.00,0.9287
718.00,0.8663
717.00,0.8104
716.00,0.7645
715.00,0.7285
714.00,0.7008
713.00,0.6789
712.00,0.6607
711.00,0.6446
710.00,0.6295
709.00,0.6142
708.00,0.5986
707.00,0.5832
706.00,0.5686
705.00,0.5548
704.00,0.5418
703.00,0.5302
702.00,0.5199
701.00,0.5106
700.00,0.5015
699.00,0.4913
698.00,0.4794
697.00,0.4657
696.00,0.4514
695.00,0.4382
694.00,0.4271
693.00,0.4179
692.00,0.4102
691.00,0.4039
690.00,0.3988
689.00,0.3948
688.00,0.3916
687.00,0.3889
686.00,0.3865
685.00,0.3844
684.00,0.3826
683.00,0.3811
682.00,0.3797
681.00,0.3783
680.00,0.3771
679.00,0.3762
678.00,0.3758
677.00,0.3754
676.00,0.3752
675.00,0.3750
674.00,0.3749
673.00,0.3748
672.00,0.3748
671.00,0.3747
670.00,0.3745
669.00,0.3742
668.00,0.3741
667.00,0.3744
666.00,0.3756
665.00,0.3770
664.00,0.3780
663.00,0.3788
662.00,0.3798
661.00,0.3808
660.00,0.3817
659.00,0.3826
658.00,0.3836
657.00,0.3847
656.00,0.3858
655.00,0.3868
654.00,0.3877
653.00,0.3885
652.00,0.3893
651.00,0.3900
650.00,0.3908
649.00,0.3916
648.00,0.3925
647.00,0.3938
646.00,0.3957
645.00,0.3981
644.00,0.4007
643.00,0.4033
642.00,0.4058
641.00,0.4081
640.00,0.4103
639.00,0.4123
638.00,0.4141
637.00,0.4155
636.00,0.4166
635.00,0.4175
634.00,0.4183
633.00,0.4193
632.00,0.4208
631.00,0.4228
630.00,0.4251
629.00,0.4274
628.00,0.4296
627.00,0.4320
626.00,0.4344
625.00,0.4370
624.00,0.4396
623.00,0.4423
622.00,0.4450
621.00,0.4474
620.00,0.4493
619.00,0.4507
618.00,0.4513
617.00,0.4513
616.00,0.4512
615.00,0.4512
614.00,0.4509
613.00,0.4501
612.00,0.4487
611.00,0.4473
610.00,0.4463
609.00,0.4458
608.00,0.4457
607.00,0.4457
606.00,0.4457
605.00,0.4456
604.00,0.4454
603.00,0.4448
602.00,0.4438
601.00,0.4424
600.00,0.4411
599.00,0.4403
598.00,0.4404
597.00,0.4409
596.00,0.4414
595.00,0.4419
594.00,0.4427
593.00,0.4438
592.00,0.4453
591.00,0.4471
590.00,0.4488
589.00,0.4505
588.00,0.4522
587.00,0.4542
586.00,0.4566
585.00,0.4591
584.00,0.4618
583.00,0.4646
582.00,0.4676
581.00,0.4706
580.00,0.4732
579.00,0.4752
578.00,0.4767
577.00,0.4780
576.00,0.4793
575.00,0.4807
574.00,0.4827
573.00,0.4852
572.00,0.4882
571.00,0.4914
570.00,0.4946
569.00,0.4976
568.00,0.5005
567.00,0.5033
566.00,0.5062
565.00,0.5094
564.00,0.5126
563.00,0.5157
562.00,0.5184
561.00,0.5211
560.00,0.5238
559.00,0.5267
558.00,0.5296
557.00,0.5328
556.00,0.5366
555.00,0.5412
554.00,0.5461
553.00,0.5508
552.00,0.5552
551.00,0.5594
550.00,0.5633
