Created as New Dataset,
cm-1,A
4000.00,0.3540
3999.00,0.3537
3998.00,0.3535
3997.00,0.3532
3996.00,0.3529
3995.00,0.3526
3994.00,0.3523
3993.00,0.3520
3992.00,0.3517
3991.00,0.3514
3990.00,0.3510
3989.00,0.3507
3988.00,0.3503
3987.00,0.3499
3986.00,0.3495
3985.00,0.3491
3984.00,0.3488
3983.00,0.3483
3982.00,0.3478
3981.00,0.3473
3980.00,0.3468
3979.00,0.3463
3978.00,0.3460
3977.00,0.3457
3976.00,0.3454
3975.00,0.3451
3974.00,0.3448
3973.00,0.3445
3972.00,0.3443
3971.00,0.3441
3970.00,0.3439
3969.00,0.3437
3968.00,0.3435
3967.00,0.3432
3966.00,0.3429
3965.00,0.3426
3964.00,0.3423
3963.00,0.3421
3962.00,0.3419
3961.00,0.3417
3960.00,0.3416
3959.00,0.3414
3958.00,0.3411
3957.00,0.3408
3956.00,0.3405
3955.00,0.3402
3954.00,0.3400
3953.00,0.3399
3952.00,0.3397
3951.00,0.3395
3950.00,0.3392
3949.00,0.3390
3948.00,0.3388
3947.00,0.3386
3946.00,0.3383
3945.00,0.3381
3944.00,0.3379
3943.00,0.3377
3942.00,0.3376
3941.00,0.3375
3940.00,0.3374
3939.00,0.3374
3938.00,0.3373
3937.00,0.3372
3936.00,0.3372
3935.00,0.3371
3934.00,0.3371
3933.00,0.3371
3932.00,0.3371
3931.00,0.3371
3930.00,0.3371
3929.00,0.3371
3928.00,0.3372
3927.00,0.3372
3926.00,0.3372
3925.00,0.3372
3924.00,0.3372
3923.00,0.3373
3922.00,0.3373
3921.00,0.3372
3920.00,0.3372
3919.00,0.3371
3918.00,0.3370
3917.00,0.3369
3916.00,0.3368
3915.00,0.3368
3914.00,0.3367
3913.00,0.3365
3912.00,0.3363
3911.00,0.3362
3910.00,0.3360
3909.00,0.3359
3908.00,0.3357
3907.00,0.3357
3906.00,0.3356
3905.00,0.3356
3904.00,0.3356
3903.00,0.3356
3902.00,0.3358
3901.00,0.3359
3900.00,0.3359
3899.00,0.3359
3898.00,0.3358
3897.00,0.3357
3896.00,0.3356
3895.00,0.3354
3894.00,0.3353
3893.00,0.3352
3892.00,0.3351
3891.00,0.3349
3890.00,0.3348
3889.00,0.3348
3888.00,0.3347
3887.00,0.3346
3886.00,0.3345
3885.00,0.3343
3884.00,0.3341
3883.00,0.3340
3882.00,0.3340
3881.00,0.3339
3880.00,0.3337
3879.00,0.3335
3878.00,0.3334
3877.00,0.3334
3876.00,0.3333
3875.00,0.3332
3874.00,0.3331
3873.00,0.3330
3872.00,0.3329
3871.00,0.3329
3870.00,0.3328
3869.00,0.3326
3868.00,0.3325
3867.00,0.3324
3866.00,0.3323
3865.00,0.3321
3864.00,0.3320
3863.00,0.3319
3862.00,0.3318
3861.00,0.3317
3860.00,0.3317
3859.00,0.3316
3858.00,0.3315
3857.00,0.3313
3856.00,0.3313
3855.00,0.3312
3854.00,0.3312
3853.00,0.3310
3852.00,0.3310
3851.00,0.3310
3850.00,0.3309
3849.00,0.3308
3848.00,0.3306
3847.00,0.3305
3846.00,0.3303
3845.00,0.3302
3844.00,0.3300
3843.00,0.3299
3842.00,0.3297
3841.00,0.3296
3840.00,0.3295
3839.00,0.3294
3838.00,0.3294
3837.00,0.3294
3836.00,0.3293
3835.00,0.3294
3834.00,0.3294
3833.00,0.3293
3832.00,0.3293
3831.00,0.3292
3830.00,0.3291
3829.00,0.3291
3828.00,0.3290
3827.00,0.3289
3826.00,0.3289
3825.00,0.3288
3824.00,0.3288
3823.00,0.3288
3822.00,0.3288
3821.00,0.3286
3820.00,0.3283
3819.00,0.3282
3818.00,0.3280
3817.00,0.3279
3816.00,0.3277
3815.00,0.3274
3814.00,0.3272
3813.00,0.3269
3812.00,0.3266
3811.00,0.3263
3810.00,0.3261
3809.00,0.3258
3808.00,0.3256
3807.00,0.3253
3806.00,0.3251
3805.00,0.3250
3804.00,0.3250
3803.00,0.3250
3802.00,0.3249
3801.00,0.3247
3800.00,0.3246
3799.00,0.3245
3798.00,0.3245
3797.00,0.3244
3796.00,0.3242
3795.00,0.3241
3794.00,0.3239
3793.00,0.3238
3792.00,0.3237
3791.00,0.3236
3790.00,0.3234
3789.00,0.3232
3788.00,0.3230
3787.00,0.3228
3786.00,0.3226
3785.00,0.3224
3784.00,0.3222
3783.00,0.3220
3782.00,0.3219
3781.00,0.3217
3780.00,0.3215
3779.00,0.3212
3778.00,0.3210
3777.00,0.3209
3776.00,0.3208
3775.00,0.3206
3774.00,0.3204
3773.00,0.3203
3772.00,0.3200
3771.00,0.3198
3770.00,0.3196
3769.00,0.3195
3768.00,0.3195
3767.00,0.3195
3766.00,0.3194
3765.00,0.3194
3764.00,0.3193
3763.00,0.3192
3762.00,0.3191
3761.00,0.3190
3760.00,0.3190
3759.00,0.3189
3758.00,0.3188
3757.00,0.3186
3756.00,0.3185
3755.00,0.3184
3754.00,0.3183
3753.00,0.3182
3752.00,0.3181
3751.00,0.3179
3750.00,0.3177
3749.00,0.3175
3748.00,0.3174
3747.00,0.3173
3746.00,0.3172
3745.00,0.3171
3744.00,0.3169
3743.00,0.3168
3742.00,0.3166
3741.00,0.3164
3740.00,0.3161
3739.00,0.3159
3738.00,0.3157
3737.00,0.3156
3736.00,0.3154
3735.00,0.3152
3734.00,0.3152
3733.00,0.3152
3732.00,0.3152
3731.00,0.3151
3730.00,0.3150
3729.00,0.3149
3728.00,0.3147
3727.00,0.3146
3726.00,0.3144
3725.00,0.3143
3724.00,0.3142
3723.00,0.3141
3722.00,0.3140
3721.00,0.3140
3720.00,0.3139
3719.00,0.3139
3718.00,0.3138
3717.00,0.3137
3716.00,0.3135
3715.00,0.3134
3714.00,0.3133
3713.00,0.3133
3712.00,0.3132
3711.00,0.3132
3710.00,0.3131
3709.00,0.3131
3708.00,0.3130
3707.00,0.3129
3706.00,0.3129
3705.00,0.3128
3704.00,0.3128
3703.00,0.3128
3702.00,0.3128
3701.00,0.3127
3700.00,0.3127
3699.00,0.3127
3698.00,0.3128
3697.00,0.3129
3696.00,0.3130
3695.00,0.3131
3694.00,0.3131
3693.00,0.3131
3692.00,0.3131
3691.00,0.3131
3690.00,0.3132
3689.00,0.3133
3688.00,0.3135
3687.00,0.3137
3686.00,0.3138
3685.00,0.3138
3684.00,0.3138
3683.00,0.3138
3682.00,0.3137
3681.00,0.3136
3680.00,0.3134
3679.00,0.3133
3678.00,0.3133
3677.00,0.3133
3676.00,0.3133
3675.00,0.3132
3674.00,0.3132
3673.00,0.3133
3672.00,0.3135
3671.00,0.3136
3670.00,0.3138
3669.00,0.3139
3668.00,0.3140
3667.00,0.3143
3666.00,0.3145
3665.00,0.3149
3664.00,0.3153
3663.00,0.3157
3662.00,0.3163
3661.00,0.3170
3660.00,0.3179
3659.00,0.3191
3658.00,0.3206
3657.00,0.3225
3656.00,0.3246
3655.00,0.3266
3654.00,0.3286
3653.00,0.3304
3652.00,0.3321
3651.00,0.3335
3650.00,0.3344
3649.00,0.3348
3648.00,0.3346
3647.00,0.3339
3646.00,0.3330
3645.00,0.3318
3644.00,0.3305
3643.00,0.3291
3642.00,0.3278
3641.00,0.3266
3640.00,0.3256
3639.00,0.3248
3638.00,0.3240
3637.00,0.3233
3636.00,0.3227
3635.00,0.3222
3634.00,0.3217
3633.00,0.3213
3632.00,0.3211
3631.00,0.3209
3630.00,0.3208
3629.00,0.3208
3628.00,0.3208
3627.00,0.3209
3626.00,0.3209
3625.00,0.3210
3624.00,0.3209
3623.00,0.3208
3622.00,0.3207
3621.00,0.3205
3620.00,0.3202
3619.00,0.3198
3618.00,0.3194
3617.00,0.3191
3616.00,0.3189
3615.00,0.3187
3614.00,0.3186
3613.00,0.3185
3612.00,0.3185
3611.00,0.3186
3610.00,0.3186
3609.00,0.3186
3608.00,0.3185
3607.00,0.3184
3606.00,0.3182
3605.00,0.3180
3604.00,0.3176
3603.00,0.3171
3602.00,0.3164
3601.00,0.3156
3600.00,0.3147
3599.00,0.3138
3598.00,0.3129
3597.00,0.3120
3596.00,0.3111
3595.00,0.3101
3594.00,0.3093
3593.00,0.3086
3592.00,0.3080
3591.00,0.3075
3590.00,0.3071
3589.00,0.3068
3588.00,0.3064
3587.00,0.3061
3586.00,0.3058
3585.00,0.3056
3584.00,0.3054
3583.00,0.3052
3582.00,0.3050
3581.00,0.3048
3580.00,0.3047
3579.00,0.3045
3578.00,0.3044
3577.00,0.3043
3576.00,0.3043
3575.00,0.3043
3574.00,0.3042
3573.00,0.3041
3572.00,0.3040
3571.00,0.3040
3570.00,0.3040
3569.00,0.3040
3568.00,0.3040
3567.00,0.3040
3566.00,0.3040
3565.00,0.3040
3564.00,0.3040
3563.00,0.3040
3562.00,0.3040
3561.00,0.3040
3560.00,0.3041
3559.00,0.3042
3558.00,0.3043
3557.00,0.3044
3556.00,0.3045
3555.00,0.3047
3554.00,0.3049
3553.00,0.3051
3552.00,0.3053
3551.00,0.3056
3550.00,0.3059
3549.00,0.3061
3548.00,0.3064
3547.00,0.3066
3546.00,0.3069
3545.00,0.3071
3544.00,0.3074
3543.00,0.3076
3542.00,0.3079
3541.00,0.3082
3540.00,0.3084
3539.00,0.3087
3538.00,0.3091
3537.00,0.3094
3536.00,0.3096
3535.00,0.3097
3534.00,0.3099
3533.00,0.3100
3532.00,0.3103
3531.00,0.3106
3530.00,0.3110
3529.00,0.3114
3528.00,0.3117
3527.00,0.3120
3526.00,0.3123
3525.00,0.3127
3524.00,0.3130
3523.00,0.3133
3522.00,0.3136
3521.00,0.3139
3520.00,0.3143
3519.00,0.3147
3518.00,0.3151
3517.00,0.3155
3516.00,0.3159
3515.00,0.3163
3514.00,0.3168
3513.00,0.3172
3512.00,0.3176
3511.00,0.3181
3510.00,0.3185
3509.00,0.3190
3508.00,0.3195
3507.00,0.3200
3506.00,0.3205
3505.00,0.3209
3504.00,0.3214
3503.00,0.3218
3502.00,0.3223
3501.00,0.3228
3500.00,0.3233
3499.00,0.3238
3498.00,0.3243
3497.00,0.3249
3496.00,0.3255
3495.00,0.3262
3494.00,0.3269
3493.00,0.3275
3492.00,0.3281
3491.00,0.3287
3490.00,0.3294
3489.00,0.3301
3488.00,0.3307
3487.00,0.3314
3486.00,0.3320
3485.00,0.3326
3484.00,0.3333
3483.00,0.3339
3482.00,0.3345
3481.00,0.3351
3480.00,0.3357
3479.00,0.3363
3478.00,0.3369
3477.00,0.3374
3476.00,0.3379
3475.00,0.3384
3474.00,0.3390
3473.00,0.3396
3472.00,0.3403
3471.00,0.3410
3470.00,0.3416
3469.00,0.3423
3468.00,0.3429
3467.00,0.3436
3466.00,0.3443
3465.00,0.3450
3464.00,0.3457
3463.00,0.3464
3462.00,0.3471
3461.00,0.3478
3460.00,0.3485
3459.00,0.3493
3458.00,0.3501
3457.00,0.3509
3456.00,0.3518
3455.00,0.3527
3454.00,0.3536
3453.00,0.3546
3452.00,0.3556
3451.00,0.3566
3450.00,0.3576
3449.00,0.3587
3448.00,0.3598
3447.00,0.3610
3446.00,0.3622
3445.00,0.3636
3444.00,0.3650
3443.00,0.3665
3442.00,0.3679
3441.00,0.3693
3440.00,0.3706
3439.00,0.3718
3438.00,0.3730
3437.00,0.3741
3436.00,0.3751
3435.00,0.3760
3434.00,0.3768
3433.00,0.3777
3432.00,0.3785
3431.00,0.3792
3430.00,0.3800
3429.00,0.3809
3428.00,0.3817
3427.00,0.3825
3426.00,0.3834
3425.00,0.3842
3424.00,0.3850
3423.00,0.3859
3422.00,0.3868
3421.00,0.3877
3420.00,0.3887
3419.00,0.3897
3418.00,0.3907
3417.00,0.3918
3416.00,0.3928
3415.00,0.3939
3414.00,0.3950
3413.00,0.3962
3412.00,0.3973
3411.00,0.3986
3410.00,0.3998
3409.00,0.4011
3408.00,0.4024
3407.00,0.4037
3406.00,0.4050
3405.00,0.4064
3404.00,0.4078
3403.00,0.4092
3402.00,0.4106
3401.00,0.4120
3400.00,0.4134
3399.00,0.4148
3398.00,0.4162
3397.00,0.4176
3396.00,0.4190
3395.00,0.4205
3394.00,0.4219
3393.00,0.4234
3392.00,0.4249
3391.00,0.4264
3390.00,0.4280
3389.00,0.4295
3388.00,0.4310
3387.00,0.4325
3386.00,0.4340
3385.00,0.4355
3384.00,0.4370
3383.00,0.4386
3382.00,0.4402
3381.00,0.4419
3380.00,0.4437
3379.00,0.4456
3378.00,0.4474
3377.00,0.4493
3376.00,0.4511
3375.00,0.4529
3374.00,0.4548
3373.00,0.4567
3372.00,0.4586
3371.00,0.4606
3370.00,0.4627
3369.00,0.4647
3368.00,0.4667
3367.00,0.4688
3366.00,0.4709
3365.00,0.4730
3364.00,0.4752
3363.00,0.4774
3362.00,0.4796
3361.00,0.4819
3360.00,0.4841
3359.00,0.4863
3358.00,0.4886
3357.00,0.4909
3356.00,0.4932
3355.00,0.4954
3354.00,0.4976
3353.00,0.4997
3352.00,0.5018
3351.00,0.5039
3350.00,0.5059
3349.00,0.5079
3348.00,0.5098
3347.00,0.5116
3346.00,0.5135
3345.00,0.5153
3344.00,0.5171
3343.00,0.5189
3342.00,0.5205
3341.00,0.5219
3340.00,0.5232
3339.00,0.5244
3338.00,0.5255
3337.00,0.5266
3336.00,0.5276
3335.00,0.5284
3334.00,0.5291
3333.00,0.5296
3332.00,0.5300
3331.00,0.5303
3330.00,0.5305
3329.00,0.5307
3328.00,0.5307
3327.00,0.5307
3326.00,0.5305
3325.00,0.5301
3324.00,0.5296
3323.00,0.5291
3322.00,0.5286
3321.00,0.5280
3320.00,0.5273
3319.00,0.5265
3318.00,0.5256
3317.00,0.5247
3316.00,0.5238
3315.00,0.5228
3314.00,0.5218
3313.00,0.5207
3312.00,0.5197
3311.00,0.5185
3310.00,0.5174
3309.00,0.5163
3308.00,0.5152
3307.00,0.5142
3306.00,0.5132
3305.00,0.5122
3304.00,0.5112
3303.00,0.5102
3302.00,0.5092
3301.00,0.5082
3300.00,0.5073
3299.00,0.5065
3298.00,0.5058
3297.00,0.5051
3296.00,0.5044
3295.00,0.5036
3294.00,0.5030
3293.00,0.5024
3292.00,0.5019
3291.00,0.5015
3290.00,0.5011
3289.00,0.5008
3288.00,0.5006
3287.00,0.5004
3286.00,0.5002
3285.00,0.5000
3284.00,0.4999
3283.00,0.4998
3282.00,0.4998
3281.00,0.4999
3280.00,0.5001
3279.00,0.5003
3278.00,0.5005
3277.00,0.5007
3276.00,0.5010
3275.00,0.5013
3274.00,0.5017
3273.00,0.5021
3272.00,0.5025
3271.00,0.5028
3270.00,0.5031
3269.00,0.5034
3268.00,0.5038
3267.00,0.5043
3266.00,0.5047
3265.00,0.5052
3264.00,0.5057
3263.00,0.5062
3262.00,0.5065
3261.00,0.5069
3260.00,0.5074
3259.00,0.5078
3258.00,0.5082
3257.00,0.5086
3256.00,0.5090
3255.00,0.5094
3254.00,0.5099
3253.00,0.5103
3252.00,0.5106
3251.00,0.5108
3250.00,0.5110
3249.00,0.5112
3248.00,0.5113
3247.00,0.5115
3246.00,0.5116
3245.00,0.5117
3244.00,0.5118
3243.00,0.5117
3242.00,0.5116
3241.00,0.5114
3240.00,0.5112
3239.00,0.5110
3238.00,0.5107
3237.00,0.5104
3236.00,0.5101
3235.00,0.5099
3234.00,0.5096
3233.00,0.5093
3232.00,0.5088
3231.00,0.5083
3230.00,0.5078
3229.00,0.5072
3228.00,0.5066
3227.00,0.5060
3226.00,0.5054
3225.00,0.5048
3224.00,0.5043
3223.00,0.5037
3222.00,0.5030
3221.00,0.5023
3220.00,0.5016
3219.00,0.5008
3218.00,0.5001
3217.00,0.4994
3216.00,0.4987
3215.00,0.4980
3214.00,0.4973
3213.00,0.4966
3212.00,0.4959
3211.00,0.4952
3210.00,0.4945
3209.00,0.4938
3208.00,0.4931
3207.00,0.4924
3206.00,0.4918
3205.00,0.4911
3204.00,0.4904
3203.00,0.4897
3202.00,0.4890
3201.00,0.4882
3200.00,0.4874
3199.00,0.4867
3198.00,0.4858
3197.00,0.4850
3196.00,0.4842
3195.00,0.4833
3194.00,0.4825
3193.00,0.4818
3192.00,0.4810
3191.00,0.4803
3190.00,0.4795
3189.00,0.4786
3188.00,0.4777
3187.00,0.4768
3186.00,0.4759
3185.00,0.4751
3184.00,0.4742
3183.00,0.4734
3182.00,0.4725
3181.00,0.4716
3180.00,0.4706
3179.00,0.4697
3178.00,0.4687
3177.00,0.4677
3176.00,0.4667
3175.00,0.4657
3174.00,0.4647
3173.00,0.4637
3172.00,0.4626
3171.00,0.4616
3170.00,0.4607
3169.00,0.4597
3168.00,0.4587
3167.00,0.4578
3166.00,0.4568
3165.00,0.4559
3164.00,0.4549
3163.00,0.4540
3162.00,0.4531
3161.00,0.4522
3160.00,0.4512
3159.00,0.4503
3158.00,0.4494
3157.00,0.4486
3156.00,0.4478
3155.00,0.4469
3154.00,0.4462
3153.00,0.4454
3152.00,0.4446
3151.00,0.4438
3150.00,0.4431
3149.00,0.4423
3148.00,0.4416
3147.00,0.4408
3146.00,0.4402
3145.00,0.4395
3144.00,0.4389
3143.00,0.4384
3142.00,0.4378
3141.00,0.4373
3140.00,0.4367
3139.00,0.4362
3138.00,0.4356
3137.00,0.4352
3136.00,0.4347
3135.00,0.4343
3134.00,0.4339
3133.00,0.4335
3132.00,0.4331
3131.00,0.4329
3130.00,0.4326
3129.00,0.4324
3128.00,0.4321
3127.00,0.4319
3126.00,0.4317
3125.00,0.4316
3124.00,0.4316
3123.00,0.4316
3122.00,0.4316
3121.00,0.4316
3120.00,0.4317
3119.00,0.4319
3118.00,0.4320
3117.00,0.4323
3116.00,0.4325
3115.00,0.4329
3114.00,0.4333
3113.00,0.4337
3112.00,0.4341
3111.00,0.4346
3110.00,0.4352
3109.00,0.4360
3108.00,0.4368
3107.00,0.4377
3106.00,0.4385
3105.00,0.4394
3104.00,0.4402
3103.00,0.4412
3102.00,0.4421
3101.00,0.4432
3100.00,0.4442
3099.00,0.4452
3098.00,0.4463
3097.00,0.4473
3096.00,0.4484
3095.00,0.4494
3094.00,0.4506
3093.00,0.4519
3092.00,0.4533
3091.00,0.4548
3090.00,0.4565
3089.00,0.4583
3088.00,0.4602
3087.00,0.4623
3086.00,0.4645
3085.00,0.4667
3084.00,0.4690
3083.00,0.4715
3082.00,0.4742
3081.00,0.4770
3080.00,0.4800
3079.00,0.4831
3078.00,0.4864
3077.00,0.4897
3076.00,0.4932
3075.00,0.4967
3074.00,0.5004
3073.00,0.5041
3072.00,0.5078
3071.00,0.5116
3070.00,0.5153
3069.00,0.5191
3068.00,0.5229
3067.00,0.5267
3066.00,0.5304
3065.00,0.5341
3064.00,0.5377
3063.00,0.5413
3062.00,0.5447
3061.00,0.5481
3060.00,0.5513
3059.00,0.5544
3058.00,0.5575
3057.00,0.5605
3056.00,0.5636
3055.00,0.5667
3054.00,0.5698
3053.00,0.5730
3052.00,0.5762
3051.00,0.5796
3050.00,0.5831
3049.00,0.5868
3048.00,0.5908
3047.00,0.5950
3046.00,0.5992
3045.00,0.6034
3044.00,0.6077
3043.00,0.6118
3042.00,0.6160
3041.00,0.6203
3040.00,0.6247
3039.00,0.6293
3038.00,0.6343
3037.00,0.6394
3036.00,0.6448
3035.00,0.6504
3034.00,0.6565
3033.00,0.6629
3032.00,0.6696
3031.00,0.6766
3030.00,0.6838
3029.00,0.6913
3028.00,0.6988
3027.00,0.7065
3026.00,0.7144
3025.00,0.7226
3024.00,0.7310
3023.00,0.7399
3022.00,0.7490
3021.00,0.7585
3020.00,0.7683
3019.00,0.7783
3018.00,0.7885
3017.00,0.7990
3016.00,0.8098
3015.00,0.8208
3014.00,0.8323
3013.00,0.8442
3012.00,0.8568
3011.00,0.8700
3010.00,0.8841
3009.00,0.8990
3008.00,0.9147
3007.00,0.9310
3006.00,0.9480
3005.00,0.9658
3004.00,0.9845
3003.00,1.0039
3002.00,1.0240
3001.00,1.0448
3000.00,1.0667
2999.00,1.0898
2998.00,1.1143
2997.00,1.1407
2996.00,1.1694
2995.00,1.2008
2994.00,1.2353
2993.00,1.2731
2992.00,1.3145
2991.00,1.3600
2990.00,1.4102
2989.00,1.4654
2988.00,1.5262
2987.00,1.5931
2986.00,1.6670
2985.00,1.7485
2984.00,1.8386
2983.00,1.9381
2982.00,2.0469
2981.00,2.1649
2980.00,2.2928
2979.00,2.4332
2978.00,2.5870
2977.00,2.7479
2976.00,2.9051
2975.00,3.0550
2974.00,3.2021
2973.00,3.3420
2972.00,3.4568
2971.00,3.5599
2970.00,3.6847
2969.00,3.8960
2968.00,4.1873
2967.00,4.1621
2966.00,3.9882
2965.00,3.8932
2964.00,3.9677
2963.00,4.1216
2962.00,4.1825
2961.00,4.1638
2960.00,4.1565
2959.00,4.3028
2958.00,4.5882
2957.00,4.2527
2956.00,3.8757
2955.00,3.6867
2954.00,3.6612
2953.00,3.7614
2952.00,3.9652
2951.00,4.3061
2950.00,4.4320
2949.00,4.2045
2948.00,4.0333
2947.00,4.0342
2946.00,4.1215
2945.00,4.2790
2944.00,4.4796
2943.00,4.1829
2942.00,3.9373
2941.00,3.8333
2940.00,3.8547
2939.00,3.8811
2938.00,3.9227
2937.00,4.0618
2936.00,4.1615
2935.00,4.1131
2934.00,4.0078
2933.00,3.9622
2932.00,3.9851
2931.00,4.1622
2930.00,4.4961
2929.00,4.3234
2928.00,4.0896
2927.00,4.0356
2926.00,4.1735
2925.00,4.2544
2924.00,4.2555
2923.00,4.2815
2922.00,4.3473
2921.00,4.5427
2920.00,4.5802
2919.00,4.2004
2918.00,3.9679
2917.00,3.9647
2916.00,3.9654
2915.00,3.8098
2914.00,3.6976
2913.00,3.7562
2912.00,3.9610
2911.00,4.0611
2910.00,3.9448
2909.00,3.9417
2908.00,4.2062
2907.00,4.1721
2906.00,3.8853
2905.00,3.7094
2904.00,3.7467
2903.00,3.8946
2902.00,4.0442
2901.00,4.2161
2900.00,4.2787
2899.00,4.3466
2898.00,4.5434
2897.00,4.5109
2896.00,4.2392
2895.00,4.1100
2894.00,4.1273
2893.00,4.1443
2892.00,4.0198
2891.00,3.9357
2890.00,3.9399
2889.00,4.0750
2888.00,4.4151
2887.00,4.4632
2886.00,4.1929
2885.00,4.0311
2884.00,4.0917
2883.00,4.2275
2882.00,4.2798
2881.00,4.4765
2880.00,4.7342
2879.00,4.3921
2878.00,4.2064
2877.00,4.1185
2876.00,3.9748
2875.00,3.8001
2874.00,3.7195
2873.00,3.7861
2872.00,3.8849
2871.00,3.9094
2870.00,3.8988
2869.00,3.9177
2868.00,4.0034
2867.00,4.1087
2866.00,4.1518
2865.00,4.2287
2864.00,4.2836
2863.00,4.3935
2862.00,4.5974
2861.00,4.3153
2860.00,4.0500
2859.00,3.9231
2858.00,3.9827
2857.00,4.0380
2856.00,3.9926
2855.00,4.0239
2854.00,4.1648
2853.00,4.1333
2852.00,3.9308
2851.00,3.8323
2850.00,3.9478
2849.00,4.2064
2848.00,4.1664
2847.00,4.0317
2846.00,4.1380
2845.00,4.3232
2844.00,3.9541
2843.00,3.7240
2842.00,3.7356
2841.00,3.8778
2840.00,3.8726
2839.00,3.6872
2838.00,3.4372
2837.00,3.1805
2836.00,2.9454
2835.00,2.7346
2834.00,2.5477
2833.00,2.3805
2832.00,2.2317
2831.00,2.1006
2830.00,1.9853
2829.00,1.8833
2828.00,1.7922
2827.00,1.7104
2826.00,1.6369
2825.00,1.5706
2824.00,1.5108
2823.00,1.4570
2822.00,1.4080
2821.00,1.3628
2820.00,1.3205
2819.00,1.2812
2818.00,1.2446
2817.00,1.2107
2816.00,1.1789
2815.00,1.1490
2814.00,1.1207
2813.00,1.0939
2812.00,1.0685
2811.00,1.0447
2810.00,1.0221
2809.00,1.0005
2808.00,0.9797
2807.00,0.9598
2806.00,0.9408
2805.00,0.9227
2804.00,0.9054
2803.00,0.8889
2802.00,0.8729
2801.00,0.8575
2800.00,0.8428
2799.00,0.8287
2798.00,0.8151
2797.00,0.8022
2796.00,0.7897
2795.00,0.7777
2794.00,0.7661
2793.00,0.7549
2792.00,0.7441
2791.00,0.7337
2790.00,0.7235
2789.00,0.7134
2788.00,0.7035
2787.00,0.6939
2786.00,0.6846
2785.00,0.6754
2784.00,0.6664
2783.00,0.6576
2782.00,0.6491
2781.00,0.6409
2780.00,0.6330
2779.00,0.6254
2778.00,0.6182
2777.00,0.6113
2776.00,0.6049
2775.00,0.5989
2774.00,0.5933
2773.00,0.5881
2772.00,0.5832
2771.00,0.5786
2770.00,0.5745
2769.00,0.5707
2768.00,0.5673
2767.00,0.5643
2766.00,0.5616
2765.00,0.5592
2764.00,0.5571
2763.00,0.5553
2762.00,0.5537
2761.00,0.5524
2760.00,0.5511
2759.00,0.5500
2758.00,0.5489
2757.00,0.5479
2756.00,0.5471
2755.00,0.5463
2754.00,0.5456
2753.00,0.5450
2752.00,0.5446
2751.00,0.5445
2750.00,0.5446
2749.00,0.5448
2748.00,0.5452
2747.00,0.5458
2746.00,0.5465
2745.00,0.5475
2744.00,0.5487
2743.00,0.5503
2742.00,0.5522
2741.00,0.5544
2740.00,0.5571
2739.00,0.5602
2738.00,0.5637
2737.00,0.5676
2736.00,0.5718
2735.00,0.5764
2734.00,0.5811
2733.00,0.5857
2732.00,0.5898
2731.00,0.5930
2730.00,0.5951
2729.00,0.5959
2728.00,0.5955
2727.00,0.5941
2726.00,0.5920
2725.00,0.5895
2724.00,0.5867
2723.00,0.5838
2722.00,0.5807
2721.00,0.5776
2720.00,0.5743
2719.00,0.5711
2718.00,0.5677
2717.00,0.5641
2716.00,0.5604
2715.00,0.5564
2714.00,0.5524
2713.00,0.5485
2712.00,0.5447
2711.00,0.5413
2710.00,0.5382
2709.00,0.5356
2708.00,0.5333
2707.00,0.5313
2706.00,0.5296
2705.00,0.5282
2704.00,0.5271
2703.00,0.5263
2702.00,0.5257
2701.00,0.5253
2700.00,0.5251
2699.00,0.5252
2698.00,0.5256
2697.00,0.5262
2696.00,0.5270
2695.00,0.5280
2694.00,0.5292
2693.00,0.5305
2692.00,0.5318
2691.00,0.5331
2690.00,0.5344
2689.00,0.5357
2688.00,0.5369
2687.00,0.5380
2686.00,0.5390
2685.00,0.5397
2684.00,0.5403
2683.00,0.5407
2682.00,0.5409
2681.00,0.5411
2680.00,0.5412
2679.00,0.5414
2678.00,0.5416
2677.00,0.5418
2676.00,0.5419
2675.00,0.5421
2674.00,0.5421
2673.00,0.5420
2672.00,0.5418
2671.00,0.5414
2670.00,0.5407
2669.00,0.5397
2668.00,0.5383
2667.00,0.5366
2666.00,0.5346
2665.00,0.5325
2664.00,0.5303
2663.00,0.5279
2662.00,0.5255
2661.00,0.5230
2660.00,0.5206
2659.00,0.5182
2658.00,0.5159
2657.00,0.5137
2656.00,0.5116
2655.00,0.5096
2654.00,0.5078
2653.00,0.5060
2652.00,0.5042
2651.00,0.5025
2650.00,0.5008
2649.00,0.4991
2648.00,0.4975
2647.00,0.4958
2646.00,0.4943
2645.00,0.4928
2644.00,0.4914
2643.00,0.4900
2642.00,0.4887
2641.00,0.4875
2640.00,0.4864
2639.00,0.4853
2638.00,0.4842
2637.00,0.4832
2636.00,0.4822
2635.00,0.4812
2634.00,0.4803
2633.00,0.4794
2632.00,0.4785
2631.00,0.4775
2630.00,0.4765
2629.00,0.4755
2628.00,0.4744
2627.00,0.4734
2626.00,0.4725
2625.00,0.4715
2624.00,0.4705
2623.00,0.4694
2622.00,0.4683
2621.00,0.4672
2620.00,0.4661
2619.00,0.4651
2618.00,0.4641
2617.00,0.4630
2616.00,0.4620
2615.00,0.4610
2614.00,0.4600
2613.00,0.4590
2612.00,0.4579
2611.00,0.4569
2610.00,0.4559
2609.00,0.4549
2608.00,0.4539
2607.00,0.4530
2606.00,0.4520
2605.00,0.4511
2604.00,0.4501
2603.00,0.4490
2602.00,0.4480
2601.00,0.4469
2600.00,0.4457
2599.00,0.4444
2598.00,0.4430
2597.00,0.4416
2596.00,0.4401
2595.00,0.4385
2594.00,0.4369
2593.00,0.4353
2592.00,0.4337
2591.00,0.4321
2590.00,0.4304
2589.00,0.4288
2588.00,0.4272
2587.00,0.4256
2586.00,0.4240
2585.00,0.4225
2584.00,0.4209
2583.00,0.4192
2582.00,0.4175
2581.00,0.4158
2580.00,0.4141
2579.00,0.4124
2578.00,0.4108
2577.00,0.4092
2576.00,0.4077
2575.00,0.4061
2574.00,0.4046
2573.00,0.4033
2572.00,0.4020
2571.00,0.4007
2570.00,0.3994
2569.00,0.3981
2568.00,0.3968
2567.00,0.3955
2566.00,0.3942
2565.00,0.3929
2564.00,0.3915
2563.00,0.3902
2562.00,0.3888
2561.00,0.3874
2560.00,0.3861
2559.00,0.3848
2558.00,0.3835
2557.00,0.3822
2556.00,0.3810
2555.00,0.3798
2554.00,0.3787
2553.00,0.3776
2552.00,0.3765
2551.00,0.3755
2550.00,0.3745
2549.00,0.3735
2548.00,0.3726
2547.00,0.3717
2546.00,0.3708
2545.00,0.3700
2544.00,0.3692
2543.00,0.3684
2542.00,0.3676
2541.00,0.3669
2540.00,0.3662
2539.00,0.3655
2538.00,0.3648
2537.00,0.3642
2536.00,0.3636
2535.00,0.3631
2534.00,0.3625
2533.00,0.3619
2532.00,0.3612
2531.00,0.3604
2530.00,0.3595
2529.00,0.3585
2528.00,0.3575
2527.00,0.3564
2526.00,0.3554
2525.00,0.3542
2524.00,0.3531
2523.00,0.3519
2522.00,0.3508
2521.00,0.3497
2520.00,0.3487
2519.00,0.3477
2518.00,0.3467
2517.00,0.3458
2516.00,0.3449
2515.00,0.3440
2514.00,0.3431
2513.00,0.3423
2512.00,0.3415
2511.00,0.3408
2510.00,0.3401
2509.00,0.3395
2508.00,0.3390
2507.00,0.3384
2506.00,0.3379
2505.00,0.3374
2504.00,0.3370
2503.00,0.3366
2502.00,0.3364
2501.00,0.3362
2500.00,0.3360
2499.00,0.3358
2498.00,0.3356
2497.00,0.3354
2496.00,0.3352
2495.00,0.3349
2494.00,0.3346
2493.00,0.3342
2492.00,0.3338
2491.00,0.3333
2490.00,0.3327
2489.00,0.3321
2488.00,0.3316
2487.00,0.3310
2486.00,0.3304
2485.00,0.3298
2484.00,0.3291
2483.00,0.3285
2482.00,0.3280
2481.00,0.3275
2480.00,0.3270
2479.00,0.3264
2478.00,0.3258
2477.00,0.3253
2476.00,0.3248
2475.00,0.3243
2474.00,0.3239
2473.00,0.3235
2472.00,0.3232
2471.00,0.3229
2470.00,0.3226
2469.00,0.3223
2468.00,0.3220
2467.00,0.3218
2466.00,0.3215
2465.00,0.3212
2464.00,0.3209
2463.00,0.3206
2462.00,0.3203
2461.00,0.3201
2460.00,0.3199
2459.00,0.3197
2458.00,0.3196
2457.00,0.3194
2456.00,0.3193
2455.00,0.3191
2454.00,0.3189
2453.00,0.3187
2452.00,0.3186
2451.00,0.3184
2450.00,0.3184
2449.00,0.3183
2448.00,0.3182
2447.00,0.3181
2446.00,0.3181
2445.00,0.3181
2444.00,0.3181
2443.00,0.3181
2442.00,0.3181
2441.00,0.3182
2440.00,0.3183
2439.00,0.3184
2438.00,0.3185
2437.00,0.3186
2436.00,0.3186
2435.00,0.3187
2434.00,0.3187
2433.00,0.3188
2432.00,0.3189
2431.00,0.3191
2430.00,0.3192
2429.00,0.3193
2428.00,0.3194
2427.00,0.3196
2426.00,0.3197
2425.00,0.3199
2424.00,0.3200
2423.00,0.3201
2422.00,0.3202
2421.00,0.3203
2420.00,0.3205
2419.00,0.3206
2418.00,0.3206
2417.00,0.3206
2416.00,0.3207
2415.00,0.3207
2414.00,0.3207
2413.00,0.3208
2412.00,0.3209
2411.00,0.3210
2410.00,0.3210
2409.00,0.3210
2408.00,0.3210
2407.00,0.3210
2406.00,0.3210
2405.00,0.3211
2404.00,0.3211
2403.00,0.3211
2402.00,0.3211
2401.00,0.3211
2400.00,0.3212
2399.00,0.3212
2398.00,0.3212
2397.00,0.3212
2396.00,0.3213
2395.00,0.3213
2394.00,0.3213
2393.00,0.3213
2392.00,0.3213
2391.00,0.3213
2390.00,0.3214
2389.00,0.3215
2388.00,0.3216
2387.00,0.3217
2386.00,0.3217
2385.00,0.3218
2384.00,0.3218
2383.00,0.3219
2382.00,0.3220
2381.00,0.3221
2380.00,0.3221
2379.00,0.3221
2378.00,0.3220
2377.00,0.3220
2376.00,0.3220
2375.00,0.3220
2374.00,0.3219
2373.00,0.3218
2372.00,0.3217
2371.00,0.3215
2370.00,0.3214
2369.00,0.3212
2368.00,0.3212
2367.00,0.3212
2366.00,0.3212
2365.00,0.3212
2364.00,0.3212
2363.00,0.3211
2362.00,0.3210
2361.00,0.3209
2360.00,0.3209
2359.00,0.3208
2358.00,0.3206
2357.00,0.3205
2356.00,0.3205
2355.00,0.3206
2354.00,0.3207
2353.00,0.3207
2352.00,0.3205
2351.00,0.3202
2350.00,0.3197
2349.00,0.3194
2348.00,0.3192
2347.00,0.3192
2346.00,0.3193
2345.00,0.3192
2344.00,0.3191
2343.00,0.3189
2342.00,0.3187
2341.00,0.3186
2340.00,0.3186
2339.00,0.3185
2338.00,0.3185
2337.00,0.3184
2336.00,0.3183
2335.00,0.3181
2334.00,0.3180
2333.00,0.3178
2332.00,0.3175
2331.00,0.3171
2330.00,0.3167
2329.00,0.3163
2328.00,0.3160
2327.00,0.3157
2326.00,0.3155
2325.00,0.3152
2324.00,0.3150
2323.00,0.3148
2322.00,0.3146
2321.00,0.3144
2320.00,0.3141
2319.00,0.3138
2318.00,0.3135
2317.00,0.3132
2316.00,0.3129
2315.00,0.3127
2314.00,0.3125
2313.00,0.3122
2312.00,0.3119
2311.00,0.3115
2310.00,0.3111
2309.00,0.3108
2308.00,0.3104
2307.00,0.3100
2306.00,0.3096
2305.00,0.3093
2304.00,0.3091
2303.00,0.3088
2302.00,0.3086
2301.00,0.3083
2300.00,0.3081
2299.00,0.3078
2298.00,0.3076
2297.00,0.3073
2296.00,0.3071
2295.00,0.3068
2294.00,0.3065
2293.00,0.3062
2292.00,0.3059
2291.00,0.3055
2290.00,0.3051
2289.00,0.3048
2288.00,0.3044
2287.00,0.3041
2286.00,0.3037
2285.00,0.3033
2284.00,0.3029
2283.00,0.3025
2282.00,0.3022
2281.00,0.3019
2280.00,0.3015
2279.00,0.3012
2278.00,0.3008
2277.00,0.3005
2276.00,0.3002
2275.00,0.2999
2274.00,0.2996
2273.00,0.2994
2272.00,0.2991
2271.00,0.2989
2270.00,0.2988
2269.00,0.2987
2268.00,0.2985
2267.00,0.2984
2266.00,0.2983
2265.00,0.2982
2264.00,0.2981
2263.00,0.2979
2262.00,0.2977
2261.00,0.2975
2260.00,0.2972
2259.00,0.2969
2258.00,0.2966
2257.00,0.2963
2256.00,0.2959
2255.00,0.2956
2254.00,0.2952
2253.00,0.2949
2252.00,0.2946
2251.00,0.2943
2250.00,0.2941
2249.00,0.2938
2248.00,0.2935
2247.00,0.2933
2246.00,0.2931
2245.00,0.2929
2244.00,0.2927
2243.00,0.2925
2242.00,0.2923
2241.00,0.2921
2240.00,0.2919
2239.00,0.2917
2238.00,0.2916
2237.00,0.2914
2236.00,0.2913
2235.00,0.2912
2234.00,0.2911
2233.00,0.2910
2232.00,0.2909
2231.00,0.2907
2230.00,0.2906
2229.00,0.2905
2228.00,0.2904
2227.00,0.2902
2226.00,0.2900
2225.00,0.2898
2224.00,0.2896
2223.00,0.2894
2222.00,0.2892
2221.00,0.2891
2220.00,0.2890
2219.00,0.2889
2218.00,0.2888
2217.00,0.2887
2216.00,0.2886
2215.00,0.2885
2214.00,0.2885
2213.00,0.2884
2212.00,0.2884
2211.00,0.2884
2210.00,0.2884
2209.00,0.2884
2208.00,0.2885
2207.00,0.2885
2206.00,0.2886
2205.00,0.2886
2204.00,0.2887
2203.00,0.2887
2202.00,0.2888
2201.00,0.2889
2200.00,0.2890
2199.00,0.2891
2198.00,0.2892
2197.00,0.2893
2196.00,0.2893
2195.00,0.2893
2194.00,0.2894
2193.00,0.2894
2192.00,0.2895
2191.00,0.2895
2190.00,0.2895
2189.00,0.2896
2188.00,0.2896
2187.00,0.2896
2186.00,0.2895
2185.00,0.2895
2184.00,0.2894
2183.00,0.2894
2182.00,0.2893
2181.00,0.2892
2180.00,0.2891
2179.00,0.2891
2178.00,0.2890
2177.00,0.2889
2176.00,0.2889
2175.00,0.2889
2174.00,0.2888
2173.00,0.2888
2172.00,0.2889
2171.00,0.2889
2170.00,0.2889
2169.00,0.2889
2168.00,0.2889
2167.00,0.2889
2166.00,0.2888
2165.00,0.2888
2164.00,0.2888
2163.00,0.2888
2162.00,0.2888
2161.00,0.2887
2160.00,0.2886
2159.00,0.2885
2158.00,0.2883
2157.00,0.2882
2156.00,0.2880
2155.00,0.2879
2154.00,0.2877
2153.00,0.2875
2152.00,0.2873
2151.00,0.2871
2150.00,0.2868
2149.00,0.2865
2148.00,0.2861
2147.00,0.2857
2146.00,0.2852
2145.00,0.2847
2144.00,0.2842
2143.00,0.2837
2142.00,0.2831
2141.00,0.2826
2140.00,0.2821
2139.00,0.2816
2138.00,0.2812
2137.00,0.2809
2136.00,0.2806
2135.00,0.2802
2134.00,0.2800
2133.00,0.2798
2132.00,0.2796
2131.00,0.2794
2130.00,0.2793
2129.00,0.2791
2128.00,0.2789
2127.00,0.2787
2126.00,0.2785
2125.00,0.2784
2124.00,0.2783
2123.00,0.2782
2122.00,0.2781
2121.00,0.2780
2120.00,0.2778
2119.00,0.2777
2118.00,0.2776
2117.00,0.2775
2116.00,0.2773
2115.00,0.2772
2114.00,0.2770
2113.00,0.2768
2112.00,0.2766
2111.00,0.2764
2110.00,0.2763
2109.00,0.2761
2108.00,0.2760
2107.00,0.2759
2106.00,0.2758
2105.00,0.2758
2104.00,0.2758
2103.00,0.2758
2102.00,0.2758
2101.00,0.2758
2100.00,0.2759
2099.00,0.2758
2098.00,0.2758
2097.00,0.2757
2096.00,0.2757
2095.00,0.2757
2094.00,0.2757
2093.00,0.2757
2092.00,0.2758
2091.00,0.2758
2090.00,0.2758
2089.00,0.2757
2088.00,0.2756
2087.00,0.2756
2086.00,0.2755
2085.00,0.2755
2084.00,0.2755
2083.00,0.2755
2082.00,0.2755
2081.00,0.2755
2080.00,0.2755
2079.00,0.2754
2078.00,0.2753
2077.00,0.2753
2076.00,0.2753
2075.00,0.2753
2074.00,0.2753
2073.00,0.2753
2072.00,0.2754
2071.00,0.2754
2070.00,0.2755
2069.00,0.2756
2068.00,0.2758
2067.00,0.2760
2066.00,0.2762
2065.00,0.2765
2064.00,0.2767
2063.00,0.2769
2062.00,0.2772
2061.00,0.2774
2060.00,0.2777
2059.00,0.2779
2058.00,0.2782
2057.00,0.2784
2056.00,0.2787
2055.00,0.2788
2054.00,0.2790
2053.00,0.2792
2052.00,0.2794
2051.00,0.2796
2050.00,0.2798
2049.00,0.2800
2048.00,0.2802
2047.00,0.2804
2046.00,0.2806
2045.00,0.2808
2044.00,0.2810
2043.00,0.2812
2042.00,0.2813
2041.00,0.2814
2040.00,0.2816
2039.00,0.2818
2038.00,0.2819
2037.00,0.2821
2036.00,0.2822
2035.00,0.2823
2034.00,0.2824
2033.00,0.2825
2032.00,0.2826
2031.00,0.2827
2030.00,0.2828
2029.00,0.2830
2028.00,0.2831
2027.00,0.2831
2026.00,0.2832
2025.00,0.2832
2024.00,0.2832
2023.00,0.2831
2022.00,0.2829
2021.00,0.2826
2020.00,0.2821
2019.00,0.2814
2018.00,0.2807
2017.00,0.2798
2016.00,0.2791
2015.00,0.2783
2014.00,0.2776
2013.00,0.2768
2012.00,0.2761
2011.00,0.2753
2010.00,0.2746
2009.00,0.2739
2008.00,0.2733
2007.00,0.2728
2006.00,0.2723
2005.00,0.2719
2004.00,0.2715
2003.00,0.2712
2002.00,0.2710
2001.00,0.2707
2000.00,0.2705
1999.00,0.2704
1998.00,0.2702
1997.00,0.2702
1996.00,0.2701
1995.00,0.2701
1994.00,0.2700
1993.00,0.2699
1992.00,0.2699
1991.00,0.2699
1990.00,0.2699
1989.00,0.2699
1988.00,0.2698
1987.00,0.2697
1986.00,0.2697
1985.00,0.2698
1984.00,0.2698
1983.00,0.2698
1982.00,0.2698
1981.00,0.2697
1980.00,0.2696
1979.00,0.2695
1978.00,0.2695
1977.00,0.2694
1976.00,0.2694
1975.00,0.2694
1974.00,0.2693
1973.00,0.2692
1972.00,0.2691
1971.00,0.2690
1970.00,0.2689
1969.00,0.2689
1968.00,0.2688
1967.00,0.2688
1966.00,0.2688
1965.00,0.2690
1964.00,0.2691
1963.00,0.2692
1962.00,0.2693
1961.00,0.2694
1960.00,0.2695
1959.00,0.2697
1958.00,0.2699
1957.00,0.2701
1956.00,0.2703
1955.00,0.2705
1954.00,0.2707
1953.00,0.2709
1952.00,0.2712
1951.00,0.2713
1950.00,0.2715
1949.00,0.2716
1948.00,0.2717
1947.00,0.2718
1946.00,0.2720
1945.00,0.2722
1944.00,0.2724
1943.00,0.2727
1942.00,0.2731
1941.00,0.2737
1940.00,0.2743
1939.00,0.2747
1938.00,0.2748
1937.00,0.2749
1936.00,0.2750
1935.00,0.2750
1934.00,0.2750
1933.00,0.2749
1932.00,0.2749
1931.00,0.2748
1930.00,0.2747
1929.00,0.2747
1928.00,0.2746
1927.00,0.2746
1926.00,0.2745
1925.00,0.2745
1924.00,0.2744
1923.00,0.2744
1922.00,0.2746
1921.00,0.2751
1920.00,0.2756
1919.00,0.2760
1918.00,0.2763
1917.00,0.2766
1916.00,0.2770
1915.00,0.2772
1914.00,0.2772
1913.00,0.2773
1912.00,0.2773
1911.00,0.2773
1910.00,0.2774
1909.00,0.2775
1908.00,0.2776
1907.00,0.2778
1906.00,0.2778
1905.00,0.2778
1904.00,0.2778
1903.00,0.2777
1902.00,0.2776
1901.00,0.2774
1900.00,0.2774
1899.00,0.2773
1898.00,0.2772
1897.00,0.2772
1896.00,0.2770
1895.00,0.2772
1894.00,0.2774
1893.00,0.2774
1892.00,0.2775
1891.00,0.2776
1890.00,0.2777
1889.00,0.2779
1888.00,0.2780
1887.00,0.2782
1886.00,0.2784
1885.00,0.2784
1884.00,0.2785
1883.00,0.2787
1882.00,0.2788
1881.00,0.2790
1880.00,0.2790
1879.00,0.2790
1878.00,0.2790
1877.00,0.2790
1876.00,0.2789
1875.00,0.2788
1874.00,0.2786
1873.00,0.2785
1872.00,0.2783
1871.00,0.2780
1870.00,0.2776
1869.00,0.2769
1868.00,0.2771
1867.00,0.2768
1866.00,0.2762
1865.00,0.2763
1864.00,0.2760
1863.00,0.2757
1862.00,0.2754
1861.00,0.2751
1860.00,0.2748
1859.00,0.2745
1858.00,0.2742
1857.00,0.2739
1856.00,0.2737
1855.00,0.2735
1854.00,0.2732
1853.00,0.2731
1852.00,0.2729
1851.00,0.2727
1850.00,0.2725
1849.00,0.2724
1848.00,0.2723
1847.00,0.2723
1846.00,0.2724
1845.00,0.2725
1844.00,0.2726
1843.00,0.2728
1842.00,0.2728
1841.00,0.2726
1840.00,0.2723
1839.00,0.2720
1838.00,0.2717
1837.00,0.2718
1836.00,0.2720
1835.00,0.2719
1834.00,0.2719
1833.00,0.2719
1832.00,0.2719
1831.00,0.2719
1830.00,0.2718
1829.00,0.2718
1828.00,0.2717
1827.00,0.2717
1826.00,0.2717
1825.00,0.2717
1824.00,0.2716
1823.00,0.2716
1822.00,0.2717
1821.00,0.2716
1820.00,0.2717
1819.00,0.2717
1818.00,0.2718
1817.00,0.2720
1816.00,0.2722
1815.00,0.2723
1814.00,0.2725
1813.00,0.2726
1812.00,0.2727
1811.00,0.2729
1810.00,0.2732
1809.00,0.2738
1808.00,0.2747
1807.00,0.2755
1806.00,0.2765
1805.00,0.2775
1804.00,0.2786
1803.00,0.2797
1802.00,0.2806
1801.00,0.2814
1800.00,0.2821
1799.00,0.2827
1798.00,0.2832
1797.00,0.2837
1796.00,0.2842
1795.00,0.2846
1794.00,0.2851
1793.00,0.2855
1792.00,0.2860
1791.00,0.2865
1790.00,0.2870
1789.00,0.2873
1788.00,0.2874
1787.00,0.2875
1786.00,0.2877
1785.00,0.2881
1784.00,0.2884
1783.00,0.2886
1782.00,0.2886
1781.00,0.2887
1780.00,0.2890
1779.00,0.2896
1778.00,0.2903
1777.00,0.2907
1776.00,0.2911
1775.00,0.2916
1774.00,0.2920
1773.00,0.2925
1772.00,0.2930
1771.00,0.2938
1770.00,0.2947
1769.00,0.2956
1768.00,0.2963
1767.00,0.2968
1766.00,0.2972
1765.00,0.2977
1764.00,0.2982
1763.00,0.2987
1762.00,0.2994
1761.00,0.3003
1760.00,0.3014
1759.00,0.3023
1758.00,0.3031
1757.00,0.3041
1756.00,0.3056
1755.00,0.3073
1754.00,0.3093
1753.00,0.3116
1752.00,0.3145
1751.00,0.3179
1750.00,0.3216
1749.00,0.3258
1748.00,0.3308
1747.00,0.3366
1746.00,0.3431
1745.00,0.3497
1744.00,0.3561
1743.00,0.3616
1742.00,0.3660
1741.00,0.3690
1740.00,0.3702
1739.00,0.3697
1738.00,0.3683
1737.00,0.3664
1736.00,0.3639
1735.00,0.3603
1734.00,0.3558
1733.00,0.3518
1732.00,0.3484
1731.00,0.3450
1730.00,0.3418
1729.00,0.3396
1728.00,0.3384
1727.00,0.3375
1726.00,0.3370
1725.00,0.3367
1724.00,0.3368
1723.00,0.3372
1722.00,0.3379
1721.00,0.3389
1720.00,0.3400
1719.00,0.3410
1718.00,0.3420
1717.00,0.3434
1716.00,0.3450
1715.00,0.3464
1714.00,0.3476
1713.00,0.3490
1712.00,0.3506
1711.00,0.3522
1710.00,0.3539
1709.00,0.3558
1708.00,0.3575
1707.00,0.3587
1706.00,0.3594
1705.00,0.3598
1704.00,0.3601
1703.00,0.3602
1702.00,0.3597
1701.00,0.3580
1700.00,0.3551
1699.00,0.3524
1698.00,0.3501
1697.00,0.3477
1696.00,0.3457
1695.00,0.3444
1694.00,0.3436
1693.00,0.3425
1692.00,0.3412
1691.00,0.3401
1690.00,0.3396
1689.00,0.3396
1688.00,0.3400
1687.00,0.3407
1686.00,0.3413
1685.00,0.3410
1684.00,0.3400
1683.00,0.3397
1682.00,0.3397
1681.00,0.3393
1680.00,0.3389
1679.00,0.3391
1678.00,0.3399
1677.00,0.3411
1676.00,0.3424
1675.00,0.3436
1674.00,0.3447
1673.00,0.3455
1672.00,0.3461
1671.00,0.3464
1670.00,0.3472
1669.00,0.3486
1668.00,0.3507
1667.00,0.3525
1666.00,0.3539
1665.00,0.3552
1664.00,0.3567
1663.00,0.3584
1662.00,0.3605
1661.00,0.3632
1660.00,0.3660
1659.00,0.3685
1658.00,0.3710
1657.00,0.3739
1656.00,0.3775
1655.00,0.3816
1654.00,0.3859
1653.00,0.3908
1652.00,0.3963
1651.00,0.3997
1650.00,0.4004
1649.00,0.4015
1648.00,0.4047
1647.00,0.4087
1646.00,0.4127
1645.00,0.4165
1644.00,0.4212
1643.00,0.4252
1642.00,0.4281
1641.00,0.4317
1640.00,0.4354
1639.00,0.4388
1638.00,0.4421
1637.00,0.4458
1636.00,0.4502
1635.00,0.4551
1634.00,0.4599
1633.00,0.4639
1632.00,0.4671
1631.00,0.4703
1630.00,0.4740
1629.00,0.4785
1628.00,0.4838
1627.00,0.4894
1626.00,0.4954
1625.00,0.5020
1624.00,0.5094
1623.00,0.5176
1622.00,0.5265
1621.00,0.5362
1620.00,0.5463
1619.00,0.5573
1618.00,0.5703
1617.00,0.5864
1616.00,0.6047
1615.00,0.6230
1614.00,0.6410
1613.00,0.6606
1612.00,0.6832
1611.00,0.7082
1610.00,0.7340
1609.00,0.7599
1608.00,0.7849
1607.00,0.8076
1606.00,0.8280
1605.00,0.8485
1604.00,0.8713
1603.00,0.8975
1602.00,0.9283
1601.00,0.9660
1600.00,1.0120
1599.00,1.0660
1598.00,1.1288
1597.00,1.2047
1596.00,1.2986
1595.00,1.4118
1594.00,1.5459
1593.00,1.7090
1592.00,1.9126
1591.00,2.1568
1590.00,2.4257
1589.00,2.7355
1588.00,3.1892
1587.00,3.8980
1586.00,3.9287
1585.00,3.8758
1584.00,3.9260
1583.00,3.7646
1582.00,3.7128
1581.00,3.6237
1580.00,3.7041
1579.00,3.5446
1578.00,2.9889
1577.00,2.5875
1576.00,2.2999
1575.00,2.0720
1574.00,1.9003
1573.00,1.7811
1572.00,1.7009
1571.00,1.6504
1570.00,1.6328
1569.00,1.6581
1568.00,1.7288
1567.00,1.8374
1566.00,1.9816
1565.00,2.1752
1564.00,2.4344
1563.00,2.7251
1562.00,2.9148
1561.00,2.9601
1560.00,2.8467
1559.00,2.4958
1558.00,2.1578
1557.00,1.9140
1556.00,1.7135
1555.00,1.5286
1554.00,1.3701
1553.00,1.2496
1552.00,1.1627
1551.00,1.0982
1550.00,1.0510
1549.00,1.0218
1548.00,1.0097
1547.00,1.0103
1546.00,1.0196
1545.00,1.0350
1544.00,1.0532
1543.00,1.0684
1542.00,1.0750
1541.00,1.0690
1540.00,1.0492
1539.00,1.0203
1538.00,0.9904
1537.00,0.9629
1536.00,0.9367
1535.00,0.9086
1534.00,0.8780
1533.00,0.8491
1532.00,0.8256
1531.00,0.8064
1530.00,0.7896
1529.00,0.7749
1528.00,0.7616
1527.00,0.7488
1526.00,0.7366
1525.00,0.7266
1524.00,0.7197
1523.00,0.7157
1522.00,0.7153
1521.00,0.7198
1520.00,0.7277
1519.00,0.7360
1518.00,0.7434
1517.00,0.7497
1516.00,0.7528
1515.00,0.7498
1514.00,0.7396
1513.00,0.7235
1512.00,0.7039
1511.00,0.6837
1510.00,0.6657
1509.00,0.6510
1508.00,0.6394
1507.00,0.6307
1506.00,0.6269
1505.00,0.6279
1504.00,0.6300
1503.00,0.6319
1502.00,0.6344
1501.00,0.6385
1500.00,0.6443
1499.00,0.6510
1498.00,0.6591
1497.00,0.6701
1496.00,0.6839
1495.00,0.6991
1494.00,0.7149
1493.00,0.7329
1492.00,0.7543
1491.00,0.7775
1490.00,0.7992
1489.00,0.8170
1488.00,0.8314
1487.00,0.8453
1486.00,0.8625
1485.00,0.8853
1484.00,0.9136
1483.00,0.9469
1482.00,0.9861
1481.00,1.0329
1480.00,1.0872
1479.00,1.1489
1478.00,1.2212
1477.00,1.3095
1476.00,1.4157
1475.00,1.5400
1474.00,1.6903
1473.00,1.8859
1472.00,2.1419
1471.00,2.4486
1470.00,2.7827
1469.00,3.1505
1468.00,3.5836
1467.00,3.9399
1466.00,3.9444
1465.00,4.0860
1464.00,4.3718
1463.00,4.2839
1462.00,4.1039
1461.00,3.9106
1460.00,3.8129
1459.00,3.7966
1458.00,3.8988
1457.00,3.9165
1456.00,3.7221
1455.00,3.8159
1454.00,4.1332
1453.00,4.0714
1452.00,3.9924
1451.00,3.9752
1450.00,3.8696
1449.00,3.8348
1448.00,3.9397
1447.00,4.2173
1446.00,4.2278
1445.00,4.1617
1444.00,4.0677
1443.00,3.7500
1442.00,3.5102
1441.00,3.4129
1440.00,3.2845
1439.00,3.0401
1438.00,2.7892
1437.00,2.5648
1436.00,2.3595
1435.00,2.1785
1434.00,2.0238
1433.00,1.8851
1432.00,1.7535
1431.00,1.6302
1430.00,1.5210
1429.00,1.4289
1428.00,1.3536
1427.00,1.2928
1426.00,1.2437
1425.00,1.2038
1424.00,1.1726
1423.00,1.1500
1422.00,1.1349
1421.00,1.1256
1420.00,1.1208
1419.00,1.1210
1418.00,1.1269
1417.00,1.1390
1416.00,1.1570
1415.00,1.1805
1414.00,1.2075
1413.00,1.2349
1412.00,1.2582
1411.00,1.2726
1410.00,1.2747
1409.00,1.2641
1408.00,1.2418
1407.00,1.2091
1406.00,1.1679
1405.00,1.1214
1404.00,1.0737
1403.00,1.0287
1402.00,0.9880
1401.00,0.9511
1400.00,0.9179
1399.00,0.8897
1398.00,0.8678
1397.00,0.8519
1396.00,0.8402
1395.00,0.8312
1394.00,0.8246
1393.00,0.8215
1392.00,0.8237
1391.00,0.8330
1390.00,0.8517
1389.00,0.8826
1388.00,0.9294
1387.00,0.9934
1386.00,1.0715
1385.00,1.1595
1384.00,1.2570
1383.00,1.3675
1382.00,1.4947
1381.00,1.6412
1380.00,1.8053
1379.00,1.9692
1378.00,2.0877
1377.00,2.1128
1376.00,2.0416
1375.00,1.9109
1374.00,1.7645
1373.00,1.6335
1372.00,1.5291
1371.00,1.4497
1370.00,1.3920
1369.00,1.3538
1368.00,1.3314
1367.00,1.3154
1366.00,1.2928
1365.00,1.2538
1364.00,1.1978
1363.00,1.1331
1362.00,1.0714
1361.00,1.0203
1360.00,0.9809
1359.00,0.9515
1358.00,0.9300
1357.00,0.9156
1356.00,0.9077
1355.00,0.9053
1354.00,0.9069
1353.00,0.9113
1352.00,0.9174
1351.00,0.9253
1350.00,0.9359
1349.00,0.9509
1348.00,0.9724
1347.00,1.0000
1346.00,1.0297
1345.00,1.0528
1344.00,1.0595
1343.00,1.0453
1342.00,1.0144
1341.00,0.9753
1340.00,0.9352
1339.00,0.8979
1338.00,0.8644
1337.00,0.8345
1336.00,0.8077
1335.00,0.7840
1334.00,0.7635
1333.00,0.7464
1332.00,0.7328
1331.00,0.7226
1330.00,0.7157
1329.00,0.7118
1328.00,0.7107
1327.00,0.7118
1326.00,0.7143
1325.00,0.7173
1324.00,0.7202
1323.00,0.7229
1322.00,0.7255
1321.00,0.7283
1320.00,0.7314
1319.00,0.7350
1318.00,0.7390
1317.00,0.7435
1316.00,0.7484
1315.00,0.7540
1314.00,0.7604
1313.00,0.7677
1312.00,0.7759
1311.00,0.7846
1310.00,0.7933
1309.00,0.8011
1308.00,0.8072
1307.00,0.8105
1306.00,0.8107
1305.00,0.8083
1304.00,0.8043
1303.00,0.7998
1302.00,0.7955
1301.00,0.7917
1300.00,0.7884
1299.00,0.7853
1298.00,0.7816
1297.00,0.7773
1296.00,0.7725
1295.00,0.7676
1294.00,0.7630
1293.00,0.7581
1292.00,0.7520
1291.00,0.7439
1290.00,0.7338
1289.00,0.7225
1288.00,0.7115
1287.00,0.7017
1286.00,0.6935
1285.00,0.6871
1284.00,0.6830
1283.00,0.6821
1282.00,0.6851
1281.00,0.6923
1280.00,0.7023
1279.00,0.7115
1278.00,0.7153
1277.00,0.7105
1276.00,0.6977
1275.00,0.6808
1274.00,0.6640
1273.00,0.6500
1272.00,0.6396
1271.00,0.6328
1270.00,0.6285
1269.00,0.6255
1268.00,0.6228
1267.00,0.6195
1266.00,0.6153
1265.00,0.6106
1264.00,0.6062
1263.00,0.6025
1262.00,0.5998
1261.00,0.5978
1260.00,0.5967
1259.00,0.5966
1258.00,0.5975
1257.00,0.5988
1256.00,0.6005
1255.00,0.6027
1254.00,0.6054
1253.00,0.6081
1252.00,0.6100
1251.00,0.6107
1250.00,0.6100
1249.00,0.6080
1248.00,0.6052
1247.00,0.6019
1246.00,0.5982
1245.00,0.5945
1244.00,0.5910
1243.00,0.5881
1242.00,0.5855
1241.00,0.5828
1240.00,0.5795
1239.00,0.5763
1238.00,0.5741
1237.00,0.5742
1236.00,0.5771
1235.00,0.5826
1234.00,0.5898
1233.00,0.5976
1232.00,0.6049
1231.00,0.6105
1230.00,0.6131
1229.00,0.6114
1228.00,0.6050
1227.00,0.5945
1226.00,0.5814
1225.00,0.5674
1224.00,0.5541
1223.00,0.5425
1222.00,0.5332
1221.00,0.5260
1220.00,0.5207
1219.00,0.5171
1218.00,0.5151
1217.00,0.5147
1216.00,0.5155
1215.00,0.5174
1214.00,0.5198
1213.00,0.5220
1212.00,0.5237
1211.00,0.5247
1210.00,0.5246
1209.00,0.5231
1208.00,0.5206
1207.00,0.5177
1206.00,0.5152
1205.00,0.5142
1204.00,0.5154
1203.00,0.5196
1202.00,0.5267
1201.00,0.5357
1200.00,0.5446
1199.00,0.5510
1198.00,0.5540
1197.00,0.5546
1196.00,0.5552
1195.00,0.5577
1194.00,0.5628
1193.00,0.5699
1192.00,0.5777
1191.00,0.5844
1190.00,0.5885
1189.00,0.5888
1188.00,0.5853
1187.00,0.5790
1186.00,0.5709
1185.00,0.5621
1184.00,0.5533
1183.00,0.5450
1182.00,0.5375
1181.00,0.5310
1180.00,0.5258
1179.00,0.5221
1178.00,0.5197
1177.00,0.5184
1176.00,0.5184
1175.00,0.5196
1174.00,0.5220
1173.00,0.5252
1172.00,0.5291
1171.00,0.5330
1170.00,0.5365
1169.00,0.5391
1168.00,0.5409
1167.00,0.5424
1166.00,0.5441
1165.00,0.5463
1164.00,0.5494
1163.00,0.5532
1162.00,0.5573
1161.00,0.5608
1160.00,0.5626
1159.00,0.5625
1158.00,0.5606
1157.00,0.5579
1156.00,0.5554
1155.00,0.5533
1154.00,0.5517
1153.00,0.5502
1152.00,0.5484
1151.00,0.5465
1150.00,0.5445
1149.00,0.5423
1148.00,0.5402
1147.00,0.5385
1146.00,0.5372
1145.00,0.5363
1144.00,0.5362
1143.00,0.5371
1142.00,0.5394
1141.00,0.5432
1140.00,0.5485
1139.00,0.5551
1138.00,0.5632
1137.00,0.5726
1136.00,0.5832
1135.00,0.5941
1134.00,0.6030
1133.00,0.6075
1132.00,0.6063
1131.00,0.6002
1130.00,0.5918
1129.00,0.5841
1128.00,0.5797
1127.00,0.5790
1126.00,0.5806
1125.00,0.5817
1124.00,0.5802
1123.00,0.5754
1122.00,0.5689
1121.00,0.5628
1120.00,0.5590
1119.00,0.5582
1118.00,0.5602
1117.00,0.5639
1116.00,0.5677
1115.00,0.5698
1114.00,0.5682
1113.00,0.5622
1112.00,0.5524
1111.00,0.5409
1110.00,0.5297
1109.00,0.5204
1108.00,0.5136
1107.00,0.5096
1106.00,0.5086
1105.00,0.5104
1104.00,0.5146
1103.00,0.5206
1102.00,0.5277
1101.00,0.5350
1100.00,0.5412
1099.00,0.5445
1098.00,0.5437
1097.00,0.5392
1096.00,0.5328
1095.00,0.5268
1094.00,0.5221
1093.00,0.5188
1092.00,0.5163
1091.00,0.5141
1090.00,0.5120
1089.00,0.5104
1088.00,0.5096
1087.00,0.5101
1086.00,0.5123
1085.00,0.5161
1084.00,0.5217
1083.00,0.5288
1082.00,0.5373
1081.00,0.5464
1080.00,0.5552
1079.00,0.5625
1078.00,0.5671
1077.00,0.5684
1076.00,0.5659
1075.00,0.5601
1074.00,0.5518
1073.00,0.5423
1072.00,0.5329
1071.00,0.5244
1070.00,0.5171
1069.00,0.5107
1068.00,0.5051
1067.00,0.5002
1066.00,0.4959
1065.00,0.4922
1064.00,0.4892
1063.00,0.4870
1062.00,0.4854
1061.00,0.4840
1060.00,0.4822
1059.00,0.4799
1058.00,0.4771
1057.00,0.4740
1056.00,0.4708
1055.00,0.4678
1054.00,0.4648
1053.00,0.4620
1052.00,0.4594
1051.00,0.4574
1050.00,0.4558
1049.00,0.4548
1048.00,0.4544
1047.00,0.4545
1046.00,0.4549
1045.00,0.4551
1044.00,0.4549
1043.00,0.4545
1042.00,0.4542
1041.00,0.4541
1040.00,0.4545
1039.00,0.4552
1038.00,0.4561
1037.00,0.4571
1036.00,0.4585
1035.00,0.4606
1034.00,0.4639
1033.00,0.4683
1032.00,0.4738
1031.00,0.4800
1030.00,0.4866
1029.00,0.4926
1028.00,0.4970
1027.00,0.4988
1026.00,0.4970
1025.00,0.4919
1024.00,0.4842
1023.00,0.4751
1022.00,0.4661
1021.00,0.4583
1020.00,0.4522
1019.00,0.4479
1018.00,0.4450
1017.00,0.4432
1016.00,0.4420
1015.00,0.4412
1014.00,0.4407
1013.00,0.4401
1012.00,0.4397
1011.00,0.4398
1010.00,0.4409
1009.00,0.4428
1008.00,0.4448
1007.00,0.4461
1006.00,0.4465
1005.00,0.4465
1004.00,0.4465
1003.00,0.4469
1002.00,0.4476
1001.00,0.4485
1000.00,0.4493
999.00,0.4499
998.00,0.4499
997.00,0.4490
996.00,0.4476
995.00,0.4458
994.00,0.4441
993.00,0.4425
992.00,0.4411
991.00,0.4399
990.00,0.4389
989.00,0.4378
988.00,0.4363
987.00,0.4342
986.00,0.4321
985.00,0.4306
984.00,0.4305
983.00,0.4320
982.00,0.4353
981.00,0.4400
980.00,0.4465
979.00,0.4552
978.00,0.4671
977.00,0.4838
976.00,0.5068
975.00,0.5377
974.00,0.5778
973.00,0.6282
972.00,0.6890
971.00,0.7573
970.00,0.8256
969.00,0.8813
968.00,0.9088
967.00,0.8986
966.00,0.8541
965.00,0.7902
964.00,0.7222
963.00,0.6608
962.00,0.6115
961.00,0.5765
960.00,0.5561
959.00,0.5489
958.00,0.5517
957.00,0.5597
956.00,0.5673
955.00,0.5700
954.00,0.5650
953.00,0.5532
952.00,0.5372
951.00,0.5208
950.00,0.5064
949.00,0.4958
948.00,0.4893
947.00,0.4868
946.00,0.4877
945.00,0.4913
944.00,0.4967
943.00,0.5030
942.00,0.5093
941.00,0.5146
940.00,0.5183
939.00,0.5202
938.00,0.5204
937.00,0.5191
936.00,0.5165
935.00,0.5130
934.00,0.5085
933.00,0.5030
932.00,0.4967
931.00,0.4897
930.00,0.4826
929.00,0.4759
928.00,0.4701
927.00,0.4660
926.00,0.4640
925.00,0.4645
924.00,0.4674
923.00,0.4719
922.00,0.4765
921.00,0.4792
920.00,0.4779
919.00,0.4720
918.00,0.4627
917.00,0.4517
916.00,0.4408
915.00,0.4315
914.00,0.4242
913.00,0.4187
912.00,0.4147
911.00,0.4120
910.00,0.4105
909.00,0.4104
908.00,0.4121
907.00,0.4161
906.00,0.4224
905.00,0.4298
904.00,0.4361
903.00,0.4392
902.00,0.4381
901.00,0.4343
900.00,0.4299
899.00,0.4269
898.00,0.4258
897.00,0.4263
896.00,0.4282
895.00,0.4310
894.00,0.4346
893.00,0.4389
892.00,0.4435
891.00,0.4478
890.00,0.4512
889.00,0.4530
888.00,0.4528
887.00,0.4504
886.00,0.4463
885.00,0.4414
884.00,0.4369
883.00,0.4332
882.00,0.4306
881.00,0.4287
880.00,0.4274
879.00,0.4265
878.00,0.4258
877.00,0.4254
876.00,0.4252
875.00,0.4254
874.00,0.4257
873.00,0.4259
872.00,0.4260
871.00,0.4261
870.00,0.4265
869.00,0.4272
868.00,0.4286
867.00,0.4313
866.00,0.4355
865.00,0.4411
864.00,0.4473
863.00,0.4529
862.00,0.4558
861.00,0.4547
860.00,0.4493
859.00,0.4410
858.00,0.4318
857.00,0.4233
856.00,0.4164
855.00,0.4113
854.00,0.4077
853.00,0.4053
852.00,0.4038
851.00,0.4030
850.00,0.4024
849.00,0.4017
848.00,0.4008
847.00,0.4000
846.00,0.3995
845.00,0.3994
844.00,0.3998
843.00,0.4013
842.00,0.4045
841.00,0.4101
840.00,0.4188
839.00,0.4303
838.00,0.4429
837.00,0.4534
836.00,0.4588
835.00,0.4579
834.00,0.4520
833.00,0.4441
832.00,0.4373
831.00,0.4336
830.00,0.4337
829.00,0.4369
828.00,0.4420
827.00,0.4479
826.00,0.4539
825.00,0.4602
824.00,0.4668
823.00,0.4735
822.00,0.4792
821.00,0.4826
820.00,0.4834
819.00,0.4817
818.00,0.4786
817.00,0.4747
816.00,0.4708
815.00,0.4675
814.00,0.4647
813.00,0.4620
812.00,0.4592
811.00,0.4565
810.00,0.4540
809.00,0.4516
808.00,0.4493
807.00,0.4471
806.00,0.4447
805.00,0.4420
804.00,0.4388
803.00,0.4354
802.00,0.4319
801.00,0.4283
800.00,0.4251
799.00,0.4225
798.00,0.4206
797.00,0.4188
796.00,0.4169
795.00,0.4151
794.00,0.4138
793.00,0.4133
792.00,0.4138
791.00,0.4151
790.00,0.4168
789.00,0.4185
788.00,0.4201
787.00,0.4221
786.00,0.4251
785.00,0.4294
784.00,0.4352
783.00,0.4430
782.00,0.4531
781.00,0.4654
780.00,0.4796
779.00,0.4936
778.00,0.5046
777.00,0.5093
776.00,0.5071
775.00,0.4999
774.00,0.4914
773.00,0.4842
772.00,0.4797
771.00,0.4780
770.00,0.4782
769.00,0.4795
768.00,0.4812
767.00,0.4829
766.00,0.4845
765.00,0.4858
764.00,0.4872
763.00,0.4895
762.00,0.4929
761.00,0.4974
760.00,0.5022
759.00,0.5064
758.00,0.5097
757.00,0.5120
756.00,0.5142
755.00,0.5174
754.00,0.5218
753.00,0.5272
752.00,0.5328
751.00,0.5384
750.00,0.5438
749.00,0.5494
748.00,0.5552
747.00,0.5614
746.00,0.5683
745.00,0.5759
744.00,0.5842
743.00,0.5930
742.00,0.6024
741.00,0.6123
740.00,0.6231
739.00,0.6348
738.00,0.6475
737.00,0.6611
736.00,0.6751
735.00,0.6896
734.00,0.7044
733.00,0.7197
732.00,0.7360
731.00,0.7546
730.00,0.7768
729.00,0.8040
728.00,0.8371
727.00,0.8779
726.00,0.9286
725.00,0.9895
724.00,1.0562
723.00,1.1168
722.00,1.1525
721.00,1.1473
720.00,1.1024
719.00,1.0360
718.00,0.9668
717.00,0.9053
716.00,0.8551
715.00,0.8163
714.00,0.7871
713.00,0.7645
712.00,0.7457
711.00,0.7285
710.00,0.7112
709.00,0.6929
708.00,0.6735
707.00,0.6539
706.00,0.6351
705.00,0.6171
704.00,0.6002
703.00,0.5847
702.00,0.5710
701.00,0.5587
700.00,0.5471
699.00,0.5352
698.00,0.5224
697.00,0.5089
696.00,0.4957
695.00,0.4840
694.00,0.4746
693.00,0.4673
692.00,0.4620
691.00,0.4584
690.00,0.4560
689.00,0.4539
688.00,0.4510
687.00,0.4468
686.00,0.4413
685.00,0.4352
684.00,0.4294
683.00,0.4248
682.00,0.4213
681.00,0.4188
680.00,0.4169
679.00,0.4157
678.00,0.4151
677.00,0.4150
676.00,0.4150
675.00,0.4149
674.00,0.4147
673.00,0.4146
672.00,0.4146
671.00,0.4145
670.00,0.4143
669.00,0.4142
668.00,0.4145
667.00,0.4156
666.00,0.4174
665.00,0.4193
664.00,0.4209
663.00,0.4223
662.00,0.4238
661.00,0.4250
660.00,0.4260
659.00,0.4268
658.00,0.4277
657.00,0.4287
656.00,0.4298
655.00,0.4308
654.00,0.4317
653.00,0.4325
652.00,0.4334
651.00,0.4343
650.00,0.4351
649.00,0.4359
648.00,0.4370
647.00,0.4385
646.00,0.4402
645.00,0.4419
644.00,0.4433
643.00,0.4448
642.00,0.4462
641.00,0.4478
640.00,0.4494
639.00,0.4512
638.00,0.4528
637.00,0.4545
636.00,0.4562
635.00,0.4581
634.00,0.4600
633.00,0.4620
632.00,0.4642
631.00,0.4666
630.00,0.4692
629.00,0.4720
628.00,0.4749
627.00,0.4780
626.00,0.4813
625.00,0.4847
624.00,0.4880
623.00,0.4911
622.00,0.4936
621.00,0.4954
620.00,0.4964
619.00,0.4971
618.00,0.4973
617.00,0.4972
616.00,0.4966
615.00,0.4959
614.00,0.4951
613.00,0.4943
612.00,0.4935
611.00,0.4929
610.00,0.4923
609.00,0.4917
608.00,0.4910
607.00,0.4903
606.00,0.4899
605.00,0.4899
604.00,0.4900
603.00,0.4898
602.00,0.4889
601.00,0.4874
600.00,0.4856
599.00,0.4841
598.00,0.4833
597.00,0.4831
596.00,0.4834
595.00,0.4842
594.00,0.4852
593.00,0.4863
592.00,0.4872
591.00,0.4882
590.00,0.4893
589.00,0.4909
588.00,0.4932
587.00,0.4964
586.00,0.5004
585.00,0.5046
584.00,0.5088
583.00,0.5123
582.00,0.5152
581.00,0.5176
580.00,0.5198
579.00,0.5222
578.00,0.5243
577.00,0.5256
576.00,0.5262
575.00,0.5268
574.00,0.5288
573.00,0.5327
572.00,0.5378
571.00,0.5428
570.00,0.5469
569.00,0.5499
568.00,0.5525
567.00,0.5553
566.00,0.5584
565.00,0.5619
564.00,0.5657
563.00,0.5699
562.00,0.5744
561.00,0.5787
560.00,0.5827
559.00,0.5865
558.00,0.5908
557.00,0.5958
556.00,0.6012
555.00,0.6069
554.00,0.6125
553.00,0.6182
552.00,0.6238
551.00,0.6289
550.00,0.6338
