Created as New Dataset,
cm-1,A
4000.00,0.3667
3999.00,0.3665
3998.00,0.3662
3997.00,0.3659
3996.00,0.3656
3995.00,0.3653
3994.00,0.3649
3993.00,0.3646
3992.00,0.3644
3991.00,0.3641
3990.00,0.3638
3989.00,0.3634
3988.00,0.3630
3987.00,0.3625
3986.00,0.3620
3985.00,0.3616
3984.00,0.3613
3983.00,0.3610
3982.00,0.3606
3981.00,0.3602
3980.00,0.3598
3979.00,0.3595
3978.00,0.3592
3977.00,0.3589
3976.00,0.3586
3975.00,0.3583
3974.00,0.3580
3973.00,0.3577
3972.00,0.3575
3971.00,0.3573
3970.00,0.3571
3969.00,0.3568
3968.00,0.3566
3967.00,0.3562
3966.00,0.3559
3965.00,0.3557
3964.00,0.3555
3963.00,0.3554
3962.00,0.3553
3961.00,0.3552
3960.00,0.3550
3959.00,0.3549
3958.00,0.3547
3957.00,0.3545
3956.00,0.3544
3955.00,0.3542
3954.00,0.3541
3953.00,0.3540
3952.00,0.3539
3951.00,0.3537
3950.00,0.3536
3949.00,0.3534
3948.00,0.3532
3947.00,0.3531
3946.00,0.3529
3945.00,0.3527
3944.00,0.3525
3943.00,0.3523
3942.00,0.3522
3941.00,0.3520
3940.00,0.3519
3939.00,0.3517
3938.00,0.3516
3937.00,0.3516
3936.00,0.3515
3935.00,0.3515
3934.00,0.3514
3933.00,0.3513
3932.00,0.3513
3931.00,0.3514
3930.00,0.3514
3929.00,0.3515
3928.00,0.3515
3927.00,0.3515
3926.00,0.3515
3925.00,0.3514
3924.00,0.3514
3923.00,0.3513
3922.00,0.3513
3921.00,0.3513
3920.00,0.3513
3919.00,0.3513
3918.00,0.3513
3917.00,0.3513
3916.00,0.3512
3915.00,0.3512
3914.00,0.3511
3913.00,0.3509
3912.00,0.3508
3911.00,0.3506
3910.00,0.3505
3909.00,0.3504
3908.00,0.3503
3907.00,0.3502
3906.00,0.3500
3905.00,0.3498
3904.00,0.3498
3903.00,0.3499
3902.00,0.3499
3901.00,0.3499
3900.00,0.3500
3899.00,0.3500
3898.00,0.3500
3897.00,0.3500
3896.00,0.3499
3895.00,0.3498
3894.00,0.3498
3893.00,0.3496
3892.00,0.3495
3891.00,0.3494
3890.00,0.3494
3889.00,0.3494
3888.00,0.3492
3887.00,0.3490
3886.00,0.3490
3885.00,0.3490
3884.00,0.3491
3883.00,0.3490
3882.00,0.3489
3881.00,0.3488
3880.00,0.3487
3879.00,0.3486
3878.00,0.3486
3877.00,0.3485
3876.00,0.3482
3875.00,0.3481
3874.00,0.3479
3873.00,0.3478
3872.00,0.3476
3871.00,0.3473
3870.00,0.3472
3869.00,0.3471
3868.00,0.3470
3867.00,0.3468
3866.00,0.3466
3865.00,0.3466
3864.00,0.3466
3863.00,0.3465
3862.00,0.3464
3861.00,0.3462
3860.00,0.3460
3859.00,0.3459
3858.00,0.3459
3857.00,0.3459
3856.00,0.3458
3855.00,0.3457
3854.00,0.3457
3853.00,0.3458
3852.00,0.3458
3851.00,0.3458
3850.00,0.3457
3849.00,0.3457
3848.00,0.3457
3847.00,0.3457
3846.00,0.3456
3845.00,0.3455
3844.00,0.3453
3843.00,0.3453
3842.00,0.3452
3841.00,0.3451
3840.00,0.3449
3839.00,0.3448
3838.00,0.3447
3837.00,0.3445
3836.00,0.3444
3835.00,0.3443
3834.00,0.3442
3833.00,0.3442
3832.00,0.3441
3831.00,0.3441
3830.00,0.3441
3829.00,0.3440
3828.00,0.3439
3827.00,0.3438
3826.00,0.3437
3825.00,0.3437
3824.00,0.3436
3823.00,0.3434
3822.00,0.3433
3821.00,0.3433
3820.00,0.3433
3819.00,0.3432
3818.00,0.3430
3817.00,0.3428
3816.00,0.3428
3815.00,0.3427
3814.00,0.3425
3813.00,0.3422
3812.00,0.3419
3811.00,0.3418
3810.00,0.3416
3809.00,0.3413
3808.00,0.3410
3807.00,0.3408
3806.00,0.3407
3805.00,0.3406
3804.00,0.3403
3803.00,0.3399
3802.00,0.3397
3801.00,0.3396
3800.00,0.3395
3799.00,0.3393
3798.00,0.3391
3797.00,0.3389
3796.00,0.3388
3795.00,0.3387
3794.00,0.3386
3793.00,0.3384
3792.00,0.3382
3791.00,0.3380
3790.00,0.3379
3789.00,0.3378
3788.00,0.3377
3787.00,0.3376
3786.00,0.3375
3785.00,0.3374
3784.00,0.3373
3783.00,0.3372
3782.00,0.3371
3781.00,0.3369
3780.00,0.3368
3779.00,0.3367
3778.00,0.3365
3777.00,0.3363
3776.00,0.3360
3775.00,0.3358
3774.00,0.3357
3773.00,0.3355
3772.00,0.3353
3771.00,0.3350
3770.00,0.3348
3769.00,0.3346
3768.00,0.3344
3767.00,0.3342
3766.00,0.3340
3765.00,0.3339
3764.00,0.3338
3763.00,0.3336
3762.00,0.3334
3761.00,0.3332
3760.00,0.3330
3759.00,0.3328
3758.00,0.3326
3757.00,0.3323
3756.00,0.3322
3755.00,0.3320
3754.00,0.3319
3753.00,0.3318
3752.00,0.3316
3751.00,0.3314
3750.00,0.3312
3749.00,0.3312
3748.00,0.3313
3747.00,0.3312
3746.00,0.3311
3745.00,0.3310
3744.00,0.3311
3743.00,0.3310
3742.00,0.3308
3741.00,0.3306
3740.00,0.3304
3739.00,0.3303
3738.00,0.3302
3737.00,0.3300
3736.00,0.3298
3735.00,0.3297
3734.00,0.3295
3733.00,0.3294
3732.00,0.3293
3731.00,0.3292
3730.00,0.3290
3729.00,0.3288
3728.00,0.3285
3727.00,0.3283
3726.00,0.3282
3725.00,0.3280
3724.00,0.3278
3723.00,0.3275
3722.00,0.3273
3721.00,0.3272
3720.00,0.3270
3719.00,0.3269
3718.00,0.3267
3717.00,0.3267
3716.00,0.3266
3715.00,0.3265
3714.00,0.3264
3713.00,0.3264
3712.00,0.3264
3711.00,0.3264
3710.00,0.3264
3709.00,0.3264
3708.00,0.3264
3707.00,0.3264
3706.00,0.3263
3705.00,0.3263
3704.00,0.3263
3703.00,0.3262
3702.00,0.3261
3701.00,0.3260
3700.00,0.3259
3699.00,0.3258
3698.00,0.3257
3697.00,0.3257
3696.00,0.3256
3695.00,0.3256
3694.00,0.3254
3693.00,0.3254
3692.00,0.3253
3691.00,0.3252
3690.00,0.3252
3689.00,0.3251
3688.00,0.3251
3687.00,0.3251
3686.00,0.3250
3685.00,0.3250
3684.00,0.3250
3683.00,0.3250
3682.00,0.3248
3681.00,0.3246
3680.00,0.3245
3679.00,0.3245
3678.00,0.3244
3677.00,0.3242
3676.00,0.3240
3675.00,0.3241
3674.00,0.3243
3673.00,0.3243
3672.00,0.3243
3671.00,0.3242
3670.00,0.3242
3669.00,0.3243
3668.00,0.3242
3667.00,0.3241
3666.00,0.3240
3665.00,0.3240
3664.00,0.3240
3663.00,0.3240
3662.00,0.3240
3661.00,0.3240
3660.00,0.3240
3659.00,0.3241
3658.00,0.3241
3657.00,0.3241
3656.00,0.3241
3655.00,0.3242
3654.00,0.3243
3653.00,0.3243
3652.00,0.3245
3651.00,0.3246
3650.00,0.3248
3649.00,0.3250
3648.00,0.3252
3647.00,0.3253
3646.00,0.3253
3645.00,0.3253
3644.00,0.3254
3643.00,0.3255
3642.00,0.3256
3641.00,0.3258
3640.00,0.3259
3639.00,0.3259
3638.00,0.3260
3637.00,0.3262
3636.00,0.3262
3635.00,0.3263
3634.00,0.3264
3633.00,0.3265
3632.00,0.3267
3631.00,0.3268
3630.00,0.3269
3629.00,0.3272
3628.00,0.3275
3627.00,0.3277
3626.00,0.3279
3625.00,0.3281
3624.00,0.3283
3623.00,0.3284
3622.00,0.3285
3621.00,0.3284
3620.00,0.3282
3619.00,0.3280
3618.00,0.3279
3617.00,0.3277
3616.00,0.3276
3615.00,0.3275
3614.00,0.3275
3613.00,0.3274
3612.00,0.3275
3611.00,0.3274
3610.00,0.3274
3609.00,0.3274
3608.00,0.3273
3607.00,0.3273
3606.00,0.3272
3605.00,0.3270
3604.00,0.3269
3603.00,0.3266
3602.00,0.3263
3601.00,0.3259
3600.00,0.3254
3599.00,0.3248
3598.00,0.3242
3597.00,0.3235
3596.00,0.3228
3595.00,0.3221
3594.00,0.3215
3593.00,0.3209
3592.00,0.3204
3591.00,0.3200
3590.00,0.3196
3589.00,0.3192
3588.00,0.3189
3587.00,0.3187
3586.00,0.3185
3585.00,0.3183
3584.00,0.3181
3583.00,0.3180
3582.00,0.3179
3581.00,0.3177
3580.00,0.3177
3579.00,0.3176
3578.00,0.3176
3577.00,0.3176
3576.00,0.3177
3575.00,0.3177
3574.00,0.3177
3573.00,0.3177
3572.00,0.3177
3571.00,0.3178
3570.00,0.3179
3569.00,0.3180
3568.00,0.3182
3567.00,0.3184
3566.00,0.3185
3565.00,0.3186
3564.00,0.3187
3563.00,0.3188
3562.00,0.3190
3561.00,0.3191
3560.00,0.3193
3559.00,0.3194
3558.00,0.3196
3557.00,0.3197
3556.00,0.3199
3555.00,0.3202
3554.00,0.3204
3553.00,0.3207
3552.00,0.3210
3551.00,0.3213
3550.00,0.3216
3549.00,0.3219
3548.00,0.3222
3547.00,0.3225
3546.00,0.3227
3545.00,0.3230
3544.00,0.3233
3543.00,0.3236
3542.00,0.3239
3541.00,0.3242
3540.00,0.3245
3539.00,0.3249
3538.00,0.3252
3537.00,0.3255
3536.00,0.3257
3535.00,0.3259
3534.00,0.3262
3533.00,0.3264
3532.00,0.3266
3531.00,0.3269
3530.00,0.3271
3529.00,0.3274
3528.00,0.3276
3527.00,0.3278
3526.00,0.3280
3525.00,0.3283
3524.00,0.3285
3523.00,0.3288
3522.00,0.3290
3521.00,0.3291
3520.00,0.3293
3519.00,0.3295
3518.00,0.3298
3517.00,0.3302
3516.00,0.3305
3515.00,0.3308
3514.00,0.3311
3513.00,0.3314
3512.00,0.3317
3511.00,0.3321
3510.00,0.3324
3509.00,0.3327
3508.00,0.3331
3507.00,0.3336
3506.00,0.3341
3505.00,0.3346
3504.00,0.3351
3503.00,0.3356
3502.00,0.3361
3501.00,0.3366
3500.00,0.3370
3499.00,0.3375
3498.00,0.3380
3497.00,0.3385
3496.00,0.3391
3495.00,0.3397
3494.00,0.3403
3493.00,0.3409
3492.00,0.3415
3491.00,0.3422
3490.00,0.3428
3489.00,0.3435
3488.00,0.3441
3487.00,0.3446
3486.00,0.3451
3485.00,0.3456
3484.00,0.3461
3483.00,0.3466
3482.00,0.3471
3481.00,0.3476
3480.00,0.3480
3479.00,0.3484
3478.00,0.3488
3477.00,0.3492
3476.00,0.3496
3475.00,0.3500
3474.00,0.3504
3473.00,0.3509
3472.00,0.3514
3471.00,0.3519
3470.00,0.3525
3469.00,0.3531
3468.00,0.3536
3467.00,0.3541
3466.00,0.3546
3465.00,0.3551
3464.00,0.3556
3463.00,0.3562
3462.00,0.3568
3461.00,0.3573
3460.00,0.3579
3459.00,0.3584
3458.00,0.3590
3457.00,0.3595
3456.00,0.3601
3455.00,0.3606
3454.00,0.3612
3453.00,0.3619
3452.00,0.3625
3451.00,0.3631
3450.00,0.3637
3449.00,0.3643
3448.00,0.3649
3447.00,0.3656
3446.00,0.3662
3445.00,0.3669
3444.00,0.3676
3443.00,0.3683
3442.00,0.3689
3441.00,0.3696
3440.00,0.3703
3439.00,0.3710
3438.00,0.3717
3437.00,0.3724
3436.00,0.3731
3435.00,0.3738
3434.00,0.3744
3433.00,0.3751
3432.00,0.3757
3431.00,0.3764
3430.00,0.3771
3429.00,0.3779
3428.00,0.3786
3427.00,0.3794
3426.00,0.3801
3425.00,0.3808
3424.00,0.3815
3423.00,0.3823
3422.00,0.3830
3421.00,0.3837
3420.00,0.3845
3419.00,0.3854
3418.00,0.3863
3417.00,0.3871
3416.00,0.3880
3415.00,0.3889
3414.00,0.3898
3413.00,0.3907
3412.00,0.3916
3411.00,0.3925
3410.00,0.3934
3409.00,0.3943
3408.00,0.3953
3407.00,0.3963
3406.00,0.3973
3405.00,0.3983
3404.00,0.3993
3403.00,0.4003
3402.00,0.4014
3401.00,0.4024
3400.00,0.4034
3399.00,0.4044
3398.00,0.4054
3397.00,0.4064
3396.00,0.4074
3395.00,0.4085
3394.00,0.4095
3393.00,0.4106
3392.00,0.4117
3391.00,0.4128
3390.00,0.4138
3389.00,0.4149
3388.00,0.4159
3387.00,0.4170
3386.00,0.4180
3385.00,0.4191
3384.00,0.4202
3383.00,0.4214
3382.00,0.4226
3381.00,0.4238
3380.00,0.4250
3379.00,0.4262
3378.00,0.4274
3377.00,0.4287
3376.00,0.4300
3375.00,0.4313
3374.00,0.4326
3373.00,0.4339
3372.00,0.4353
3371.00,0.4366
3370.00,0.4380
3369.00,0.4394
3368.00,0.4409
3367.00,0.4423
3366.00,0.4438
3365.00,0.4452
3364.00,0.4467
3363.00,0.4482
3362.00,0.4498
3361.00,0.4513
3360.00,0.4529
3359.00,0.4545
3358.00,0.4562
3357.00,0.4578
3356.00,0.4594
3355.00,0.4610
3354.00,0.4626
3353.00,0.4642
3352.00,0.4658
3351.00,0.4674
3350.00,0.4690
3349.00,0.4707
3348.00,0.4722
3347.00,0.4738
3346.00,0.4753
3345.00,0.4768
3344.00,0.4783
3343.00,0.4798
3342.00,0.4812
3341.00,0.4826
3340.00,0.4839
3339.00,0.4852
3338.00,0.4863
3337.00,0.4873
3336.00,0.4883
3335.00,0.4892
3334.00,0.4900
3333.00,0.4908
3332.00,0.4914
3331.00,0.4919
3330.00,0.4924
3329.00,0.4928
3328.00,0.4932
3327.00,0.4934
3326.00,0.4935
3325.00,0.4935
3324.00,0.4935
3323.00,0.4934
3322.00,0.4931
3321.00,0.4928
3320.00,0.4924
3319.00,0.4919
3318.00,0.4914
3317.00,0.4909
3316.00,0.4904
3315.00,0.4898
3314.00,0.4890
3313.00,0.4883
3312.00,0.4875
3311.00,0.4867
3310.00,0.4859
3309.00,0.4852
3308.00,0.4844
3307.00,0.4836
3306.00,0.4828
3305.00,0.4820
3304.00,0.4812
3303.00,0.4804
3302.00,0.4796
3301.00,0.4788
3300.00,0.4781
3299.00,0.4774
3298.00,0.4768
3297.00,0.4762
3296.00,0.4756
3295.00,0.4750
3294.00,0.4744
3293.00,0.4739
3292.00,0.4734
3291.00,0.4730
3290.00,0.4726
3289.00,0.4722
3288.00,0.4720
3287.00,0.4718
3286.00,0.4717
3285.00,0.4716
3284.00,0.4716
3283.00,0.4716
3282.00,0.4716
3281.00,0.4717
3280.00,0.4717
3279.00,0.4718
3278.00,0.4719
3277.00,0.4722
3276.00,0.4726
3275.00,0.4730
3274.00,0.4733
3273.00,0.4737
3272.00,0.4740
3271.00,0.4744
3270.00,0.4749
3269.00,0.4754
3268.00,0.4759
3267.00,0.4764
3266.00,0.4769
3265.00,0.4774
3264.00,0.4780
3263.00,0.4785
3262.00,0.4790
3261.00,0.4795
3260.00,0.4801
3259.00,0.4807
3258.00,0.4813
3257.00,0.4819
3256.00,0.4825
3255.00,0.4830
3254.00,0.4835
3253.00,0.4840
3252.00,0.4846
3251.00,0.4851
3250.00,0.4856
3249.00,0.4861
3248.00,0.4866
3247.00,0.4871
3246.00,0.4875
3245.00,0.4879
3244.00,0.4882
3243.00,0.4885
3242.00,0.4888
3241.00,0.4892
3240.00,0.4895
3239.00,0.4899
3238.00,0.4901
3237.00,0.4904
3236.00,0.4906
3235.00,0.4908
3234.00,0.4911
3233.00,0.4912
3232.00,0.4913
3231.00,0.4913
3230.00,0.4913
3229.00,0.4913
3228.00,0.4913
3227.00,0.4913
3226.00,0.4913
3225.00,0.4913
3224.00,0.4912
3223.00,0.4910
3222.00,0.4908
3221.00,0.4906
3220.00,0.4905
3219.00,0.4904
3218.00,0.4903
3217.00,0.4901
3216.00,0.4899
3215.00,0.4897
3214.00,0.4895
3213.00,0.4893
3212.00,0.4891
3211.00,0.4889
3210.00,0.4887
3209.00,0.4886
3208.00,0.4885
3207.00,0.4884
3206.00,0.4883
3205.00,0.4881
3204.00,0.4880
3203.00,0.4878
3202.00,0.4876
3201.00,0.4873
3200.00,0.4870
3199.00,0.4868
3198.00,0.4866
3197.00,0.4864
3196.00,0.4861
3195.00,0.4858
3194.00,0.4854
3193.00,0.4850
3192.00,0.4846
3191.00,0.4842
3190.00,0.4838
3189.00,0.4833
3188.00,0.4829
3187.00,0.4824
3186.00,0.4820
3185.00,0.4814
3184.00,0.4808
3183.00,0.4802
3182.00,0.4797
3181.00,0.4791
3180.00,0.4786
3179.00,0.4781
3178.00,0.4775
3177.00,0.4769
3176.00,0.4762
3175.00,0.4756
3174.00,0.4750
3173.00,0.4744
3172.00,0.4738
3171.00,0.4731
3170.00,0.4724
3169.00,0.4717
3168.00,0.4710
3167.00,0.4702
3166.00,0.4695
3165.00,0.4687
3164.00,0.4679
3163.00,0.4671
3162.00,0.4664
3161.00,0.4656
3160.00,0.4649
3159.00,0.4641
3158.00,0.4634
3157.00,0.4628
3156.00,0.4621
3155.00,0.4614
3154.00,0.4607
3153.00,0.4600
3152.00,0.4592
3151.00,0.4585
3150.00,0.4577
3149.00,0.4570
3148.00,0.4563
3147.00,0.4556
3146.00,0.4550
3145.00,0.4545
3144.00,0.4540
3143.00,0.4535
3142.00,0.4531
3141.00,0.4527
3140.00,0.4523
3139.00,0.4519
3138.00,0.4515
3137.00,0.4511
3136.00,0.4508
3135.00,0.4504
3134.00,0.4500
3133.00,0.4497
3132.00,0.4494
3131.00,0.4492
3130.00,0.4491
3129.00,0.4490
3128.00,0.4491
3127.00,0.4491
3126.00,0.4492
3125.00,0.4493
3124.00,0.4494
3123.00,0.4495
3122.00,0.4497
3121.00,0.4498
3120.00,0.4501
3119.00,0.4504
3118.00,0.4507
3117.00,0.4510
3116.00,0.4514
3115.00,0.4519
3114.00,0.4524
3113.00,0.4529
3112.00,0.4535
3111.00,0.4542
3110.00,0.4549
3109.00,0.4558
3108.00,0.4567
3107.00,0.4576
3106.00,0.4586
3105.00,0.4595
3104.00,0.4604
3103.00,0.4613
3102.00,0.4622
3101.00,0.4630
3100.00,0.4640
3099.00,0.4650
3098.00,0.4661
3097.00,0.4673
3096.00,0.4686
3095.00,0.4700
3094.00,0.4716
3093.00,0.4734
3092.00,0.4754
3091.00,0.4777
3090.00,0.4801
3089.00,0.4828
3088.00,0.4855
3087.00,0.4884
3086.00,0.4913
3085.00,0.4942
3084.00,0.4973
3083.00,0.5004
3082.00,0.5038
3081.00,0.5074
3080.00,0.5113
3079.00,0.5153
3078.00,0.5196
3077.00,0.5240
3076.00,0.5285
3075.00,0.5331
3074.00,0.5377
3073.00,0.5424
3072.00,0.5471
3071.00,0.5517
3070.00,0.5563
3069.00,0.5610
3068.00,0.5656
3067.00,0.5703
3066.00,0.5748
3065.00,0.5792
3064.00,0.5833
3063.00,0.5871
3062.00,0.5906
3061.00,0.5938
3060.00,0.5968
3059.00,0.5995
3058.00,0.6021
3057.00,0.6048
3056.00,0.6077
3055.00,0.6107
3054.00,0.6140
3053.00,0.6175
3052.00,0.6212
3051.00,0.6251
3050.00,0.6293
3049.00,0.6337
3048.00,0.6383
3047.00,0.6432
3046.00,0.6481
3045.00,0.6530
3044.00,0.6579
3043.00,0.6628
3042.00,0.6676
3041.00,0.6724
3040.00,0.6772
3039.00,0.6821
3038.00,0.6872
3037.00,0.6926
3036.00,0.6983
3035.00,0.7045
3034.00,0.7112
3033.00,0.7184
3032.00,0.7261
3031.00,0.7342
3030.00,0.7427
3029.00,0.7515
3028.00,0.7607
3027.00,0.7703
3026.00,0.7804
3025.00,0.7908
3024.00,0.8014
3023.00,0.8123
3022.00,0.8236
3021.00,0.8353
3020.00,0.8472
3019.00,0.8593
3018.00,0.8715
3017.00,0.8838
3016.00,0.8962
3015.00,0.9085
3014.00,0.9210
3013.00,0.9338
3012.00,0.9469
3011.00,0.9604
3010.00,0.9746
3009.00,0.9895
3008.00,1.0052
3007.00,1.0216
3006.00,1.0385
3005.00,1.0559
3004.00,1.0739
3003.00,1.0924
3002.00,1.1116
3001.00,1.1316
3000.00,1.1525
2999.00,1.1744
2998.00,1.1978
2997.00,1.2230
2996.00,1.2508
2995.00,1.2817
2994.00,1.3165
2993.00,1.3555
2992.00,1.3992
2991.00,1.4482
2990.00,1.5030
2989.00,1.5644
2988.00,1.6326
2987.00,1.7077
2986.00,1.7903
2985.00,1.8811
2984.00,1.9818
2983.00,2.0943
2982.00,2.2207
2981.00,2.3628
2980.00,2.5226
2979.00,2.7015
2978.00,2.8971
2977.00,3.0953
2976.00,3.2752
2975.00,3.4365
2974.00,3.6145
2973.00,3.8621
2972.00,4.1978
2971.00,4.3875
2970.00,4.3147
2969.00,4.0729
2968.00,3.8971
2967.00,3.7630
2966.00,3.6906
2965.00,3.6700
2964.00,3.6871
2963.00,3.7459
2962.00,3.8050
2961.00,3.8171
2960.00,3.8131
2959.00,3.8407
2958.00,3.9153
2957.00,4.0052
2956.00,4.0579
2955.00,4.0158
2954.00,3.9200
2953.00,3.8721
2952.00,3.9704
2951.00,4.3987
2950.00,4.4377
2949.00,4.3489
2948.00,4.0758
2947.00,4.0871
2946.00,4.1268
2945.00,4.2967
2944.00,4.2473
2943.00,3.9192
2942.00,3.6691
2941.00,3.5668
2940.00,3.5555
2939.00,3.5990
2938.00,3.6620
2937.00,3.7257
2936.00,3.8212
2935.00,3.9696
2934.00,4.1104
2933.00,4.2837
2932.00,4.3363
2931.00,4.1244
2930.00,3.9925
2929.00,3.9820
2928.00,4.0237
2927.00,3.9386
2926.00,3.8568
2925.00,3.8740
2924.00,4.0013
2923.00,4.2798
2922.00,4.5941
2921.00,4.2892
2920.00,4.1247
2919.00,4.1640
2918.00,4.2864
2917.00,4.0652
2916.00,3.8917
2915.00,3.9165
2914.00,4.2541
2913.00,4.5303
2912.00,4.4219
2911.00,4.2087
2910.00,4.0956
2909.00,3.9524
2908.00,3.8900
2907.00,4.0763
2906.00,4.1466
2905.00,3.9525
2904.00,3.8001
2903.00,3.8127
2902.00,3.9068
2901.00,3.9826
2900.00,4.0479
2899.00,4.0662
2898.00,4.0844
2897.00,4.1906
2896.00,4.3961
2895.00,4.5736
2894.00,4.4678
2893.00,4.3734
2892.00,4.3039
2891.00,4.0312
2890.00,3.8640
2889.00,3.8625
2888.00,4.0880
2887.00,4.1307
2886.00,3.9588
2885.00,3.8144
2884.00,3.8036
2883.00,3.8748
2882.00,3.9898
2881.00,4.0055
2880.00,3.9405
2879.00,3.9287
2878.00,4.0307
2877.00,4.1980
2876.00,4.5269
2875.00,4.7788
2874.00,4.9498
2873.00,4.5699
2872.00,4.2016
2871.00,4.0311
2870.00,3.9686
2869.00,3.9259
2868.00,3.8087
2867.00,3.7473
2866.00,3.7863
2865.00,3.9167
2864.00,4.1909
2863.00,4.3896
2862.00,4.1709
2861.00,3.9908
2860.00,3.9932
2859.00,4.1646
2858.00,4.4187
2857.00,4.4792
2856.00,4.2136
2855.00,4.0377
2854.00,4.0402
2853.00,4.2027
2852.00,4.5151
2851.00,4.6846
2850.00,4.5185
2849.00,4.4849
2848.00,4.3829
2847.00,4.0547
2846.00,3.8623
2845.00,3.8618
2844.00,4.0352
2843.00,4.1741
2842.00,4.1887
2841.00,4.1193
2840.00,3.9706
2839.00,3.7129
2838.00,3.4399
2837.00,3.2039
2836.00,3.0027
2835.00,2.8200
2834.00,2.6444
2833.00,2.4759
2832.00,2.3194
2831.00,2.1784
2830.00,2.0533
2829.00,1.9429
2828.00,1.8458
2827.00,1.7597
2826.00,1.6821
2825.00,1.6111
2824.00,1.5460
2823.00,1.4866
2822.00,1.4323
2821.00,1.3824
2820.00,1.3364
2819.00,1.2938
2818.00,1.2545
2817.00,1.2180
2816.00,1.1840
2815.00,1.1523
2814.00,1.1225
2813.00,1.0946
2812.00,1.0684
2811.00,1.0436
2810.00,1.0199
2809.00,0.9973
2808.00,0.9758
2807.00,0.9553
2806.00,0.9359
2805.00,0.9175
2804.00,0.8999
2803.00,0.8833
2802.00,0.8674
2801.00,0.8523
2800.00,0.8380
2799.00,0.8244
2798.00,0.8115
2797.00,0.7990
2796.00,0.7870
2795.00,0.7754
2794.00,0.7642
2793.00,0.7533
2792.00,0.7426
2791.00,0.7321
2790.00,0.7219
2789.00,0.7119
2788.00,0.7021
2787.00,0.6926
2786.00,0.6832
2785.00,0.6741
2784.00,0.6653
2783.00,0.6568
2782.00,0.6487
2781.00,0.6409
2780.00,0.6333
2779.00,0.6261
2778.00,0.6191
2777.00,0.6126
2776.00,0.6064
2775.00,0.6006
2774.00,0.5951
2773.00,0.5900
2772.00,0.5852
2771.00,0.5808
2770.00,0.5767
2769.00,0.5730
2768.00,0.5697
2767.00,0.5667
2766.00,0.5641
2765.00,0.5617
2764.00,0.5597
2763.00,0.5578
2762.00,0.5562
2761.00,0.5547
2760.00,0.5533
2759.00,0.5521
2758.00,0.5508
2757.00,0.5496
2756.00,0.5484
2755.00,0.5474
2754.00,0.5465
2753.00,0.5458
2752.00,0.5453
2751.00,0.5451
2750.00,0.5450
2749.00,0.5451
2748.00,0.5454
2747.00,0.5459
2746.00,0.5467
2745.00,0.5477
2744.00,0.5491
2743.00,0.5508
2742.00,0.5529
2741.00,0.5555
2740.00,0.5585
2739.00,0.5621
2738.00,0.5662
2737.00,0.5708
2736.00,0.5758
2735.00,0.5811
2734.00,0.5867
2733.00,0.5920
2732.00,0.5969
2731.00,0.6010
2730.00,0.6041
2729.00,0.6060
2728.00,0.6069
2727.00,0.6068
2726.00,0.6058
2725.00,0.6041
2724.00,0.6020
2723.00,0.5995
2722.00,0.5967
2721.00,0.5935
2720.00,0.5900
2719.00,0.5862
2718.00,0.5821
2717.00,0.5778
2716.00,0.5732
2715.00,0.5685
2714.00,0.5638
2713.00,0.5592
2712.00,0.5548
2711.00,0.5509
2710.00,0.5473
2709.00,0.5442
2708.00,0.5415
2707.00,0.5393
2706.00,0.5374
2705.00,0.5358
2704.00,0.5345
2703.00,0.5335
2702.00,0.5328
2701.00,0.5323
2700.00,0.5321
2699.00,0.5322
2698.00,0.5325
2697.00,0.5328
2696.00,0.5334
2695.00,0.5340
2694.00,0.5348
2693.00,0.5356
2692.00,0.5366
2691.00,0.5376
2690.00,0.5385
2689.00,0.5393
2688.00,0.5401
2687.00,0.5409
2686.00,0.5415
2685.00,0.5420
2684.00,0.5424
2683.00,0.5427
2682.00,0.5430
2681.00,0.5433
2680.00,0.5436
2679.00,0.5439
2678.00,0.5442
2677.00,0.5446
2676.00,0.5450
2675.00,0.5454
2674.00,0.5458
2673.00,0.5462
2672.00,0.5463
2671.00,0.5463
2670.00,0.5461
2669.00,0.5456
2668.00,0.5447
2667.00,0.5436
2666.00,0.5422
2665.00,0.5407
2664.00,0.5390
2663.00,0.5371
2662.00,0.5351
2661.00,0.5331
2660.00,0.5310
2659.00,0.5288
2658.00,0.5266
2657.00,0.5245
2656.00,0.5223
2655.00,0.5202
2654.00,0.5183
2653.00,0.5164
2652.00,0.5147
2651.00,0.5130
2650.00,0.5114
2649.00,0.5099
2648.00,0.5085
2647.00,0.5071
2646.00,0.5058
2645.00,0.5045
2644.00,0.5033
2643.00,0.5021
2642.00,0.5009
2641.00,0.4999
2640.00,0.4989
2639.00,0.4979
2638.00,0.4970
2637.00,0.4961
2636.00,0.4952
2635.00,0.4943
2634.00,0.4934
2633.00,0.4926
2632.00,0.4918
2631.00,0.4910
2630.00,0.4903
2629.00,0.4895
2628.00,0.4887
2627.00,0.4878
2626.00,0.4869
2625.00,0.4860
2624.00,0.4852
2623.00,0.4842
2622.00,0.4833
2621.00,0.4823
2620.00,0.4813
2619.00,0.4804
2618.00,0.4795
2617.00,0.4786
2616.00,0.4776
2615.00,0.4767
2614.00,0.4758
2613.00,0.4748
2612.00,0.4738
2611.00,0.4729
2610.00,0.4719
2609.00,0.4709
2608.00,0.4699
2607.00,0.4689
2606.00,0.4679
2605.00,0.4670
2604.00,0.4661
2603.00,0.4651
2602.00,0.4641
2601.00,0.4630
2600.00,0.4617
2599.00,0.4604
2598.00,0.4590
2597.00,0.4576
2596.00,0.4562
2595.00,0.4547
2594.00,0.4532
2593.00,0.4516
2592.00,0.4500
2591.00,0.4484
2590.00,0.4468
2589.00,0.4451
2588.00,0.4434
2587.00,0.4417
2586.00,0.4400
2585.00,0.4383
2584.00,0.4366
2583.00,0.4348
2582.00,0.4330
2581.00,0.4312
2580.00,0.4293
2579.00,0.4275
2578.00,0.4257
2577.00,0.4239
2576.00,0.4222
2575.00,0.4205
2574.00,0.4189
2573.00,0.4173
2572.00,0.4158
2571.00,0.4142
2570.00,0.4126
2569.00,0.4111
2568.00,0.4096
2567.00,0.4081
2566.00,0.4066
2565.00,0.4052
2564.00,0.4038
2563.00,0.4024
2562.00,0.4011
2561.00,0.3997
2560.00,0.3985
2559.00,0.3973
2558.00,0.3960
2557.00,0.3948
2556.00,0.3936
2555.00,0.3924
2554.00,0.3912
2553.00,0.3900
2552.00,0.3889
2551.00,0.3878
2550.00,0.3868
2549.00,0.3858
2548.00,0.3848
2547.00,0.3838
2546.00,0.3829
2545.00,0.3819
2544.00,0.3810
2543.00,0.3802
2542.00,0.3793
2541.00,0.3785
2540.00,0.3777
2539.00,0.3770
2538.00,0.3762
2537.00,0.3755
2536.00,0.3749
2535.00,0.3742
2534.00,0.3735
2533.00,0.3728
2532.00,0.3721
2531.00,0.3714
2530.00,0.3706
2529.00,0.3697
2528.00,0.3689
2527.00,0.3680
2526.00,0.3670
2525.00,0.3660
2524.00,0.3650
2523.00,0.3640
2522.00,0.3630
2521.00,0.3620
2520.00,0.3610
2519.00,0.3601
2518.00,0.3592
2517.00,0.3584
2516.00,0.3575
2515.00,0.3567
2514.00,0.3558
2513.00,0.3550
2512.00,0.3543
2511.00,0.3535
2510.00,0.3528
2509.00,0.3521
2508.00,0.3514
2507.00,0.3507
2506.00,0.3501
2505.00,0.3496
2504.00,0.3490
2503.00,0.3485
2502.00,0.3480
2501.00,0.3475
2500.00,0.3471
2499.00,0.3466
2498.00,0.3462
2497.00,0.3458
2496.00,0.3454
2495.00,0.3450
2494.00,0.3446
2493.00,0.3441
2492.00,0.3437
2491.00,0.3433
2490.00,0.3429
2489.00,0.3426
2488.00,0.3422
2487.00,0.3418
2486.00,0.3414
2485.00,0.3410
2484.00,0.3406
2483.00,0.3402
2482.00,0.3399
2481.00,0.3395
2480.00,0.3392
2479.00,0.3388
2478.00,0.3385
2477.00,0.3381
2476.00,0.3378
2475.00,0.3375
2474.00,0.3372
2473.00,0.3368
2472.00,0.3366
2471.00,0.3363
2470.00,0.3361
2469.00,0.3358
2468.00,0.3356
2467.00,0.3352
2466.00,0.3349
2465.00,0.3347
2464.00,0.3344
2463.00,0.3342
2462.00,0.3339
2461.00,0.3337
2460.00,0.3335
2459.00,0.3334
2458.00,0.3332
2457.00,0.3331
2456.00,0.3329
2455.00,0.3328
2454.00,0.3326
2453.00,0.3324
2452.00,0.3324
2451.00,0.3323
2450.00,0.3323
2449.00,0.3322
2448.00,0.3321
2447.00,0.3320
2446.00,0.3319
2445.00,0.3318
2444.00,0.3318
2443.00,0.3317
2442.00,0.3318
2441.00,0.3318
2440.00,0.3318
2439.00,0.3318
2438.00,0.3319
2437.00,0.3320
2436.00,0.3320
2435.00,0.3321
2434.00,0.3321
2433.00,0.3322
2432.00,0.3323
2431.00,0.3324
2430.00,0.3325
2429.00,0.3326
2428.00,0.3326
2427.00,0.3327
2426.00,0.3328
2425.00,0.3330
2424.00,0.3331
2423.00,0.3331
2422.00,0.3331
2421.00,0.3332
2420.00,0.3332
2419.00,0.3332
2418.00,0.3332
2417.00,0.3333
2416.00,0.3333
2415.00,0.3334
2414.00,0.3335
2413.00,0.3336
2412.00,0.3337
2411.00,0.3337
2410.00,0.3337
2409.00,0.3336
2408.00,0.3336
2407.00,0.3335
2406.00,0.3334
2405.00,0.3333
2404.00,0.3332
2403.00,0.3330
2402.00,0.3329
2401.00,0.3327
2400.00,0.3326
2399.00,0.3325
2398.00,0.3323
2397.00,0.3321
2396.00,0.3319
2395.00,0.3317
2394.00,0.3316
2393.00,0.3315
2392.00,0.3315
2391.00,0.3314
2390.00,0.3313
2389.00,0.3312
2388.00,0.3311
2387.00,0.3310
2386.00,0.3308
2385.00,0.3308
2384.00,0.3308
2383.00,0.3308
2382.00,0.3308
2381.00,0.3308
2380.00,0.3308
2379.00,0.3308
2378.00,0.3307
2377.00,0.3306
2376.00,0.3304
2375.00,0.3302
2374.00,0.3300
2373.00,0.3299
2372.00,0.3297
2371.00,0.3296
2370.00,0.3295
2369.00,0.3294
2368.00,0.3294
2367.00,0.3294
2366.00,0.3294
2365.00,0.3295
2364.00,0.3296
2363.00,0.3296
2362.00,0.3295
2361.00,0.3294
2360.00,0.3293
2359.00,0.3291
2358.00,0.3289
2357.00,0.3288
2356.00,0.3288
2355.00,0.3288
2354.00,0.3288
2353.00,0.3289
2352.00,0.3289
2351.00,0.3287
2350.00,0.3285
2349.00,0.3283
2348.00,0.3282
2347.00,0.3282
2346.00,0.3282
2345.00,0.3281
2344.00,0.3279
2343.00,0.3278
2342.00,0.3276
2341.00,0.3275
2340.00,0.3275
2339.00,0.3274
2338.00,0.3274
2337.00,0.3273
2336.00,0.3272
2335.00,0.3270
2334.00,0.3268
2333.00,0.3266
2332.00,0.3265
2331.00,0.3263
2330.00,0.3261
2329.00,0.3258
2328.00,0.3256
2327.00,0.3253
2326.00,0.3251
2325.00,0.3249
2324.00,0.3247
2323.00,0.3245
2322.00,0.3243
2321.00,0.3240
2320.00,0.3238
2319.00,0.3236
2318.00,0.3234
2317.00,0.3231
2316.00,0.3229
2315.00,0.3227
2314.00,0.3225
2313.00,0.3223
2312.00,0.3220
2311.00,0.3217
2310.00,0.3214
2309.00,0.3210
2308.00,0.3206
2307.00,0.3203
2306.00,0.3200
2305.00,0.3197
2304.00,0.3195
2303.00,0.3192
2302.00,0.3190
2301.00,0.3187
2300.00,0.3184
2299.00,0.3181
2298.00,0.3178
2297.00,0.3175
2296.00,0.3172
2295.00,0.3169
2294.00,0.3165
2293.00,0.3162
2292.00,0.3158
2291.00,0.3154
2290.00,0.3151
2289.00,0.3148
2288.00,0.3145
2287.00,0.3142
2286.00,0.3140
2285.00,0.3137
2284.00,0.3135
2283.00,0.3132
2282.00,0.3128
2281.00,0.3125
2280.00,0.3122
2279.00,0.3118
2278.00,0.3115
2277.00,0.3113
2276.00,0.3111
2275.00,0.3108
2274.00,0.3106
2273.00,0.3103
2272.00,0.3101
2271.00,0.3099
2270.00,0.3098
2269.00,0.3097
2268.00,0.3095
2267.00,0.3094
2266.00,0.3092
2265.00,0.3089
2264.00,0.3087
2263.00,0.3084
2262.00,0.3081
2261.00,0.3079
2260.00,0.3077
2259.00,0.3074
2258.00,0.3071
2257.00,0.3068
2256.00,0.3064
2255.00,0.3061
2254.00,0.3058
2253.00,0.3055
2252.00,0.3053
2251.00,0.3050
2250.00,0.3047
2249.00,0.3045
2248.00,0.3043
2247.00,0.3041
2246.00,0.3038
2245.00,0.3036
2244.00,0.3034
2243.00,0.3032
2242.00,0.3031
2241.00,0.3029
2240.00,0.3028
2239.00,0.3026
2238.00,0.3025
2237.00,0.3024
2236.00,0.3023
2235.00,0.3022
2234.00,0.3022
2233.00,0.3021
2232.00,0.3021
2231.00,0.3020
2230.00,0.3019
2229.00,0.3019
2228.00,0.3018
2227.00,0.3016
2226.00,0.3014
2225.00,0.3012
2224.00,0.3010
2223.00,0.3009
2222.00,0.3007
2221.00,0.3006
2220.00,0.3005
2219.00,0.3004
2218.00,0.3002
2217.00,0.3001
2216.00,0.2999
2215.00,0.2998
2214.00,0.2997
2213.00,0.2996
2212.00,0.2996
2211.00,0.2995
2210.00,0.2995
2209.00,0.2994
2208.00,0.2994
2207.00,0.2994
2206.00,0.2994
2205.00,0.2994
2204.00,0.2994
2203.00,0.2994
2202.00,0.2995
2201.00,0.2995
2200.00,0.2996
2199.00,0.2996
2198.00,0.2997
2197.00,0.2997
2196.00,0.2998
2195.00,0.2999
2194.00,0.2999
2193.00,0.2999
2192.00,0.3000
2191.00,0.3000
2190.00,0.3000
2189.00,0.2999
2188.00,0.2999
2187.00,0.2998
2186.00,0.2997
2185.00,0.2995
2184.00,0.2994
2183.00,0.2992
2182.00,0.2991
2181.00,0.2989
2180.00,0.2987
2179.00,0.2985
2178.00,0.2983
2177.00,0.2982
2176.00,0.2980
2175.00,0.2979
2174.00,0.2978
2173.00,0.2976
2172.00,0.2975
2171.00,0.2974
2170.00,0.2974
2169.00,0.2973
2168.00,0.2973
2167.00,0.2972
2166.00,0.2971
2165.00,0.2970
2164.00,0.2969
2163.00,0.2969
2162.00,0.2968
2161.00,0.2967
2160.00,0.2966
2159.00,0.2966
2158.00,0.2964
2157.00,0.2963
2156.00,0.2961
2155.00,0.2959
2154.00,0.2957
2153.00,0.2955
2152.00,0.2953
2151.00,0.2951
2150.00,0.2948
2149.00,0.2944
2148.00,0.2940
2147.00,0.2936
2146.00,0.2931
2145.00,0.2927
2144.00,0.2922
2143.00,0.2917
2142.00,0.2912
2141.00,0.2907
2140.00,0.2903
2139.00,0.2899
2138.00,0.2895
2137.00,0.2893
2136.00,0.2890
2135.00,0.2888
2134.00,0.2886
2133.00,0.2884
2132.00,0.2882
2131.00,0.2881
2130.00,0.2880
2129.00,0.2879
2128.00,0.2879
2127.00,0.2879
2126.00,0.2878
2125.00,0.2878
2124.00,0.2877
2123.00,0.2877
2122.00,0.2876
2121.00,0.2875
2120.00,0.2874
2119.00,0.2873
2118.00,0.2871
2117.00,0.2869
2116.00,0.2868
2115.00,0.2866
2114.00,0.2865
2113.00,0.2863
2112.00,0.2862
2111.00,0.2860
2110.00,0.2858
2109.00,0.2856
2108.00,0.2854
2107.00,0.2853
2106.00,0.2851
2105.00,0.2850
2104.00,0.2849
2103.00,0.2847
2102.00,0.2846
2101.00,0.2846
2100.00,0.2846
2099.00,0.2846
2098.00,0.2846
2097.00,0.2847
2096.00,0.2847
2095.00,0.2847
2094.00,0.2846
2093.00,0.2846
2092.00,0.2846
2091.00,0.2847
2090.00,0.2848
2089.00,0.2848
2088.00,0.2849
2087.00,0.2849
2086.00,0.2849
2085.00,0.2850
2084.00,0.2850
2083.00,0.2850
2082.00,0.2850
2081.00,0.2849
2080.00,0.2849
2079.00,0.2849
2078.00,0.2848
2077.00,0.2847
2076.00,0.2846
2075.00,0.2846
2074.00,0.2846
2073.00,0.2846
2072.00,0.2846
2071.00,0.2845
2070.00,0.2845
2069.00,0.2845
2068.00,0.2845
2067.00,0.2845
2066.00,0.2846
2065.00,0.2847
2064.00,0.2849
2063.00,0.2851
2062.00,0.2852
2061.00,0.2854
2060.00,0.2856
2059.00,0.2858
2058.00,0.2859
2057.00,0.2861
2056.00,0.2862
2055.00,0.2864
2054.00,0.2865
2053.00,0.2867
2052.00,0.2869
2051.00,0.2871
2050.00,0.2874
2049.00,0.2876
2048.00,0.2878
2047.00,0.2880
2046.00,0.2881
2045.00,0.2882
2044.00,0.2883
2043.00,0.2884
2042.00,0.2885
2041.00,0.2887
2040.00,0.2888
2039.00,0.2889
2038.00,0.2889
2037.00,0.2889
2036.00,0.2889
2035.00,0.2889
2034.00,0.2889
2033.00,0.2889
2032.00,0.2888
2031.00,0.2888
2030.00,0.2887
2029.00,0.2887
2028.00,0.2887
2027.00,0.2886
2026.00,0.2885
2025.00,0.2884
2024.00,0.2883
2023.00,0.2880
2022.00,0.2877
2021.00,0.2872
2020.00,0.2867
2019.00,0.2862
2018.00,0.2857
2017.00,0.2854
2016.00,0.2851
2015.00,0.2848
2014.00,0.2844
2013.00,0.2839
2012.00,0.2834
2011.00,0.2829
2010.00,0.2824
2009.00,0.2820
2008.00,0.2816
2007.00,0.2813
2006.00,0.2810
2005.00,0.2807
2004.00,0.2804
2003.00,0.2801
2002.00,0.2798
2001.00,0.2796
2000.00,0.2794
1999.00,0.2792
1998.00,0.2790
1997.00,0.2789
1996.00,0.2786
1995.00,0.2783
1994.00,0.2779
1993.00,0.2778
1992.00,0.2778
1991.00,0.2778
1990.00,0.2778
1989.00,0.2778
1988.00,0.2778
1987.00,0.2779
1986.00,0.2779
1985.00,0.2779
1984.00,0.2780
1983.00,0.2780
1982.00,0.2781
1981.00,0.2781
1980.00,0.2782
1979.00,0.2782
1978.00,0.2782
1977.00,0.2782
1976.00,0.2782
1975.00,0.2782
1974.00,0.2782
1973.00,0.2783
1972.00,0.2783
1971.00,0.2782
1970.00,0.2780
1969.00,0.2778
1968.00,0.2778
1967.00,0.2780
1966.00,0.2782
1965.00,0.2783
1964.00,0.2783
1963.00,0.2783
1962.00,0.2783
1961.00,0.2784
1960.00,0.2785
1959.00,0.2786
1958.00,0.2787
1957.00,0.2787
1956.00,0.2788
1955.00,0.2789
1954.00,0.2791
1953.00,0.2792
1952.00,0.2794
1951.00,0.2795
1950.00,0.2795
1949.00,0.2796
1948.00,0.2796
1947.00,0.2797
1946.00,0.2798
1945.00,0.2800
1944.00,0.2804
1943.00,0.2810
1942.00,0.2819
1941.00,0.2829
1940.00,0.2836
1939.00,0.2841
1938.00,0.2844
1937.00,0.2845
1936.00,0.2844
1935.00,0.2842
1934.00,0.2839
1933.00,0.2837
1932.00,0.2836
1931.00,0.2836
1930.00,0.2837
1929.00,0.2838
1928.00,0.2838
1927.00,0.2837
1926.00,0.2834
1925.00,0.2831
1924.00,0.2832
1923.00,0.2837
1922.00,0.2844
1921.00,0.2851
1920.00,0.2856
1919.00,0.2859
1918.00,0.2863
1917.00,0.2865
1916.00,0.2868
1915.00,0.2869
1914.00,0.2870
1913.00,0.2870
1912.00,0.2868
1911.00,0.2867
1910.00,0.2868
1909.00,0.2871
1908.00,0.2875
1907.00,0.2878
1906.00,0.2879
1905.00,0.2881
1904.00,0.2882
1903.00,0.2883
1902.00,0.2883
1901.00,0.2884
1900.00,0.2885
1899.00,0.2885
1898.00,0.2884
1897.00,0.2884
1896.00,0.2886
1895.00,0.2889
1894.00,0.2891
1893.00,0.2893
1892.00,0.2892
1891.00,0.2892
1890.00,0.2893
1889.00,0.2896
1888.00,0.2899
1887.00,0.2899
1886.00,0.2899
1885.00,0.2899
1884.00,0.2899
1883.00,0.2899
1882.00,0.2899
1881.00,0.2899
1880.00,0.2898
1879.00,0.2897
1878.00,0.2897
1877.00,0.2896
1876.00,0.2895
1875.00,0.2893
1874.00,0.2891
1873.00,0.2889
1872.00,0.2888
1871.00,0.2887
1870.00,0.2886
1869.00,0.2884
1868.00,0.2882
1867.00,0.2880
1866.00,0.2878
1865.00,0.2876
1864.00,0.2875
1863.00,0.2872
1862.00,0.2870
1861.00,0.2867
1860.00,0.2864
1859.00,0.2862
1858.00,0.2859
1857.00,0.2857
1856.00,0.2855
1855.00,0.2853
1854.00,0.2851
1853.00,0.2849
1852.00,0.2848
1851.00,0.2847
1850.00,0.2846
1849.00,0.2845
1848.00,0.2845
1847.00,0.2843
1846.00,0.2839
1845.00,0.2838
1844.00,0.2835
1843.00,0.2833
1842.00,0.2832
1841.00,0.2831
1840.00,0.2829
1839.00,0.2827
1838.00,0.2826
1837.00,0.2827
1836.00,0.2828
1835.00,0.2828
1834.00,0.2829
1833.00,0.2828
1832.00,0.2825
1831.00,0.2822
1830.00,0.2820
1829.00,0.2820
1828.00,0.2820
1827.00,0.2818
1826.00,0.2816
1825.00,0.2817
1824.00,0.2818
1823.00,0.2820
1822.00,0.2821
1821.00,0.2821
1820.00,0.2821
1819.00,0.2820
1818.00,0.2820
1817.00,0.2822
1816.00,0.2824
1815.00,0.2824
1814.00,0.2824
1813.00,0.2823
1812.00,0.2825
1811.00,0.2827
1810.00,0.2830
1809.00,0.2834
1808.00,0.2838
1807.00,0.2842
1806.00,0.2847
1805.00,0.2855
1804.00,0.2859
1803.00,0.2864
1802.00,0.2869
1801.00,0.2875
1800.00,0.2881
1799.00,0.2887
1798.00,0.2893
1797.00,0.2898
1796.00,0.2903
1795.00,0.2908
1794.00,0.2913
1793.00,0.2918
1792.00,0.2923
1791.00,0.2927
1790.00,0.2930
1789.00,0.2935
1788.00,0.2939
1787.00,0.2941
1786.00,0.2945
1785.00,0.2949
1784.00,0.2952
1783.00,0.2954
1782.00,0.2956
1781.00,0.2960
1780.00,0.2966
1779.00,0.2973
1778.00,0.2978
1777.00,0.2985
1776.00,0.2992
1775.00,0.2999
1774.00,0.3004
1773.00,0.3010
1772.00,0.3018
1771.00,0.3026
1770.00,0.3033
1769.00,0.3041
1768.00,0.3050
1767.00,0.3060
1766.00,0.3071
1765.00,0.3081
1764.00,0.3091
1763.00,0.3101
1762.00,0.3112
1761.00,0.3126
1760.00,0.3141
1759.00,0.3158
1758.00,0.3177
1757.00,0.3201
1756.00,0.3228
1755.00,0.3255
1754.00,0.3281
1753.00,0.3309
1752.00,0.3341
1751.00,0.3381
1750.00,0.3429
1749.00,0.3486
1748.00,0.3549
1747.00,0.3614
1746.00,0.3680
1745.00,0.3749
1744.00,0.3822
1743.00,0.3893
1742.00,0.3957
1741.00,0.4012
1740.00,0.4058
1739.00,0.4098
1738.00,0.4132
1737.00,0.4161
1736.00,0.4183
1735.00,0.4197
1734.00,0.4210
1733.00,0.4219
1732.00,0.4221
1731.00,0.4214
1730.00,0.4196
1729.00,0.4166
1728.00,0.4125
1727.00,0.4076
1726.00,0.4024
1725.00,0.3977
1724.00,0.3938
1723.00,0.3911
1722.00,0.3896
1721.00,0.3889
1720.00,0.3887
1719.00,0.3892
1718.00,0.3917
1717.00,0.3966
1716.00,0.4033
1715.00,0.4111
1714.00,0.4196
1713.00,0.4286
1712.00,0.4376
1711.00,0.4462
1710.00,0.4540
1709.00,0.4600
1708.00,0.4632
1707.00,0.4636
1706.00,0.4614
1705.00,0.4572
1704.00,0.4523
1703.00,0.4471
1702.00,0.4400
1701.00,0.4291
1700.00,0.4163
1699.00,0.4056
1698.00,0.3981
1697.00,0.3923
1696.00,0.3865
1695.00,0.3805
1694.00,0.3756
1693.00,0.3717
1692.00,0.3682
1691.00,0.3646
1690.00,0.3614
1689.00,0.3590
1688.00,0.3573
1687.00,0.3557
1686.00,0.3535
1685.00,0.3510
1684.00,0.3489
1683.00,0.3469
1682.00,0.3453
1681.00,0.3445
1680.00,0.3443
1679.00,0.3445
1678.00,0.3447
1677.00,0.3445
1676.00,0.3438
1675.00,0.3427
1674.00,0.3419
1673.00,0.3415
1672.00,0.3414
1671.00,0.3412
1670.00,0.3411
1669.00,0.3411
1668.00,0.3413
1667.00,0.3417
1666.00,0.3422
1665.00,0.3427
1664.00,0.3428
1663.00,0.3428
1662.00,0.3428
1661.00,0.3430
1660.00,0.3434
1659.00,0.3439
1658.00,0.3447
1657.00,0.3459
1656.00,0.3471
1655.00,0.3477
1654.00,0.3482
1653.00,0.3489
1652.00,0.3492
1651.00,0.3497
1650.00,0.3505
1649.00,0.3515
1648.00,0.3529
1647.00,0.3550
1646.00,0.3570
1645.00,0.3588
1644.00,0.3606
1643.00,0.3623
1642.00,0.3642
1641.00,0.3663
1640.00,0.3686
1639.00,0.3709
1638.00,0.3731
1637.00,0.3757
1636.00,0.3788
1635.00,0.3813
1634.00,0.3832
1633.00,0.3851
1632.00,0.3874
1631.00,0.3896
1630.00,0.3918
1629.00,0.3942
1628.00,0.3969
1627.00,0.3997
1626.00,0.4026
1625.00,0.4057
1624.00,0.4094
1623.00,0.4136
1622.00,0.4184
1621.00,0.4239
1620.00,0.4300
1619.00,0.4368
1618.00,0.4448
1617.00,0.4551
1616.00,0.4668
1615.00,0.4781
1614.00,0.4883
1613.00,0.4986
1612.00,0.5092
1611.00,0.5198
1610.00,0.5303
1609.00,0.5408
1608.00,0.5512
1607.00,0.5606
1606.00,0.5686
1605.00,0.5757
1604.00,0.5825
1603.00,0.5887
1602.00,0.5946
1601.00,0.6007
1600.00,0.6074
1599.00,0.6144
1598.00,0.6224
1597.00,0.6328
1596.00,0.6468
1595.00,0.6646
1594.00,0.6870
1593.00,0.7159
1592.00,0.7531
1591.00,0.7997
1590.00,0.8580
1589.00,0.9322
1588.00,1.0273
1587.00,1.1467
1586.00,1.2939
1585.00,1.4753
1584.00,1.6970
1583.00,1.9434
1582.00,2.1430
1581.00,2.2014
1580.00,2.1106
1579.00,1.9249
1578.00,1.7021
1577.00,1.4894
1576.00,1.3127
1575.00,1.1811
1574.00,1.0892
1573.00,1.0246
1572.00,0.9764
1571.00,0.9386
1570.00,0.9118
1569.00,0.8996
1568.00,0.9030
1567.00,0.9213
1566.00,0.9553
1565.00,1.0079
1564.00,1.0770
1563.00,1.1525
1562.00,1.2207
1561.00,1.2666
1560.00,1.2625
1559.00,1.1869
1558.00,1.0787
1557.00,0.9843
1556.00,0.9064
1555.00,0.8357
1554.00,0.7723
1553.00,0.7211
1552.00,0.6821
1551.00,0.6513
1550.00,0.6256
1549.00,0.6049
1548.00,0.5888
1547.00,0.5754
1546.00,0.5636
1545.00,0.5538
1544.00,0.5462
1543.00,0.5399
1542.00,0.5336
1541.00,0.5276
1540.00,0.5224
1539.00,0.5172
1538.00,0.5127
1537.00,0.5096
1536.00,0.5072
1535.00,0.5044
1534.00,0.5016
1533.00,0.4997
1532.00,0.4991
1531.00,0.4992
1530.00,0.4997
1529.00,0.5004
1528.00,0.5011
1527.00,0.5014
1526.00,0.5012
1525.00,0.5009
1524.00,0.5005
1523.00,0.5001
1522.00,0.5006
1521.00,0.5027
1520.00,0.5056
1519.00,0.5087
1518.00,0.5121
1517.00,0.5164
1516.00,0.5209
1515.00,0.5242
1514.00,0.5260
1513.00,0.5269
1512.00,0.5275
1511.00,0.5283
1510.00,0.5300
1509.00,0.5334
1508.00,0.5406
1507.00,0.5525
1506.00,0.5658
1505.00,0.5777
1504.00,0.5882
1503.00,0.5976
1502.00,0.6065
1501.00,0.6152
1500.00,0.6231
1499.00,0.6303
1498.00,0.6378
1497.00,0.6473
1496.00,0.6587
1495.00,0.6703
1494.00,0.6818
1493.00,0.6939
1492.00,0.7068
1491.00,0.7210
1490.00,0.7375
1489.00,0.7564
1488.00,0.7766
1487.00,0.7980
1486.00,0.8217
1485.00,0.8493
1484.00,0.8813
1483.00,0.9182
1482.00,0.9622
1481.00,1.0145
1480.00,1.0734
1479.00,1.1381
1478.00,1.2117
1477.00,1.2991
1476.00,1.4017
1475.00,1.5198
1474.00,1.6631
1473.00,1.8500
1472.00,2.0890
1471.00,2.3652
1470.00,2.6684
1469.00,3.0323
1468.00,3.5134
1467.00,3.8560
1466.00,3.8421
1465.00,3.9341
1464.00,4.0828
1463.00,4.0336
1462.00,3.9114
1461.00,4.0346
1460.00,3.9993
1459.00,4.0863
1458.00,4.0326
1457.00,4.3852
1456.00,4.2389
1455.00,3.7674
1454.00,3.6822
1453.00,3.8228
1452.00,3.7568
1451.00,3.4740
1450.00,3.3390
1449.00,3.3347
1448.00,3.2898
1447.00,3.1409
1446.00,3.0075
1445.00,2.8973
1444.00,2.7537
1443.00,2.5878
1442.00,2.4412
1441.00,2.3181
1440.00,2.2021
1439.00,2.0848
1438.00,1.9643
1437.00,1.8402
1436.00,1.7187
1435.00,1.6098
1434.00,1.5138
1433.00,1.4238
1432.00,1.3355
1431.00,1.2516
1430.00,1.1765
1429.00,1.1123
1428.00,1.0592
1427.00,1.0161
1426.00,0.9808
1425.00,0.9513
1424.00,0.9273
1423.00,0.9091
1422.00,0.8954
1421.00,0.8834
1420.00,0.8716
1419.00,0.8607
1418.00,0.8514
1417.00,0.8438
1416.00,0.8376
1415.00,0.8327
1414.00,0.8288
1413.00,0.8257
1412.00,0.8235
1411.00,0.8222
1410.00,0.8207
1409.00,0.8177
1408.00,0.8123
1407.00,0.8044
1406.00,0.7939
1405.00,0.7812
1404.00,0.7677
1403.00,0.7548
1402.00,0.7432
1401.00,0.7325
1400.00,0.7229
1399.00,0.7156
1398.00,0.7110
1397.00,0.7089
1396.00,0.7100
1395.00,0.7149
1394.00,0.7240
1393.00,0.7378
1392.00,0.7578
1391.00,0.7863
1390.00,0.8255
1389.00,0.8789
1388.00,0.9503
1387.00,1.0405
1386.00,1.1444
1385.00,1.2548
1384.00,1.3696
1383.00,1.4918
1382.00,1.6258
1381.00,1.7757
1380.00,1.9447
1379.00,2.1213
1378.00,2.2627
1377.00,2.3106
1376.00,2.2467
1375.00,2.1029
1374.00,1.9290
1373.00,1.7661
1372.00,1.6312
1371.00,1.5261
1370.00,1.4491
1369.00,1.3982
1368.00,1.3679
1367.00,1.3454
1366.00,1.3147
1365.00,1.2651
1364.00,1.1980
1363.00,1.1245
1362.00,1.0570
1361.00,1.0022
1360.00,0.9606
1359.00,0.9298
1358.00,0.9072
1357.00,0.8911
1356.00,0.8802
1355.00,0.8734
1354.00,0.8696
1353.00,0.8674
1352.00,0.8658
1351.00,0.8637
1350.00,0.8610
1349.00,0.8578
1348.00,0.8544
1347.00,0.8512
1346.00,0.8484
1345.00,0.8460
1344.00,0.8438
1343.00,0.8410
1342.00,0.8371
1341.00,0.8317
1340.00,0.8244
1339.00,0.8153
1338.00,0.8043
1337.00,0.7916
1336.00,0.7776
1335.00,0.7630
1334.00,0.7488
1333.00,0.7355
1332.00,0.7239
1331.00,0.7142
1330.00,0.7065
1329.00,0.7005
1328.00,0.6961
1327.00,0.6931
1326.00,0.6914
1325.00,0.6907
1324.00,0.6907
1323.00,0.6913
1322.00,0.6921
1321.00,0.6928
1320.00,0.6937
1319.00,0.6949
1318.00,0.6968
1317.00,0.6992
1316.00,0.7021
1315.00,0.7055
1314.00,0.7093
1313.00,0.7137
1312.00,0.7185
1311.00,0.7233
1310.00,0.7277
1309.00,0.7317
1308.00,0.7351
1307.00,0.7380
1306.00,0.7400
1305.00,0.7407
1304.00,0.7400
1303.00,0.7380
1302.00,0.7348
1301.00,0.7308
1300.00,0.7266
1299.00,0.7225
1298.00,0.7185
1297.00,0.7146
1296.00,0.7110
1295.00,0.7081
1294.00,0.7059
1293.00,0.7044
1292.00,0.7031
1291.00,0.7020
1290.00,0.7007
1289.00,0.6990
1288.00,0.6967
1287.00,0.6938
1286.00,0.6901
1285.00,0.6858
1284.00,0.6810
1283.00,0.6764
1282.00,0.6724
1281.00,0.6689
1280.00,0.6661
1279.00,0.6636
1278.00,0.6614
1277.00,0.6592
1276.00,0.6571
1275.00,0.6551
1274.00,0.6533
1273.00,0.6516
1272.00,0.6502
1271.00,0.6490
1270.00,0.6477
1269.00,0.6458
1268.00,0.6429
1267.00,0.6386
1266.00,0.6333
1265.00,0.6273
1264.00,0.6215
1263.00,0.6163
1262.00,0.6120
1261.00,0.6084
1260.00,0.6054
1259.00,0.6027
1258.00,0.6000
1257.00,0.5969
1256.00,0.5935
1255.00,0.5901
1254.00,0.5869
1253.00,0.5840
1252.00,0.5813
1251.00,0.5788
1250.00,0.5764
1249.00,0.5737
1248.00,0.5708
1247.00,0.5676
1246.00,0.5642
1245.00,0.5606
1244.00,0.5569
1243.00,0.5531
1242.00,0.5492
1241.00,0.5453
1240.00,0.5416
1239.00,0.5383
1238.00,0.5354
1237.00,0.5329
1236.00,0.5310
1235.00,0.5296
1234.00,0.5288
1233.00,0.5283
1232.00,0.5282
1231.00,0.5284
1230.00,0.5286
1229.00,0.5281
1228.00,0.5268
1227.00,0.5244
1226.00,0.5213
1225.00,0.5177
1224.00,0.5139
1223.00,0.5107
1222.00,0.5081
1221.00,0.5062
1220.00,0.5046
1219.00,0.5035
1218.00,0.5028
1217.00,0.5026
1216.00,0.5030
1215.00,0.5037
1214.00,0.5045
1213.00,0.5048
1212.00,0.5045
1211.00,0.5036
1210.00,0.5023
1209.00,0.5008
1208.00,0.4992
1207.00,0.4976
1206.00,0.4960
1205.00,0.4943
1204.00,0.4927
1203.00,0.4912
1202.00,0.4901
1201.00,0.4893
1200.00,0.4888
1199.00,0.4885
1198.00,0.4882
1197.00,0.4877
1196.00,0.4869
1195.00,0.4860
1194.00,0.4852
1193.00,0.4844
1192.00,0.4837
1191.00,0.4832
1190.00,0.4828
1189.00,0.4825
1188.00,0.4822
1187.00,0.4819
1186.00,0.4815
1185.00,0.4812
1184.00,0.4808
1183.00,0.4806
1182.00,0.4806
1181.00,0.4807
1180.00,0.4811
1179.00,0.4818
1178.00,0.4827
1177.00,0.4840
1176.00,0.4860
1175.00,0.4890
1174.00,0.4931
1173.00,0.4979
1172.00,0.5030
1171.00,0.5076
1170.00,0.5111
1169.00,0.5128
1168.00,0.5129
1167.00,0.5120
1166.00,0.5106
1165.00,0.5093
1164.00,0.5085
1163.00,0.5085
1162.00,0.5093
1161.00,0.5105
1160.00,0.5120
1159.00,0.5137
1158.00,0.5155
1157.00,0.5168
1156.00,0.5176
1155.00,0.5177
1154.00,0.5173
1153.00,0.5164
1152.00,0.5149
1151.00,0.5133
1150.00,0.5115
1149.00,0.5099
1148.00,0.5085
1147.00,0.5074
1146.00,0.5066
1145.00,0.5063
1144.00,0.5068
1143.00,0.5083
1142.00,0.5109
1141.00,0.5145
1140.00,0.5193
1139.00,0.5251
1138.00,0.5319
1137.00,0.5397
1136.00,0.5484
1135.00,0.5573
1134.00,0.5652
1133.00,0.5700
1132.00,0.5704
1131.00,0.5665
1130.00,0.5597
1129.00,0.5522
1128.00,0.5457
1127.00,0.5409
1126.00,0.5379
1125.00,0.5361
1124.00,0.5349
1123.00,0.5336
1122.00,0.5319
1121.00,0.5298
1120.00,0.5278
1119.00,0.5263
1118.00,0.5255
1117.00,0.5256
1116.00,0.5265
1115.00,0.5275
1114.00,0.5273
1113.00,0.5244
1112.00,0.5185
1111.00,0.5108
1110.00,0.5028
1109.00,0.4958
1108.00,0.4903
1107.00,0.4864
1106.00,0.4838
1105.00,0.4821
1104.00,0.4808
1103.00,0.4799
1102.00,0.4791
1101.00,0.4781
1100.00,0.4769
1099.00,0.4757
1098.00,0.4745
1097.00,0.4734
1096.00,0.4726
1095.00,0.4723
1094.00,0.4724
1093.00,0.4729
1092.00,0.4737
1091.00,0.4747
1090.00,0.4762
1089.00,0.4780
1088.00,0.4804
1087.00,0.4834
1086.00,0.4874
1085.00,0.4923
1084.00,0.4982
1083.00,0.5052
1082.00,0.5132
1081.00,0.5219
1080.00,0.5309
1079.00,0.5396
1078.00,0.5468
1077.00,0.5514
1076.00,0.5527
1075.00,0.5509
1074.00,0.5467
1073.00,0.5411
1072.00,0.5351
1071.00,0.5293
1070.00,0.5242
1069.00,0.5199
1068.00,0.5161
1067.00,0.5128
1066.00,0.5101
1065.00,0.5078
1064.00,0.5061
1063.00,0.5050
1062.00,0.5044
1061.00,0.5041
1060.00,0.5037
1059.00,0.5032
1058.00,0.5025
1057.00,0.5016
1056.00,0.5005
1055.00,0.4996
1054.00,0.4990
1053.00,0.4987
1052.00,0.4989
1051.00,0.4997
1050.00,0.5011
1049.00,0.5031
1048.00,0.5053
1047.00,0.5076
1046.00,0.5095
1045.00,0.5108
1044.00,0.5115
1043.00,0.5118
1042.00,0.5119
1041.00,0.5119
1040.00,0.5116
1039.00,0.5109
1038.00,0.5099
1037.00,0.5088
1036.00,0.5079
1035.00,0.5074
1034.00,0.5075
1033.00,0.5082
1032.00,0.5094
1031.00,0.5107
1030.00,0.5119
1029.00,0.5124
1028.00,0.5117
1027.00,0.5095
1026.00,0.5057
1025.00,0.5006
1024.00,0.4948
1023.00,0.4890
1022.00,0.4837
1021.00,0.4788
1020.00,0.4744
1019.00,0.4706
1018.00,0.4672
1017.00,0.4643
1016.00,0.4617
1015.00,0.4596
1014.00,0.4578
1013.00,0.4562
1012.00,0.4548
1011.00,0.4539
1010.00,0.4535
1009.00,0.4536
1008.00,0.4541
1007.00,0.4550
1006.00,0.4563
1005.00,0.4580
1004.00,0.4598
1003.00,0.4617
1002.00,0.4636
1001.00,0.4653
1000.00,0.4667
999.00,0.4678
998.00,0.4682
997.00,0.4677
996.00,0.4664
995.00,0.4644
994.00,0.4619
993.00,0.4591
992.00,0.4560
991.00,0.4529
990.00,0.4500
989.00,0.4475
988.00,0.4457
987.00,0.4445
986.00,0.4441
985.00,0.4445
984.00,0.4456
983.00,0.4474
982.00,0.4496
981.00,0.4520
980.00,0.4545
979.00,0.4571
978.00,0.4596
977.00,0.4618
976.00,0.4635
975.00,0.4649
974.00,0.4659
973.00,0.4664
972.00,0.4667
971.00,0.4668
970.00,0.4668
969.00,0.4667
968.00,0.4667
967.00,0.4666
966.00,0.4665
965.00,0.4659
964.00,0.4650
963.00,0.4638
962.00,0.4625
961.00,0.4610
960.00,0.4595
959.00,0.4581
958.00,0.4572
957.00,0.4565
956.00,0.4560
955.00,0.4555
954.00,0.4546
953.00,0.4534
952.00,0.4518
951.00,0.4504
950.00,0.4494
949.00,0.4488
948.00,0.4487
947.00,0.4490
946.00,0.4496
945.00,0.4504
944.00,0.4515
943.00,0.4529
942.00,0.4543
941.00,0.4557
940.00,0.4569
939.00,0.4577
938.00,0.4580
937.00,0.4575
936.00,0.4563
935.00,0.4546
934.00,0.4526
933.00,0.4503
932.00,0.4479
931.00,0.4454
930.00,0.4432
929.00,0.4414
928.00,0.4404
927.00,0.4405
926.00,0.4419
925.00,0.4448
924.00,0.4491
923.00,0.4544
922.00,0.4595
921.00,0.4628
920.00,0.4627
919.00,0.4590
918.00,0.4524
917.00,0.4441
916.00,0.4358
915.00,0.4283
914.00,0.4220
913.00,0.4169
912.00,0.4130
911.00,0.4101
910.00,0.4079
909.00,0.4062
908.00,0.4047
907.00,0.4034
906.00,0.4027
905.00,0.4025
904.00,0.4028
903.00,0.4038
902.00,0.4053
901.00,0.4072
900.00,0.4097
899.00,0.4128
898.00,0.4164
897.00,0.4202
896.00,0.4241
895.00,0.4281
894.00,0.4322
893.00,0.4365
892.00,0.4407
891.00,0.4445
890.00,0.4475
889.00,0.4491
888.00,0.4492
887.00,0.4480
886.00,0.4460
885.00,0.4439
884.00,0.4422
883.00,0.4415
882.00,0.4417
881.00,0.4429
880.00,0.4445
879.00,0.4461
878.00,0.4470
877.00,0.4471
876.00,0.4466
875.00,0.4460
874.00,0.4458
873.00,0.4459
872.00,0.4463
871.00,0.4470
870.00,0.4482
869.00,0.4497
868.00,0.4516
867.00,0.4541
866.00,0.4573
865.00,0.4612
864.00,0.4650
863.00,0.4679
862.00,0.4686
861.00,0.4663
860.00,0.4610
859.00,0.4541
858.00,0.4472
857.00,0.4413
856.00,0.4370
855.00,0.4340
854.00,0.4321
853.00,0.4306
852.00,0.4293
851.00,0.4278
850.00,0.4261
849.00,0.4239
848.00,0.4214
847.00,0.4185
846.00,0.4157
845.00,0.4129
844.00,0.4104
843.00,0.4085
842.00,0.4075
841.00,0.4080
840.00,0.4105
839.00,0.4151
838.00,0.4214
837.00,0.4277
836.00,0.4321
835.00,0.4334
834.00,0.4316
833.00,0.4279
832.00,0.4241
831.00,0.4219
830.00,0.4218
829.00,0.4238
828.00,0.4273
827.00,0.4319
826.00,0.4373
825.00,0.4433
824.00,0.4496
823.00,0.4566
822.00,0.4639
821.00,0.4714
820.00,0.4787
819.00,0.4854
818.00,0.4914
817.00,0.4961
816.00,0.4988
815.00,0.4993
814.00,0.4975
813.00,0.4935
812.00,0.4880
811.00,0.4819
810.00,0.4757
809.00,0.4696
808.00,0.4636
807.00,0.4581
806.00,0.4529
805.00,0.4478
804.00,0.4423
803.00,0.4362
802.00,0.4299
801.00,0.4238
800.00,0.4184
799.00,0.4143
798.00,0.4114
797.00,0.4094
796.00,0.4082
795.00,0.4075
794.00,0.4074
793.00,0.4078
792.00,0.4088
791.00,0.4105
790.00,0.4131
789.00,0.4161
788.00,0.4194
787.00,0.4229
786.00,0.4267
785.00,0.4312
784.00,0.4360
783.00,0.4407
782.00,0.4447
781.00,0.4477
780.00,0.4499
779.00,0.4516
778.00,0.4533
777.00,0.4551
776.00,0.4570
775.00,0.4591
774.00,0.4613
773.00,0.4637
772.00,0.4663
771.00,0.4694
770.00,0.4727
769.00,0.4763
768.00,0.4798
767.00,0.4829
766.00,0.4853
765.00,0.4867
764.00,0.4878
763.00,0.4893
762.00,0.4919
761.00,0.4956
760.00,0.5000
759.00,0.5046
758.00,0.5086
757.00,0.5118
756.00,0.5145
755.00,0.5176
754.00,0.5215
753.00,0.5263
752.00,0.5315
751.00,0.5369
750.00,0.5423
749.00,0.5476
748.00,0.5524
747.00,0.5568
746.00,0.5611
745.00,0.5657
744.00,0.5706
743.00,0.5761
742.00,0.5820
741.00,0.5879
740.00,0.5931
739.00,0.5972
738.00,0.6003
737.00,0.6027
736.00,0.6049
735.00,0.6076
734.00,0.6113
733.00,0.6165
732.00,0.6234
731.00,0.6327
730.00,0.6449
729.00,0.6603
728.00,0.6790
727.00,0.7015
726.00,0.7276
725.00,0.7563
724.00,0.7848
723.00,0.8081
722.00,0.8187
721.00,0.8096
720.00,0.7794
719.00,0.7353
718.00,0.6874
717.00,0.6430
716.00,0.6054
715.00,0.5753
714.00,0.5516
713.00,0.5328
712.00,0.5177
711.00,0.5055
710.00,0.4958
709.00,0.4880
708.00,0.4816
707.00,0.4765
706.00,0.4724
705.00,0.4687
704.00,0.4651
703.00,0.4621
702.00,0.4604
701.00,0.4595
700.00,0.4577
699.00,0.4524
698.00,0.4417
697.00,0.4261
696.00,0.4084
695.00,0.3919
694.00,0.3785
693.00,0.3684
692.00,0.3610
691.00,0.3556
690.00,0.3517
689.00,0.3488
688.00,0.3463
687.00,0.3441
686.00,0.3423
685.00,0.3408
684.00,0.3396
683.00,0.3389
682.00,0.3385
681.00,0.3381
680.00,0.3377
679.00,0.3374
678.00,0.3374
677.00,0.3375
676.00,0.3377
675.00,0.3377
674.00,0.3375
673.00,0.3374
672.00,0.3373
671.00,0.3372
670.00,0.3371
669.00,0.3372
668.00,0.3377
667.00,0.3388
666.00,0.3404
665.00,0.3420
664.00,0.3431
663.00,0.3438
662.00,0.3444
661.00,0.3451
660.00,0.3460
659.00,0.3471
658.00,0.3483
657.00,0.3493
656.00,0.3503
655.00,0.3514
654.00,0.3525
653.00,0.3536
652.00,0.3546
651.00,0.3556
650.00,0.3563
649.00,0.3569
648.00,0.3573
647.00,0.3580
646.00,0.3592
645.00,0.3609
644.00,0.3628
643.00,0.3647
642.00,0.3663
641.00,0.3675
640.00,0.3684
639.00,0.3693
638.00,0.3703
637.00,0.3712
636.00,0.3719
635.00,0.3724
634.00,0.3726
633.00,0.3727
632.00,0.3731
631.00,0.3741
630.00,0.3752
629.00,0.3764
628.00,0.3776
627.00,0.3792
626.00,0.3812
625.00,0.3835
624.00,0.3860
623.00,0.3884
622.00,0.3908
621.00,0.3927
620.00,0.3941
619.00,0.3952
618.00,0.3960
617.00,0.3964
616.00,0.3963
615.00,0.3959
614.00,0.3952
613.00,0.3942
612.00,0.3930
611.00,0.3919
610.00,0.3908
609.00,0.3894
608.00,0.3877
607.00,0.3859
606.00,0.3848
605.00,0.3842
604.00,0.3838
603.00,0.3833
602.00,0.3829
601.00,0.3826
600.00,0.3828
599.00,0.3834
598.00,0.3844
597.00,0.3857
596.00,0.3871
595.00,0.3886
594.00,0.3902
593.00,0.3920
592.00,0.3943
591.00,0.3971
590.00,0.4000
589.00,0.4025
588.00,0.4045
587.00,0.4065
586.00,0.4087
585.00,0.4111
584.00,0.4135
583.00,0.4159
582.00,0.4185
581.00,0.4212
580.00,0.4236
579.00,0.4255
578.00,0.4271
577.00,0.4287
576.00,0.4307
575.00,0.4329
574.00,0.4349
573.00,0.4366
572.00,0.4381
571.00,0.4398
570.00,0.4419
569.00,0.4445
568.00,0.4472
567.00,0.4497
566.00,0.4514
565.00,0.4524
564.00,0.4529
563.00,0.4534
562.00,0.4540
561.00,0.4546
560.00,0.4551
559.00,0.4561
558.00,0.4577
557.00,0.4597
556.00,0.4616
555.00,0.4632
554.00,0.4644
553.00,0.4655
552.00,0.4665
551.00,0.4677
550.00,0.4693
