Created as New Dataset,
cm-1,A
4000.00,0.4383
3999.00,0.4379
3998.00,0.4376
3997.00,0.4373
3996.00,0.4371
3995.00,0.4369
3994.00,0.4366
3993.00,0.4362
3992.00,0.4358
3991.00,0.4354
3990.00,0.4350
3989.00,0.4346
3988.00,0.4342
3987.00,0.4339
3986.00,0.4335
3985.00,0.4330
3984.00,0.4326
3983.00,0.4321
3982.00,0.4317
3981.00,0.4313
3980.00,0.4308
3979.00,0.4304
3978.00,0.4300
3977.00,0.4295
3976.00,0.4292
3975.00,0.4288
3974.00,0.4286
3973.00,0.4283
3972.00,0.4280
3971.00,0.4278
3970.00,0.4276
3969.00,0.4274
3968.00,0.4272
3967.00,0.4270
3966.00,0.4267
3965.00,0.4263
3964.00,0.4260
3963.00,0.4257
3962.00,0.4255
3961.00,0.4253
3960.00,0.4252
3959.00,0.4251
3958.00,0.4249
3957.00,0.4247
3956.00,0.4244
3955.00,0.4242
3954.00,0.4240
3953.00,0.4238
3952.00,0.4236
3951.00,0.4233
3950.00,0.4231
3949.00,0.4229
3948.00,0.4227
3947.00,0.4224
3946.00,0.4221
3945.00,0.4219
3944.00,0.4217
3943.00,0.4216
3942.00,0.4214
3941.00,0.4212
3940.00,0.4211
3939.00,0.4211
3938.00,0.4210
3937.00,0.4209
3936.00,0.4208
3935.00,0.4207
3934.00,0.4207
3933.00,0.4207
3932.00,0.4205
3931.00,0.4204
3930.00,0.4203
3929.00,0.4203
3928.00,0.4202
3927.00,0.4202
3926.00,0.4201
3925.00,0.4201
3924.00,0.4200
3923.00,0.4199
3922.00,0.4199
3921.00,0.4198
3920.00,0.4197
3919.00,0.4195
3918.00,0.4194
3917.00,0.4194
3916.00,0.4195
3915.00,0.4195
3914.00,0.4194
3913.00,0.4194
3912.00,0.4193
3911.00,0.4192
3910.00,0.4191
3909.00,0.4189
3908.00,0.4187
3907.00,0.4184
3906.00,0.4180
3905.00,0.4177
3904.00,0.4173
3903.00,0.4170
3902.00,0.4167
3901.00,0.4167
3900.00,0.4168
3899.00,0.4169
3898.00,0.4169
3897.00,0.4170
3896.00,0.4170
3895.00,0.4171
3894.00,0.4171
3893.00,0.4171
3892.00,0.4171
3891.00,0.4170
3890.00,0.4168
3889.00,0.4164
3888.00,0.4161
3887.00,0.4160
3886.00,0.4159
3885.00,0.4157
3884.00,0.4155
3883.00,0.4154
3882.00,0.4155
3881.00,0.4156
3880.00,0.4154
3879.00,0.4150
3878.00,0.4149
3877.00,0.4150
3876.00,0.4152
3875.00,0.4151
3874.00,0.4147
3873.00,0.4142
3872.00,0.4139
3871.00,0.4139
3870.00,0.4139
3869.00,0.4137
3868.00,0.4132
3867.00,0.4129
3866.00,0.4129
3865.00,0.4129
3864.00,0.4127
3863.00,0.4124
3862.00,0.4125
3861.00,0.4127
3860.00,0.4128
3859.00,0.4126
3858.00,0.4121
3857.00,0.4114
3856.00,0.4106
3855.00,0.4099
3854.00,0.4095
3853.00,0.4094
3852.00,0.4092
3851.00,0.4090
3850.00,0.4091
3849.00,0.4095
3848.00,0.4099
3847.00,0.4102
3846.00,0.4107
3845.00,0.4112
3844.00,0.4114
3843.00,0.4113
3842.00,0.4109
3841.00,0.4105
3840.00,0.4100
3839.00,0.4097
3838.00,0.4094
3837.00,0.4091
3836.00,0.4089
3835.00,0.4089
3834.00,0.4089
3833.00,0.4090
3832.00,0.4091
3831.00,0.4093
3830.00,0.4094
3829.00,0.4096
3828.00,0.4099
3827.00,0.4101
3826.00,0.4100
3825.00,0.4097
3824.00,0.4093
3823.00,0.4090
3822.00,0.4087
3821.00,0.4084
3820.00,0.4077
3819.00,0.4071
3818.00,0.4068
3817.00,0.4069
3816.00,0.4069
3815.00,0.4066
3814.00,0.4064
3813.00,0.4065
3812.00,0.4069
3811.00,0.4069
3810.00,0.4066
3809.00,0.4063
3808.00,0.4062
3807.00,0.4061
3806.00,0.4057
3805.00,0.4050
3804.00,0.4045
3803.00,0.4043
3802.00,0.4041
3801.00,0.4039
3800.00,0.4036
3799.00,0.4035
3798.00,0.4038
3797.00,0.4040
3796.00,0.4040
3795.00,0.4038
3794.00,0.4040
3793.00,0.4043
3792.00,0.4046
3791.00,0.4046
3790.00,0.4044
3789.00,0.4042
3788.00,0.4041
3787.00,0.4040
3786.00,0.4038
3785.00,0.4036
3784.00,0.4033
3783.00,0.4030
3782.00,0.4027
3781.00,0.4025
3780.00,0.4023
3779.00,0.4021
3778.00,0.4019
3777.00,0.4018
3776.00,0.4018
3775.00,0.4017
3774.00,0.4014
3773.00,0.4010
3772.00,0.4007
3771.00,0.4004
3770.00,0.4001
3769.00,0.3998
3768.00,0.3995
3767.00,0.3993
3766.00,0.3994
3765.00,0.3993
3764.00,0.3990
3763.00,0.3988
3762.00,0.3988
3761.00,0.3988
3760.00,0.3986
3759.00,0.3984
3758.00,0.3981
3757.00,0.3979
3756.00,0.3976
3755.00,0.3971
3754.00,0.3964
3753.00,0.3957
3752.00,0.3951
3751.00,0.3946
3750.00,0.3942
3749.00,0.3937
3748.00,0.3930
3747.00,0.3924
3746.00,0.3920
3745.00,0.3921
3744.00,0.3922
3743.00,0.3922
3742.00,0.3922
3741.00,0.3925
3740.00,0.3929
3739.00,0.3929
3738.00,0.3927
3737.00,0.3927
3736.00,0.3929
3735.00,0.3928
3734.00,0.3926
3733.00,0.3926
3732.00,0.3927
3731.00,0.3927
3730.00,0.3926
3729.00,0.3926
3728.00,0.3927
3727.00,0.3929
3726.00,0.3929
3725.00,0.3928
3724.00,0.3929
3723.00,0.3931
3722.00,0.3932
3721.00,0.3932
3720.00,0.3932
3719.00,0.3931
3718.00,0.3931
3717.00,0.3930
3716.00,0.3926
3715.00,0.3923
3714.00,0.3919
3713.00,0.3916
3712.00,0.3912
3711.00,0.3909
3710.00,0.3907
3709.00,0.3907
3708.00,0.3907
3707.00,0.3908
3706.00,0.3909
3705.00,0.3911
3704.00,0.3913
3703.00,0.3915
3702.00,0.3917
3701.00,0.3918
3700.00,0.3919
3699.00,0.3920
3698.00,0.3921
3697.00,0.3922
3696.00,0.3922
3695.00,0.3921
3694.00,0.3919
3693.00,0.3917
3692.00,0.3912
3691.00,0.3907
3690.00,0.3904
3689.00,0.3902
3688.00,0.3903
3687.00,0.3902
3686.00,0.3903
3685.00,0.3905
3684.00,0.3908
3683.00,0.3909
3682.00,0.3911
3681.00,0.3911
3680.00,0.3911
3679.00,0.3908
3678.00,0.3903
3677.00,0.3899
3676.00,0.3897
3675.00,0.3894
3674.00,0.3889
3673.00,0.3884
3672.00,0.3884
3671.00,0.3887
3670.00,0.3890
3669.00,0.3894
3668.00,0.3900
3667.00,0.3909
3666.00,0.3919
3665.00,0.3928
3664.00,0.3936
3663.00,0.3946
3662.00,0.3958
3661.00,0.3970
3660.00,0.3982
3659.00,0.3995
3658.00,0.4013
3657.00,0.4036
3656.00,0.4063
3655.00,0.4090
3654.00,0.4116
3653.00,0.4140
3652.00,0.4161
3651.00,0.4177
3650.00,0.4185
3649.00,0.4185
3648.00,0.4179
3647.00,0.4167
3646.00,0.4150
3645.00,0.4131
3644.00,0.4112
3643.00,0.4095
3642.00,0.4078
3641.00,0.4063
3640.00,0.4050
3639.00,0.4038
3638.00,0.4027
3637.00,0.4017
3636.00,0.4008
3635.00,0.4000
3634.00,0.3994
3633.00,0.3986
3632.00,0.3977
3631.00,0.3970
3630.00,0.3966
3629.00,0.3964
3628.00,0.3962
3627.00,0.3961
3626.00,0.3963
3625.00,0.3967
3624.00,0.3969
3623.00,0.3968
3622.00,0.3965
3621.00,0.3962
3620.00,0.3958
3619.00,0.3953
3618.00,0.3947
3617.00,0.3941
3616.00,0.3936
3615.00,0.3932
3614.00,0.3929
3613.00,0.3926
3612.00,0.3925
3611.00,0.3924
3610.00,0.3923
3609.00,0.3922
3608.00,0.3920
3607.00,0.3918
3606.00,0.3917
3605.00,0.3917
3604.00,0.3916
3603.00,0.3913
3602.00,0.3908
3601.00,0.3901
3600.00,0.3893
3599.00,0.3885
3598.00,0.3877
3597.00,0.3868
3596.00,0.3859
3595.00,0.3851
3594.00,0.3842
3593.00,0.3835
3592.00,0.3828
3591.00,0.3821
3590.00,0.3815
3589.00,0.3809
3588.00,0.3804
3587.00,0.3800
3586.00,0.3797
3585.00,0.3796
3584.00,0.3795
3583.00,0.3795
3582.00,0.3793
3581.00,0.3792
3580.00,0.3792
3579.00,0.3792
3578.00,0.3791
3577.00,0.3791
3576.00,0.3790
3575.00,0.3788
3574.00,0.3786
3573.00,0.3784
3572.00,0.3782
3571.00,0.3780
3570.00,0.3778
3569.00,0.3776
3568.00,0.3774
3567.00,0.3773
3566.00,0.3771
3565.00,0.3771
3564.00,0.3772
3563.00,0.3773
3562.00,0.3774
3561.00,0.3774
3560.00,0.3775
3559.00,0.3777
3558.00,0.3778
3557.00,0.3779
3556.00,0.3780
3555.00,0.3781
3554.00,0.3782
3553.00,0.3783
3552.00,0.3784
3551.00,0.3785
3550.00,0.3786
3549.00,0.3787
3548.00,0.3788
3547.00,0.3790
3546.00,0.3792
3545.00,0.3794
3544.00,0.3796
3543.00,0.3799
3542.00,0.3803
3541.00,0.3806
3540.00,0.3808
3539.00,0.3811
3538.00,0.3812
3537.00,0.3815
3536.00,0.3817
3535.00,0.3819
3534.00,0.3821
3533.00,0.3822
3532.00,0.3823
3531.00,0.3824
3530.00,0.3826
3529.00,0.3828
3528.00,0.3829
3527.00,0.3830
3526.00,0.3832
3525.00,0.3834
3524.00,0.3837
3523.00,0.3839
3522.00,0.3842
3521.00,0.3844
3520.00,0.3848
3519.00,0.3851
3518.00,0.3854
3517.00,0.3857
3516.00,0.3860
3515.00,0.3863
3514.00,0.3866
3513.00,0.3869
3512.00,0.3872
3511.00,0.3876
3510.00,0.3879
3509.00,0.3883
3508.00,0.3886
3507.00,0.3889
3506.00,0.3893
3505.00,0.3896
3504.00,0.3900
3503.00,0.3904
3502.00,0.3908
3501.00,0.3913
3500.00,0.3918
3499.00,0.3923
3498.00,0.3928
3497.00,0.3933
3496.00,0.3938
3495.00,0.3944
3494.00,0.3950
3493.00,0.3955
3492.00,0.3961
3491.00,0.3967
3490.00,0.3973
3489.00,0.3979
3488.00,0.3986
3487.00,0.3992
3486.00,0.3997
3485.00,0.4002
3484.00,0.4006
3483.00,0.4010
3482.00,0.4014
3481.00,0.4018
3480.00,0.4023
3479.00,0.4027
3478.00,0.4031
3477.00,0.4034
3476.00,0.4039
3475.00,0.4044
3474.00,0.4049
3473.00,0.4055
3472.00,0.4060
3471.00,0.4065
3470.00,0.4070
3469.00,0.4075
3468.00,0.4081
3467.00,0.4086
3466.00,0.4092
3465.00,0.4097
3464.00,0.4103
3463.00,0.4109
3462.00,0.4115
3461.00,0.4121
3460.00,0.4128
3459.00,0.4134
3458.00,0.4140
3457.00,0.4147
3456.00,0.4154
3455.00,0.4162
3454.00,0.4169
3453.00,0.4177
3452.00,0.4185
3451.00,0.4193
3450.00,0.4202
3449.00,0.4212
3448.00,0.4223
3447.00,0.4235
3446.00,0.4247
3445.00,0.4259
3444.00,0.4272
3443.00,0.4285
3442.00,0.4299
3441.00,0.4312
3440.00,0.4324
3439.00,0.4336
3438.00,0.4346
3437.00,0.4355
3436.00,0.4363
3435.00,0.4371
3434.00,0.4380
3433.00,0.4388
3432.00,0.4395
3431.00,0.4402
3430.00,0.4408
3429.00,0.4415
3428.00,0.4420
3427.00,0.4426
3426.00,0.4432
3425.00,0.4439
3424.00,0.4445
3423.00,0.4453
3422.00,0.4460
3421.00,0.4468
3420.00,0.4477
3419.00,0.4485
3418.00,0.4494
3417.00,0.4503
3416.00,0.4512
3415.00,0.4520
3414.00,0.4529
3413.00,0.4539
3412.00,0.4549
3411.00,0.4558
3410.00,0.4568
3409.00,0.4578
3408.00,0.4588
3407.00,0.4598
3406.00,0.4609
3405.00,0.4621
3404.00,0.4633
3403.00,0.4646
3402.00,0.4658
3401.00,0.4669
3400.00,0.4680
3399.00,0.4691
3398.00,0.4702
3397.00,0.4713
3396.00,0.4725
3395.00,0.4738
3394.00,0.4750
3393.00,0.4762
3392.00,0.4774
3391.00,0.4785
3390.00,0.4797
3389.00,0.4809
3388.00,0.4822
3387.00,0.4835
3386.00,0.4848
3385.00,0.4861
3384.00,0.4874
3383.00,0.4886
3382.00,0.4900
3381.00,0.4914
3380.00,0.4928
3379.00,0.4943
3378.00,0.4957
3377.00,0.4971
3376.00,0.4985
3375.00,0.4999
3374.00,0.5014
3373.00,0.5031
3372.00,0.5047
3371.00,0.5064
3370.00,0.5080
3369.00,0.5096
3368.00,0.5112
3367.00,0.5128
3366.00,0.5145
3365.00,0.5163
3364.00,0.5181
3363.00,0.5199
3362.00,0.5217
3361.00,0.5235
3360.00,0.5252
3359.00,0.5269
3358.00,0.5287
3357.00,0.5304
3356.00,0.5321
3355.00,0.5338
3354.00,0.5355
3353.00,0.5371
3352.00,0.5387
3351.00,0.5402
3350.00,0.5417
3349.00,0.5431
3348.00,0.5445
3347.00,0.5458
3346.00,0.5471
3345.00,0.5483
3344.00,0.5495
3343.00,0.5505
3342.00,0.5514
3341.00,0.5522
3340.00,0.5529
3339.00,0.5536
3338.00,0.5543
3337.00,0.5549
3336.00,0.5553
3335.00,0.5557
3334.00,0.5560
3333.00,0.5562
3332.00,0.5563
3331.00,0.5561
3330.00,0.5559
3329.00,0.5556
3328.00,0.5554
3327.00,0.5551
3326.00,0.5549
3325.00,0.5545
3324.00,0.5540
3323.00,0.5535
3322.00,0.5530
3321.00,0.5524
3320.00,0.5517
3319.00,0.5511
3318.00,0.5504
3317.00,0.5498
3316.00,0.5490
3315.00,0.5483
3314.00,0.5475
3313.00,0.5467
3312.00,0.5460
3311.00,0.5454
3310.00,0.5447
3309.00,0.5440
3308.00,0.5434
3307.00,0.5427
3306.00,0.5421
3305.00,0.5415
3304.00,0.5409
3303.00,0.5404
3302.00,0.5400
3301.00,0.5396
3300.00,0.5393
3299.00,0.5390
3298.00,0.5387
3297.00,0.5384
3296.00,0.5382
3295.00,0.5381
3294.00,0.5379
3293.00,0.5378
3292.00,0.5377
3291.00,0.5378
3290.00,0.5379
3289.00,0.5380
3288.00,0.5381
3287.00,0.5382
3286.00,0.5383
3285.00,0.5385
3284.00,0.5388
3283.00,0.5391
3282.00,0.5394
3281.00,0.5397
3280.00,0.5400
3279.00,0.5404
3278.00,0.5407
3277.00,0.5411
3276.00,0.5415
3275.00,0.5419
3274.00,0.5424
3273.00,0.5428
3272.00,0.5433
3271.00,0.5437
3270.00,0.5441
3269.00,0.5445
3268.00,0.5448
3267.00,0.5452
3266.00,0.5456
3265.00,0.5460
3264.00,0.5463
3263.00,0.5467
3262.00,0.5471
3261.00,0.5476
3260.00,0.5480
3259.00,0.5483
3258.00,0.5485
3257.00,0.5487
3256.00,0.5488
3255.00,0.5490
3254.00,0.5492
3253.00,0.5494
3252.00,0.5495
3251.00,0.5496
3250.00,0.5497
3249.00,0.5496
3248.00,0.5496
3247.00,0.5494
3246.00,0.5493
3245.00,0.5491
3244.00,0.5490
3243.00,0.5488
3242.00,0.5486
3241.00,0.5484
3240.00,0.5480
3239.00,0.5476
3238.00,0.5472
3237.00,0.5467
3236.00,0.5463
3235.00,0.5459
3234.00,0.5456
3233.00,0.5451
3232.00,0.5446
3231.00,0.5441
3230.00,0.5434
3229.00,0.5428
3228.00,0.5422
3227.00,0.5416
3226.00,0.5412
3225.00,0.5407
3224.00,0.5401
3223.00,0.5394
3222.00,0.5388
3221.00,0.5381
3220.00,0.5376
3219.00,0.5370
3218.00,0.5365
3217.00,0.5358
3216.00,0.5352
3215.00,0.5347
3214.00,0.5341
3213.00,0.5336
3212.00,0.5331
3211.00,0.5326
3210.00,0.5321
3209.00,0.5316
3208.00,0.5313
3207.00,0.5309
3206.00,0.5305
3205.00,0.5300
3204.00,0.5295
3203.00,0.5290
3202.00,0.5286
3201.00,0.5282
3200.00,0.5278
3199.00,0.5274
3198.00,0.5270
3197.00,0.5265
3196.00,0.5260
3195.00,0.5255
3194.00,0.5250
3193.00,0.5245
3192.00,0.5240
3191.00,0.5236
3190.00,0.5231
3189.00,0.5226
3188.00,0.5220
3187.00,0.5214
3186.00,0.5209
3185.00,0.5204
3184.00,0.5198
3183.00,0.5192
3182.00,0.5186
3181.00,0.5179
3180.00,0.5173
3179.00,0.5166
3178.00,0.5159
3177.00,0.5153
3176.00,0.5147
3175.00,0.5140
3174.00,0.5134
3173.00,0.5127
3172.00,0.5119
3171.00,0.5112
3170.00,0.5105
3169.00,0.5098
3168.00,0.5091
3167.00,0.5083
3166.00,0.5075
3165.00,0.5067
3164.00,0.5060
3163.00,0.5052
3162.00,0.5045
3161.00,0.5037
3160.00,0.5029
3159.00,0.5022
3158.00,0.5015
3157.00,0.5008
3156.00,0.5000
3155.00,0.4993
3154.00,0.4987
3153.00,0.4981
3152.00,0.4975
3151.00,0.4969
3150.00,0.4963
3149.00,0.4957
3148.00,0.4952
3147.00,0.4947
3146.00,0.4941
3145.00,0.4936
3144.00,0.4931
3143.00,0.4927
3142.00,0.4923
3141.00,0.4919
3140.00,0.4915
3139.00,0.4911
3138.00,0.4906
3137.00,0.4903
3136.00,0.4899
3135.00,0.4896
3134.00,0.4893
3133.00,0.4891
3132.00,0.4889
3131.00,0.4887
3130.00,0.4885
3129.00,0.4883
3128.00,0.4882
3127.00,0.4881
3126.00,0.4880
3125.00,0.4880
3124.00,0.4880
3123.00,0.4881
3122.00,0.4881
3121.00,0.4881
3120.00,0.4882
3119.00,0.4884
3118.00,0.4887
3117.00,0.4890
3116.00,0.4893
3115.00,0.4897
3114.00,0.4901
3113.00,0.4907
3112.00,0.4913
3111.00,0.4919
3110.00,0.4927
3109.00,0.4934
3108.00,0.4942
3107.00,0.4951
3106.00,0.4960
3105.00,0.4970
3104.00,0.4981
3103.00,0.4991
3102.00,0.5000
3101.00,0.5010
3100.00,0.5020
3099.00,0.5030
3098.00,0.5041
3097.00,0.5052
3096.00,0.5063
3095.00,0.5075
3094.00,0.5087
3093.00,0.5101
3092.00,0.5116
3091.00,0.5132
3090.00,0.5150
3089.00,0.5169
3088.00,0.5189
3087.00,0.5210
3086.00,0.5232
3085.00,0.5255
3084.00,0.5279
3083.00,0.5304
3082.00,0.5330
3081.00,0.5357
3080.00,0.5387
3079.00,0.5419
3078.00,0.5452
3077.00,0.5487
3076.00,0.5523
3075.00,0.5559
3074.00,0.5596
3073.00,0.5634
3072.00,0.5673
3071.00,0.5713
3070.00,0.5753
3069.00,0.5793
3068.00,0.5833
3067.00,0.5871
3066.00,0.5908
3065.00,0.5945
3064.00,0.5981
3063.00,0.6016
3062.00,0.6049
3061.00,0.6081
3060.00,0.6111
3059.00,0.6141
3058.00,0.6171
3057.00,0.6201
3056.00,0.6231
3055.00,0.6261
3054.00,0.6293
3053.00,0.6326
3052.00,0.6360
3051.00,0.6395
3050.00,0.6430
3049.00,0.6468
3048.00,0.6507
3047.00,0.6548
3046.00,0.6590
3045.00,0.6633
3044.00,0.6676
3043.00,0.6720
3042.00,0.6764
3041.00,0.6810
3040.00,0.6856
3039.00,0.6904
3038.00,0.6953
3037.00,0.7006
3036.00,0.7062
3035.00,0.7121
3034.00,0.7183
3033.00,0.7248
3032.00,0.7316
3031.00,0.7387
3030.00,0.7461
3029.00,0.7537
3028.00,0.7615
3027.00,0.7696
3026.00,0.7780
3025.00,0.7865
3024.00,0.7952
3023.00,0.8042
3022.00,0.8135
3021.00,0.8232
3020.00,0.8331
3019.00,0.8433
3018.00,0.8536
3017.00,0.8642
3016.00,0.8749
3015.00,0.8861
3014.00,0.8976
3013.00,0.9099
3012.00,0.9228
3011.00,0.9366
3010.00,0.9510
3009.00,0.9661
3008.00,0.9820
3007.00,0.9987
3006.00,1.0163
3005.00,1.0348
3004.00,1.0540
3003.00,1.0738
3002.00,1.0940
3001.00,1.1149
3000.00,1.1368
2999.00,1.1602
2998.00,1.1853
2997.00,1.2123
2996.00,1.2412
2995.00,1.2727
2994.00,1.3072
2993.00,1.3451
2992.00,1.3865
2991.00,1.4320
2990.00,1.4824
2989.00,1.5381
2988.00,1.5996
2987.00,1.6673
2986.00,1.7420
2985.00,1.8247
2984.00,1.9163
2983.00,2.0181
2982.00,2.1315
2981.00,2.2571
2980.00,2.3951
2979.00,2.5460
2978.00,2.7105
2977.00,2.8885
2976.00,3.0806
2975.00,3.2883
2974.00,3.5095
2973.00,3.7279
2972.00,3.9254
2971.00,4.1001
2970.00,4.1727
2969.00,4.0620
2968.00,3.9058
2967.00,3.8491
2966.00,3.9053
2965.00,4.0347
2964.00,4.1690
2963.00,4.3373
2962.00,4.4974
2961.00,4.3102
2960.00,4.1149
2959.00,4.0187
2958.00,4.0592
2957.00,4.1436
2956.00,4.1273
2955.00,3.9874
2954.00,3.8920
2953.00,3.9437
2952.00,4.1964
2951.00,4.4340
2950.00,4.2139
2949.00,4.0397
2948.00,3.9851
2947.00,4.1296
2946.00,4.5170
2945.00,4.2819
2944.00,4.0669
2943.00,3.9649
2942.00,4.1084
2941.00,4.1160
2940.00,3.9685
2939.00,3.8975
2938.00,3.9229
2937.00,4.0337
2936.00,4.2142
2935.00,4.4023
2934.00,4.3657
2933.00,4.1644
2932.00,4.0859
2931.00,4.2165
2930.00,4.5126
2929.00,4.3279
2928.00,4.1031
2927.00,4.0392
2926.00,4.2471
2925.00,4.4670
2924.00,4.2885
2923.00,4.0721
2922.00,3.8985
2921.00,3.8328
2920.00,3.8157
2919.00,3.9048
2918.00,4.1332
2917.00,4.4536
2916.00,4.7168
2915.00,4.7876
2914.00,4.6356
2913.00,4.2732
2912.00,4.0698
2911.00,3.9912
2910.00,3.9814
2909.00,3.9551
2908.00,3.9599
2907.00,4.0034
2906.00,4.0066
2905.00,3.9717
2904.00,4.0814
2903.00,4.4221
2902.00,4.1648
2901.00,3.8722
2900.00,3.7230
2899.00,3.7574
2898.00,3.7929
2897.00,3.7810
2896.00,3.8036
2895.00,3.8587
2894.00,3.9634
2893.00,4.0703
2892.00,4.0747
2891.00,4.0253
2890.00,4.0229
2889.00,4.1273
2888.00,4.3268
2887.00,4.4198
2886.00,4.3343
2885.00,4.2228
2884.00,4.2346
2883.00,4.4632
2882.00,4.5896
2881.00,4.4938
2880.00,4.2674
2879.00,4.0774
2878.00,3.9452
2877.00,3.8773
2876.00,3.8939
2875.00,3.9180
2874.00,3.9186
2873.00,3.9292
2872.00,3.9825
2871.00,4.0869
2870.00,4.2009
2869.00,4.2520
2868.00,4.2166
2867.00,4.1495
2866.00,4.0260
2865.00,3.8453
2864.00,3.7025
2863.00,3.6705
2862.00,3.7524
2861.00,3.8458
2860.00,3.8149
2859.00,3.7476
2858.00,3.7563
2857.00,3.9348
2856.00,4.2665
2855.00,4.2105
2854.00,4.0104
2853.00,3.8454
2852.00,3.7786
2851.00,3.7598
2850.00,3.8717
2849.00,4.2227
2848.00,4.4584
2847.00,4.2133
2846.00,4.0736
2845.00,4.1576
2844.00,4.2847
2843.00,4.4308
2842.00,4.6299
2841.00,4.8048
2840.00,4.6377
2839.00,3.9837
2838.00,3.5464
2837.00,3.2198
2836.00,2.9834
2835.00,2.7868
2834.00,2.6091
2833.00,2.4466
2832.00,2.2989
2831.00,2.1677
2830.00,2.0510
2829.00,1.9460
2828.00,1.8514
2827.00,1.7666
2826.00,1.6907
2825.00,1.6224
2824.00,1.5610
2823.00,1.5053
2822.00,1.4545
2821.00,1.4075
2820.00,1.3640
2819.00,1.3240
2818.00,1.2870
2817.00,1.2526
2816.00,1.2204
2815.00,1.1902
2814.00,1.1618
2813.00,1.1349
2812.00,1.1094
2811.00,1.0853
2810.00,1.0624
2809.00,1.0405
2808.00,1.0195
2807.00,0.9994
2806.00,0.9803
2805.00,0.9622
2804.00,0.9448
2803.00,0.9282
2802.00,0.9123
2801.00,0.8971
2800.00,0.8824
2799.00,0.8683
2798.00,0.8549
2797.00,0.8421
2796.00,0.8299
2795.00,0.8181
2794.00,0.8067
2793.00,0.7956
2792.00,0.7848
2791.00,0.7744
2790.00,0.7641
2789.00,0.7541
2788.00,0.7442
2787.00,0.7345
2786.00,0.7249
2785.00,0.7156
2784.00,0.7065
2783.00,0.6977
2782.00,0.6892
2781.00,0.6810
2780.00,0.6731
2779.00,0.6656
2778.00,0.6584
2777.00,0.6516
2776.00,0.6451
2775.00,0.6390
2774.00,0.6333
2773.00,0.6280
2772.00,0.6231
2771.00,0.6186
2770.00,0.6145
2769.00,0.6107
2768.00,0.6073
2767.00,0.6042
2766.00,0.6016
2765.00,0.5993
2764.00,0.5974
2763.00,0.5957
2762.00,0.5942
2761.00,0.5928
2760.00,0.5915
2759.00,0.5902
2758.00,0.5890
2757.00,0.5880
2756.00,0.5871
2755.00,0.5862
2754.00,0.5855
2753.00,0.5850
2752.00,0.5847
2751.00,0.5846
2750.00,0.5846
2749.00,0.5849
2748.00,0.5854
2747.00,0.5861
2746.00,0.5870
2745.00,0.5881
2744.00,0.5894
2743.00,0.5910
2742.00,0.5929
2741.00,0.5952
2740.00,0.5979
2739.00,0.6011
2738.00,0.6046
2737.00,0.6086
2736.00,0.6130
2735.00,0.6176
2734.00,0.6223
2733.00,0.6269
2732.00,0.6311
2731.00,0.6346
2730.00,0.6371
2729.00,0.6385
2728.00,0.6387
2727.00,0.6380
2726.00,0.6367
2725.00,0.6348
2724.00,0.6327
2723.00,0.6303
2722.00,0.6277
2721.00,0.6249
2720.00,0.6219
2719.00,0.6187
2718.00,0.6153
2717.00,0.6116
2716.00,0.6077
2715.00,0.6036
2714.00,0.5995
2713.00,0.5954
2712.00,0.5916
2711.00,0.5881
2710.00,0.5849
2709.00,0.5822
2708.00,0.5798
2707.00,0.5778
2706.00,0.5762
2705.00,0.5747
2704.00,0.5735
2703.00,0.5726
2702.00,0.5719
2701.00,0.5715
2700.00,0.5714
2699.00,0.5715
2698.00,0.5719
2697.00,0.5724
2696.00,0.5732
2695.00,0.5742
2694.00,0.5753
2693.00,0.5766
2692.00,0.5779
2691.00,0.5792
2690.00,0.5805
2689.00,0.5818
2688.00,0.5830
2687.00,0.5840
2686.00,0.5849
2685.00,0.5857
2684.00,0.5864
2683.00,0.5869
2682.00,0.5874
2681.00,0.5877
2680.00,0.5879
2679.00,0.5881
2678.00,0.5882
2677.00,0.5884
2676.00,0.5886
2675.00,0.5889
2674.00,0.5892
2673.00,0.5894
2672.00,0.5893
2671.00,0.5890
2670.00,0.5883
2669.00,0.5874
2668.00,0.5862
2667.00,0.5846
2666.00,0.5828
2665.00,0.5807
2664.00,0.5786
2663.00,0.5763
2662.00,0.5739
2661.00,0.5715
2660.00,0.5690
2659.00,0.5665
2658.00,0.5642
2657.00,0.5619
2656.00,0.5598
2655.00,0.5578
2654.00,0.5559
2653.00,0.5540
2652.00,0.5522
2651.00,0.5505
2650.00,0.5488
2649.00,0.5472
2648.00,0.5455
2647.00,0.5439
2646.00,0.5424
2645.00,0.5409
2644.00,0.5396
2643.00,0.5384
2642.00,0.5372
2641.00,0.5360
2640.00,0.5347
2639.00,0.5335
2638.00,0.5323
2637.00,0.5313
2636.00,0.5303
2635.00,0.5295
2634.00,0.5286
2633.00,0.5277
2632.00,0.5267
2631.00,0.5257
2630.00,0.5248
2629.00,0.5238
2628.00,0.5229
2627.00,0.5220
2626.00,0.5210
2625.00,0.5200
2624.00,0.5190
2623.00,0.5180
2622.00,0.5169
2621.00,0.5158
2620.00,0.5147
2619.00,0.5137
2618.00,0.5127
2617.00,0.5117
2616.00,0.5106
2615.00,0.5096
2614.00,0.5087
2613.00,0.5077
2612.00,0.5066
2611.00,0.5055
2610.00,0.5045
2609.00,0.5035
2608.00,0.5026
2607.00,0.5017
2606.00,0.5008
2605.00,0.4998
2604.00,0.4988
2603.00,0.4977
2602.00,0.4966
2601.00,0.4954
2600.00,0.4942
2599.00,0.4928
2598.00,0.4914
2597.00,0.4899
2596.00,0.4884
2595.00,0.4868
2594.00,0.4852
2593.00,0.4836
2592.00,0.4819
2591.00,0.4803
2590.00,0.4787
2589.00,0.4771
2588.00,0.4755
2587.00,0.4739
2586.00,0.4723
2585.00,0.4706
2584.00,0.4689
2583.00,0.4672
2582.00,0.4654
2581.00,0.4637
2580.00,0.4620
2579.00,0.4603
2578.00,0.4586
2577.00,0.4569
2576.00,0.4552
2575.00,0.4535
2574.00,0.4520
2573.00,0.4505
2572.00,0.4491
2571.00,0.4477
2570.00,0.4464
2569.00,0.4451
2568.00,0.4438
2567.00,0.4425
2566.00,0.4412
2565.00,0.4399
2564.00,0.4387
2563.00,0.4373
2562.00,0.4360
2561.00,0.4346
2560.00,0.4332
2559.00,0.4319
2558.00,0.4307
2557.00,0.4295
2556.00,0.4284
2555.00,0.4272
2554.00,0.4260
2553.00,0.4249
2552.00,0.4238
2551.00,0.4227
2550.00,0.4217
2549.00,0.4207
2548.00,0.4198
2547.00,0.4190
2546.00,0.4182
2545.00,0.4174
2544.00,0.4165
2543.00,0.4156
2542.00,0.4148
2541.00,0.4140
2540.00,0.4132
2539.00,0.4125
2538.00,0.4118
2537.00,0.4112
2536.00,0.4105
2535.00,0.4098
2534.00,0.4092
2533.00,0.4085
2532.00,0.4078
2531.00,0.4070
2530.00,0.4061
2529.00,0.4051
2528.00,0.4041
2527.00,0.4031
2526.00,0.4021
2525.00,0.4011
2524.00,0.4000
2523.00,0.3989
2522.00,0.3978
2521.00,0.3967
2520.00,0.3957
2519.00,0.3947
2518.00,0.3937
2517.00,0.3928
2516.00,0.3919
2515.00,0.3910
2514.00,0.3901
2513.00,0.3893
2512.00,0.3885
2511.00,0.3877
2510.00,0.3870
2509.00,0.3863
2508.00,0.3857
2507.00,0.3851
2506.00,0.3846
2505.00,0.3841
2504.00,0.3836
2503.00,0.3833
2502.00,0.3830
2501.00,0.3827
2500.00,0.3824
2499.00,0.3821
2498.00,0.3818
2497.00,0.3815
2496.00,0.3812
2495.00,0.3808
2494.00,0.3805
2493.00,0.3801
2492.00,0.3796
2491.00,0.3791
2490.00,0.3786
2489.00,0.3781
2488.00,0.3775
2487.00,0.3770
2486.00,0.3764
2485.00,0.3757
2484.00,0.3752
2483.00,0.3746
2482.00,0.3740
2481.00,0.3735
2480.00,0.3731
2479.00,0.3726
2478.00,0.3721
2477.00,0.3716
2476.00,0.3711
2475.00,0.3706
2474.00,0.3702
2473.00,0.3698
2472.00,0.3694
2471.00,0.3691
2470.00,0.3687
2469.00,0.3684
2468.00,0.3681
2467.00,0.3678
2466.00,0.3675
2465.00,0.3673
2464.00,0.3671
2463.00,0.3669
2462.00,0.3666
2461.00,0.3664
2460.00,0.3661
2459.00,0.3659
2458.00,0.3656
2457.00,0.3654
2456.00,0.3653
2455.00,0.3651
2454.00,0.3649
2453.00,0.3647
2452.00,0.3646
2451.00,0.3645
2450.00,0.3644
2449.00,0.3644
2448.00,0.3643
2447.00,0.3643
2446.00,0.3642
2445.00,0.3641
2444.00,0.3641
2443.00,0.3641
2442.00,0.3641
2441.00,0.3642
2440.00,0.3642
2439.00,0.3642
2438.00,0.3642
2437.00,0.3643
2436.00,0.3644
2435.00,0.3644
2434.00,0.3644
2433.00,0.3644
2432.00,0.3644
2431.00,0.3644
2430.00,0.3644
2429.00,0.3646
2428.00,0.3647
2427.00,0.3648
2426.00,0.3649
2425.00,0.3650
2424.00,0.3650
2423.00,0.3651
2422.00,0.3652
2421.00,0.3652
2420.00,0.3654
2419.00,0.3655
2418.00,0.3656
2417.00,0.3657
2416.00,0.3657
2415.00,0.3658
2414.00,0.3659
2413.00,0.3660
2412.00,0.3661
2411.00,0.3662
2410.00,0.3661
2409.00,0.3660
2408.00,0.3659
2407.00,0.3658
2406.00,0.3658
2405.00,0.3658
2404.00,0.3658
2403.00,0.3659
2402.00,0.3658
2401.00,0.3658
2400.00,0.3657
2399.00,0.3656
2398.00,0.3656
2397.00,0.3655
2396.00,0.3655
2395.00,0.3655
2394.00,0.3655
2393.00,0.3654
2392.00,0.3654
2391.00,0.3654
2390.00,0.3654
2389.00,0.3654
2388.00,0.3654
2387.00,0.3655
2386.00,0.3655
2385.00,0.3656
2384.00,0.3657
2383.00,0.3657
2382.00,0.3658
2381.00,0.3658
2380.00,0.3659
2379.00,0.3660
2378.00,0.3661
2377.00,0.3661
2376.00,0.3662
2375.00,0.3662
2374.00,0.3661
2373.00,0.3660
2372.00,0.3658
2371.00,0.3657
2370.00,0.3655
2369.00,0.3654
2368.00,0.3654
2367.00,0.3653
2366.00,0.3652
2365.00,0.3652
2364.00,0.3652
2363.00,0.3653
2362.00,0.3654
2361.00,0.3654
2360.00,0.3653
2359.00,0.3654
2358.00,0.3651
2357.00,0.3654
2356.00,0.3629
2355.00,0.3621
2354.00,0.3624
2353.00,0.3622
2352.00,0.3622
2351.00,0.3620
2350.00,0.3618
2349.00,0.3615
2348.00,0.3612
2347.00,0.3609
2346.00,0.3607
2345.00,0.3607
2344.00,0.3607
2343.00,0.3608
2342.00,0.3609
2341.00,0.3611
2340.00,0.3611
2339.00,0.3613
2338.00,0.3610
2337.00,0.3628
2336.00,0.3632
2335.00,0.3628
2334.00,0.3626
2333.00,0.3623
2332.00,0.3620
2331.00,0.3616
2330.00,0.3612
2329.00,0.3608
2328.00,0.3604
2327.00,0.3601
2326.00,0.3597
2325.00,0.3594
2324.00,0.3592
2323.00,0.3589
2322.00,0.3586
2321.00,0.3583
2320.00,0.3581
2319.00,0.3577
2318.00,0.3573
2317.00,0.3570
2316.00,0.3566
2315.00,0.3561
2314.00,0.3557
2313.00,0.3553
2312.00,0.3550
2311.00,0.3547
2310.00,0.3543
2309.00,0.3540
2308.00,0.3535
2307.00,0.3531
2306.00,0.3526
2305.00,0.3523
2304.00,0.3519
2303.00,0.3516
2302.00,0.3513
2301.00,0.3511
2300.00,0.3508
2299.00,0.3506
2298.00,0.3503
2297.00,0.3500
2296.00,0.3498
2295.00,0.3495
2294.00,0.3491
2293.00,0.3488
2292.00,0.3485
2291.00,0.3481
2290.00,0.3478
2289.00,0.3475
2288.00,0.3472
2287.00,0.3468
2286.00,0.3464
2285.00,0.3460
2284.00,0.3456
2283.00,0.3452
2282.00,0.3448
2281.00,0.3444
2280.00,0.3440
2279.00,0.3436
2278.00,0.3432
2277.00,0.3428
2276.00,0.3424
2275.00,0.3421
2274.00,0.3418
2273.00,0.3415
2272.00,0.3412
2271.00,0.3410
2270.00,0.3408
2269.00,0.3406
2268.00,0.3405
2267.00,0.3404
2266.00,0.3402
2265.00,0.3401
2264.00,0.3399
2263.00,0.3398
2262.00,0.3396
2261.00,0.3394
2260.00,0.3392
2259.00,0.3390
2258.00,0.3387
2257.00,0.3384
2256.00,0.3380
2255.00,0.3377
2254.00,0.3373
2253.00,0.3369
2252.00,0.3366
2251.00,0.3364
2250.00,0.3361
2249.00,0.3359
2248.00,0.3357
2247.00,0.3354
2246.00,0.3351
2245.00,0.3348
2244.00,0.3345
2243.00,0.3343
2242.00,0.3341
2241.00,0.3338
2240.00,0.3336
2239.00,0.3334
2238.00,0.3331
2237.00,0.3329
2236.00,0.3327
2235.00,0.3325
2234.00,0.3324
2233.00,0.3322
2232.00,0.3321
2231.00,0.3319
2230.00,0.3318
2229.00,0.3316
2228.00,0.3315
2227.00,0.3313
2226.00,0.3312
2225.00,0.3311
2224.00,0.3309
2223.00,0.3308
2222.00,0.3308
2221.00,0.3307
2220.00,0.3307
2219.00,0.3306
2218.00,0.3305
2217.00,0.3304
2216.00,0.3303
2215.00,0.3301
2214.00,0.3301
2213.00,0.3300
2212.00,0.3299
2211.00,0.3299
2210.00,0.3298
2209.00,0.3297
2208.00,0.3296
2207.00,0.3295
2206.00,0.3295
2205.00,0.3294
2204.00,0.3294
2203.00,0.3293
2202.00,0.3293
2201.00,0.3293
2200.00,0.3293
2199.00,0.3293
2198.00,0.3293
2197.00,0.3293
2196.00,0.3293
2195.00,0.3294
2194.00,0.3295
2193.00,0.3296
2192.00,0.3297
2191.00,0.3298
2190.00,0.3299
2189.00,0.3301
2188.00,0.3302
2187.00,0.3302
2186.00,0.3302
2185.00,0.3302
2184.00,0.3302
2183.00,0.3301
2182.00,0.3300
2181.00,0.3299
2180.00,0.3299
2179.00,0.3298
2178.00,0.3296
2177.00,0.3295
2176.00,0.3294
2175.00,0.3292
2174.00,0.3290
2173.00,0.3289
2172.00,0.3288
2171.00,0.3288
2170.00,0.3286
2169.00,0.3285
2168.00,0.3284
2167.00,0.3282
2166.00,0.3281
2165.00,0.3280
2164.00,0.3279
2163.00,0.3278
2162.00,0.3277
2161.00,0.3276
2160.00,0.3276
2159.00,0.3275
2158.00,0.3274
2157.00,0.3273
2156.00,0.3272
2155.00,0.3271
2154.00,0.3270
2153.00,0.3269
2152.00,0.3268
2151.00,0.3266
2150.00,0.3264
2149.00,0.3261
2148.00,0.3258
2147.00,0.3253
2146.00,0.3249
2145.00,0.3243
2144.00,0.3238
2143.00,0.3232
2142.00,0.3226
2141.00,0.3220
2140.00,0.3214
2139.00,0.3209
2138.00,0.3204
2137.00,0.3200
2136.00,0.3196
2135.00,0.3192
2134.00,0.3188
2133.00,0.3184
2132.00,0.3181
2131.00,0.3178
2130.00,0.3175
2129.00,0.3173
2128.00,0.3171
2127.00,0.3169
2126.00,0.3167
2125.00,0.3165
2124.00,0.3164
2123.00,0.3164
2122.00,0.3163
2121.00,0.3163
2120.00,0.3163
2119.00,0.3162
2118.00,0.3161
2117.00,0.3161
2116.00,0.3160
2115.00,0.3160
2114.00,0.3159
2113.00,0.3159
2112.00,0.3158
2111.00,0.3157
2110.00,0.3156
2109.00,0.3154
2108.00,0.3152
2107.00,0.3151
2106.00,0.3149
2105.00,0.3148
2104.00,0.3147
2103.00,0.3146
2102.00,0.3144
2101.00,0.3141
2100.00,0.3140
2099.00,0.3138
2098.00,0.3137
2097.00,0.3136
2096.00,0.3134
2095.00,0.3133
2094.00,0.3132
2093.00,0.3131
2092.00,0.3130
2091.00,0.3130
2090.00,0.3129
2089.00,0.3129
2088.00,0.3129
2087.00,0.3129
2086.00,0.3129
2085.00,0.3129
2084.00,0.3129
2083.00,0.3130
2082.00,0.3130
2081.00,0.3131
2080.00,0.3131
2079.00,0.3132
2078.00,0.3132
2077.00,0.3133
2076.00,0.3133
2075.00,0.3133
2074.00,0.3133
2073.00,0.3133
2072.00,0.3133
2071.00,0.3133
2070.00,0.3133
2069.00,0.3133
2068.00,0.3134
2067.00,0.3134
2066.00,0.3135
2065.00,0.3135
2064.00,0.3136
2063.00,0.3137
2062.00,0.3137
2061.00,0.3137
2060.00,0.3138
2059.00,0.3138
2058.00,0.3139
2057.00,0.3141
2056.00,0.3142
2055.00,0.3143
2054.00,0.3143
2053.00,0.3145
2052.00,0.3146
2051.00,0.3148
2050.00,0.3151
2049.00,0.3154
2048.00,0.3158
2047.00,0.3161
2046.00,0.3163
2045.00,0.3165
2044.00,0.3168
2043.00,0.3170
2042.00,0.3172
2041.00,0.3175
2040.00,0.3178
2039.00,0.3180
2038.00,0.3181
2037.00,0.3182
2036.00,0.3183
2035.00,0.3183
2034.00,0.3183
2033.00,0.3183
2032.00,0.3183
2031.00,0.3182
2030.00,0.3181
2029.00,0.3180
2028.00,0.3180
2027.00,0.3179
2026.00,0.3178
2025.00,0.3176
2024.00,0.3174
2023.00,0.3171
2022.00,0.3167
2021.00,0.3163
2020.00,0.3158
2019.00,0.3152
2018.00,0.3146
2017.00,0.3139
2016.00,0.3132
2015.00,0.3125
2014.00,0.3118
2013.00,0.3111
2012.00,0.3104
2011.00,0.3098
2010.00,0.3092
2009.00,0.3087
2008.00,0.3083
2007.00,0.3078
2006.00,0.3074
2005.00,0.3071
2004.00,0.3069
2003.00,0.3066
2002.00,0.3064
2001.00,0.3062
2000.00,0.3061
1999.00,0.3059
1998.00,0.3058
1997.00,0.3056
1996.00,0.3054
1995.00,0.3052
1994.00,0.3051
1993.00,0.3049
1992.00,0.3048
1991.00,0.3048
1990.00,0.3046
1989.00,0.3045
1988.00,0.3043
1987.00,0.3041
1986.00,0.3039
1985.00,0.3038
1984.00,0.3037
1983.00,0.3036
1982.00,0.3034
1981.00,0.3033
1980.00,0.3032
1979.00,0.3032
1978.00,0.3031
1977.00,0.3031
1976.00,0.3031
1975.00,0.3030
1974.00,0.3029
1973.00,0.3029
1972.00,0.3030
1971.00,0.3030
1970.00,0.3031
1969.00,0.3031
1968.00,0.3032
1967.00,0.3034
1966.00,0.3036
1965.00,0.3037
1964.00,0.3038
1963.00,0.3037
1962.00,0.3036
1961.00,0.3036
1960.00,0.3036
1959.00,0.3037
1958.00,0.3037
1957.00,0.3038
1956.00,0.3038
1955.00,0.3039
1954.00,0.3040
1953.00,0.3041
1952.00,0.3042
1951.00,0.3042
1950.00,0.3042
1949.00,0.3042
1948.00,0.3043
1947.00,0.3044
1946.00,0.3045
1945.00,0.3047
1944.00,0.3049
1943.00,0.3053
1942.00,0.3057
1941.00,0.3062
1940.00,0.3067
1939.00,0.3071
1938.00,0.3072
1937.00,0.3073
1936.00,0.3073
1935.00,0.3073
1934.00,0.3073
1933.00,0.3074
1932.00,0.3075
1931.00,0.3076
1930.00,0.3077
1929.00,0.3078
1928.00,0.3078
1927.00,0.3078
1926.00,0.3077
1925.00,0.3077
1924.00,0.3078
1923.00,0.3080
1922.00,0.3083
1921.00,0.3087
1920.00,0.3090
1919.00,0.3092
1918.00,0.3093
1917.00,0.3094
1916.00,0.3095
1915.00,0.3096
1914.00,0.3096
1913.00,0.3096
1912.00,0.3095
1911.00,0.3094
1910.00,0.3094
1909.00,0.3095
1908.00,0.3096
1907.00,0.3098
1906.00,0.3098
1905.00,0.3099
1904.00,0.3099
1903.00,0.3099
1902.00,0.3099
1901.00,0.3099
1900.00,0.3100
1899.00,0.3100
1898.00,0.3101
1897.00,0.3102
1896.00,0.3103
1895.00,0.3103
1894.00,0.3104
1893.00,0.3106
1892.00,0.3107
1891.00,0.3109
1890.00,0.3110
1889.00,0.3111
1888.00,0.3112
1887.00,0.3113
1886.00,0.3114
1885.00,0.3115
1884.00,0.3114
1883.00,0.3114
1882.00,0.3112
1881.00,0.3111
1880.00,0.3109
1879.00,0.3106
1878.00,0.3104
1877.00,0.3102
1876.00,0.3100
1875.00,0.3098
1874.00,0.3094
1873.00,0.3091
1872.00,0.3088
1871.00,0.3085
1870.00,0.3083
1869.00,0.3081
1868.00,0.3080
1867.00,0.3079
1866.00,0.3078
1865.00,0.3076
1864.00,0.3072
1863.00,0.3068
1862.00,0.3064
1861.00,0.3060
1860.00,0.3058
1859.00,0.3055
1858.00,0.3053
1857.00,0.3051
1856.00,0.3049
1855.00,0.3047
1854.00,0.3045
1853.00,0.3043
1852.00,0.3040
1851.00,0.3038
1850.00,0.3036
1849.00,0.3034
1848.00,0.3033
1847.00,0.3032
1846.00,0.3032
1845.00,0.3030
1844.00,0.3024
1843.00,0.3024
1842.00,0.3022
1841.00,0.3021
1840.00,0.3019
1839.00,0.3017
1838.00,0.3016
1837.00,0.3017
1836.00,0.3015
1835.00,0.3014
1834.00,0.3013
1833.00,0.3012
1832.00,0.3011
1831.00,0.3011
1830.00,0.3010
1829.00,0.3010
1828.00,0.3010
1827.00,0.3012
1826.00,0.3013
1825.00,0.3015
1824.00,0.3016
1823.00,0.3016
1822.00,0.3017
1821.00,0.3017
1820.00,0.3017
1819.00,0.3017
1818.00,0.3016
1817.00,0.3017
1816.00,0.3019
1815.00,0.3020
1814.00,0.3021
1813.00,0.3022
1812.00,0.3023
1811.00,0.3024
1810.00,0.3026
1809.00,0.3028
1808.00,0.3032
1807.00,0.3036
1806.00,0.3041
1805.00,0.3046
1804.00,0.3051
1803.00,0.3057
1802.00,0.3063
1801.00,0.3071
1800.00,0.3079
1799.00,0.3084
1798.00,0.3088
1797.00,0.3091
1796.00,0.3095
1795.00,0.3099
1794.00,0.3103
1793.00,0.3108
1792.00,0.3114
1791.00,0.3120
1790.00,0.3126
1789.00,0.3132
1788.00,0.3136
1787.00,0.3137
1786.00,0.3137
1785.00,0.3139
1784.00,0.3142
1783.00,0.3146
1782.00,0.3150
1781.00,0.3152
1780.00,0.3154
1779.00,0.3155
1778.00,0.3158
1777.00,0.3161
1776.00,0.3164
1775.00,0.3165
1774.00,0.3167
1773.00,0.3173
1772.00,0.3181
1771.00,0.3188
1770.00,0.3193
1769.00,0.3198
1768.00,0.3204
1767.00,0.3210
1766.00,0.3215
1765.00,0.3219
1764.00,0.3223
1763.00,0.3226
1762.00,0.3232
1761.00,0.3240
1760.00,0.3251
1759.00,0.3263
1758.00,0.3274
1757.00,0.3287
1756.00,0.3301
1755.00,0.3316
1754.00,0.3335
1753.00,0.3358
1752.00,0.3390
1751.00,0.3432
1750.00,0.3484
1749.00,0.3545
1748.00,0.3612
1747.00,0.3682
1746.00,0.3755
1745.00,0.3832
1744.00,0.3908
1743.00,0.3975
1742.00,0.4024
1741.00,0.4053
1740.00,0.4058
1739.00,0.4037
1738.00,0.4000
1737.00,0.3956
1736.00,0.3905
1735.00,0.3841
1734.00,0.3772
1733.00,0.3716
1732.00,0.3678
1731.00,0.3649
1730.00,0.3618
1729.00,0.3585
1728.00,0.3558
1727.00,0.3540
1726.00,0.3531
1725.00,0.3528
1724.00,0.3530
1723.00,0.3535
1722.00,0.3543
1721.00,0.3554
1720.00,0.3566
1719.00,0.3580
1718.00,0.3600
1717.00,0.3628
1716.00,0.3661
1715.00,0.3693
1714.00,0.3719
1713.00,0.3737
1712.00,0.3751
1711.00,0.3766
1710.00,0.3780
1709.00,0.3792
1708.00,0.3800
1707.00,0.3801
1706.00,0.3796
1705.00,0.3784
1704.00,0.3768
1703.00,0.3751
1702.00,0.3732
1701.00,0.3706
1700.00,0.3677
1699.00,0.3650
1698.00,0.3634
1697.00,0.3627
1696.00,0.3619
1695.00,0.3607
1694.00,0.3596
1693.00,0.3586
1692.00,0.3572
1691.00,0.3553
1690.00,0.3536
1689.00,0.3526
1688.00,0.3522
1687.00,0.3521
1686.00,0.3521
1685.00,0.3525
1684.00,0.3531
1683.00,0.3534
1682.00,0.3534
1681.00,0.3532
1680.00,0.3527
1679.00,0.3521
1678.00,0.3517
1677.00,0.3517
1676.00,0.3519
1675.00,0.3523
1674.00,0.3527
1673.00,0.3535
1672.00,0.3545
1671.00,0.3553
1670.00,0.3560
1669.00,0.3570
1668.00,0.3582
1667.00,0.3597
1666.00,0.3612
1665.00,0.3626
1664.00,0.3641
1663.00,0.3656
1662.00,0.3674
1661.00,0.3696
1660.00,0.3721
1659.00,0.3746
1658.00,0.3771
1657.00,0.3795
1656.00,0.3819
1655.00,0.3845
1654.00,0.3884
1653.00,0.3937
1652.00,0.3989
1651.00,0.4031
1650.00,0.4065
1649.00,0.4088
1648.00,0.4102
1647.00,0.4122
1646.00,0.4156
1645.00,0.4199
1644.00,0.4243
1643.00,0.4282
1642.00,0.4314
1641.00,0.4345
1640.00,0.4377
1639.00,0.4409
1638.00,0.4442
1637.00,0.4481
1636.00,0.4526
1635.00,0.4571
1634.00,0.4613
1633.00,0.4653
1632.00,0.4692
1631.00,0.4727
1630.00,0.4762
1629.00,0.4802
1628.00,0.4847
1627.00,0.4891
1626.00,0.4936
1625.00,0.4988
1624.00,0.5048
1623.00,0.5112
1622.00,0.5180
1621.00,0.5253
1620.00,0.5331
1619.00,0.5414
1618.00,0.5514
1617.00,0.5642
1616.00,0.5792
1615.00,0.5945
1614.00,0.6097
1613.00,0.6258
1612.00,0.6439
1611.00,0.6635
1610.00,0.6836
1609.00,0.7030
1608.00,0.7200
1607.00,0.7329
1606.00,0.7420
1605.00,0.7498
1604.00,0.7580
1603.00,0.7675
1602.00,0.7796
1601.00,0.7957
1600.00,0.8169
1599.00,0.8428
1598.00,0.8741
1597.00,0.9131
1596.00,0.9617
1595.00,1.0207
1594.00,1.0914
1593.00,1.1777
1592.00,1.2837
1591.00,1.4112
1590.00,1.5621
1589.00,1.7452
1588.00,1.9727
1587.00,2.2457
1586.00,2.5438
1585.00,2.8817
1584.00,3.3810
1583.00,4.0516
1582.00,3.8431
1581.00,4.0577
1580.00,4.0002
1579.00,3.8293
1578.00,3.7772
1577.00,3.1847
1576.00,2.8347
1575.00,2.4848
1574.00,2.1908
1573.00,1.9798
1572.00,1.8170
1571.00,1.6854
1570.00,1.5881
1569.00,1.5382
1568.00,1.5377
1567.00,1.5801
1566.00,1.6633
1565.00,1.7944
1564.00,1.9767
1563.00,2.1903
1562.00,2.3910
1561.00,2.5514
1560.00,2.5969
1559.00,2.3782
1558.00,2.0901
1557.00,1.8677
1556.00,1.6816
1555.00,1.5066
1554.00,1.3529
1553.00,1.2333
1552.00,1.1447
1551.00,1.0756
1550.00,1.0202
1549.00,0.9792
1548.00,0.9518
1547.00,0.9340
1546.00,0.9225
1545.00,0.9166
1544.00,0.9153
1543.00,0.9160
1542.00,0.9161
1541.00,0.9144
1540.00,0.9097
1539.00,0.9013
1538.00,0.8912
1537.00,0.8810
1536.00,0.8696
1535.00,0.8552
1534.00,0.8381
1533.00,0.8219
1532.00,0.8093
1531.00,0.8001
1530.00,0.7933
1529.00,0.7882
1528.00,0.7839
1527.00,0.7789
1526.00,0.7732
1525.00,0.7682
1524.00,0.7648
1523.00,0.7633
1522.00,0.7651
1521.00,0.7714
1520.00,0.7811
1519.00,0.7910
1518.00,0.7996
1517.00,0.8060
1516.00,0.8080
1515.00,0.8032
1514.00,0.7909
1513.00,0.7726
1512.00,0.7505
1511.00,0.7278
1510.00,0.7073
1509.00,0.6904
1508.00,0.6770
1507.00,0.6669
1506.00,0.6608
1505.00,0.6587
1504.00,0.6589
1503.00,0.6600
1502.00,0.6614
1501.00,0.6638
1500.00,0.6679
1499.00,0.6735
1498.00,0.6807
1497.00,0.6907
1496.00,0.7032
1495.00,0.7165
1494.00,0.7293
1493.00,0.7424
1492.00,0.7568
1491.00,0.7728
1490.00,0.7903
1489.00,0.8092
1488.00,0.8292
1487.00,0.8501
1486.00,0.8727
1485.00,0.8988
1484.00,0.9286
1483.00,0.9623
1482.00,1.0013
1481.00,1.0473
1480.00,1.1002
1479.00,1.1600
1478.00,1.2297
1477.00,1.3144
1476.00,1.4159
1475.00,1.5345
1474.00,1.6782
1473.00,1.8653
1472.00,2.1095
1471.00,2.4025
1470.00,2.7241
1469.00,3.0768
1468.00,3.4404
1467.00,3.6201
1466.00,3.6569
1465.00,3.8194
1464.00,4.2999
1463.00,4.5806
1462.00,4.1800
1461.00,4.1239
1460.00,4.2911
1459.00,4.0869
1458.00,3.9664
1457.00,4.1784
1456.00,3.9944
1455.00,4.0795
1454.00,4.1954
1453.00,4.0165
1452.00,3.9416
1451.00,3.7028
1450.00,3.5938
1449.00,3.7143
1448.00,3.9947
1447.00,4.0329
1446.00,3.9363
1445.00,4.0244
1444.00,3.8383
1443.00,3.4018
1442.00,3.1059
1441.00,2.9128
1440.00,2.7450
1439.00,2.5692
1438.00,2.3892
1437.00,2.2117
1436.00,2.0447
1435.00,1.8980
1434.00,1.7711
1433.00,1.6549
1432.00,1.5437
1431.00,1.4392
1430.00,1.3461
1429.00,1.2671
1428.00,1.2030
1427.00,1.1524
1426.00,1.1126
1425.00,1.0812
1424.00,1.0573
1423.00,1.0410
1422.00,1.0310
1421.00,1.0263
1420.00,1.0273
1419.00,1.0346
1418.00,1.0480
1417.00,1.0663
1416.00,1.0891
1415.00,1.1162
1414.00,1.1456
1413.00,1.1744
1412.00,1.1978
1411.00,1.2109
1410.00,1.2102
1409.00,1.1962
1408.00,1.1711
1407.00,1.1375
1406.00,1.0976
1405.00,1.0539
1404.00,1.0100
1403.00,0.9692
1402.00,0.9328
1401.00,0.9004
1400.00,0.8719
1399.00,0.8484
1398.00,0.8307
1397.00,0.8186
1396.00,0.8105
1395.00,0.8051
1394.00,0.8019
1393.00,0.8017
1392.00,0.8067
1391.00,0.8187
1390.00,0.8400
1389.00,0.8735
1388.00,0.9229
1387.00,0.9896
1386.00,1.0702
1385.00,1.1599
1384.00,1.2581
1383.00,1.3681
1382.00,1.4939
1381.00,1.6392
1380.00,1.8053
1379.00,1.9788
1378.00,2.1143
1377.00,2.1537
1376.00,2.0876
1375.00,1.9556
1374.00,1.8044
1373.00,1.6670
1372.00,1.5563
1371.00,1.4723
1370.00,1.4124
1369.00,1.3747
1368.00,1.3546
1367.00,1.3409
1366.00,1.3189
1365.00,1.2783
1364.00,1.2193
1363.00,1.1516
1362.00,1.0871
1361.00,1.0334
1360.00,0.9918
1359.00,0.9605
1358.00,0.9373
1357.00,0.9210
1356.00,0.9108
1355.00,0.9058
1354.00,0.9044
1353.00,0.9053
1352.00,0.9074
1351.00,0.9104
1350.00,0.9152
1349.00,0.9233
1348.00,0.9365
1347.00,0.9546
1346.00,0.9741
1345.00,0.9885
1344.00,0.9909
1343.00,0.9789
1342.00,0.9557
1341.00,0.9268
1340.00,0.8971
1339.00,0.8687
1338.00,0.8424
1337.00,0.8182
1336.00,0.7962
1335.00,0.7765
1334.00,0.7593
1333.00,0.7449
1332.00,0.7335
1331.00,0.7249
1330.00,0.7190
1329.00,0.7157
1328.00,0.7146
1327.00,0.7154
1326.00,0.7172
1325.00,0.7193
1324.00,0.7214
1323.00,0.7235
1322.00,0.7260
1321.00,0.7290
1320.00,0.7328
1319.00,0.7374
1318.00,0.7424
1317.00,0.7475
1316.00,0.7527
1315.00,0.7582
1314.00,0.7640
1313.00,0.7701
1312.00,0.7767
1311.00,0.7836
1310.00,0.7904
1309.00,0.7968
1308.00,0.8020
1307.00,0.8054
1306.00,0.8064
1305.00,0.8053
1304.00,0.8030
1303.00,0.8005
1302.00,0.7986
1301.00,0.7976
1300.00,0.7972
1299.00,0.7967
1298.00,0.7948
1297.00,0.7911
1296.00,0.7859
1295.00,0.7798
1294.00,0.7735
1293.00,0.7668
1292.00,0.7594
1291.00,0.7507
1290.00,0.7404
1289.00,0.7289
1288.00,0.7174
1287.00,0.7066
1286.00,0.6971
1285.00,0.6892
1284.00,0.6834
1283.00,0.6803
1282.00,0.6806
1281.00,0.6841
1280.00,0.6897
1279.00,0.6948
1278.00,0.6960
1277.00,0.6909
1276.00,0.6804
1275.00,0.6672
1274.00,0.6545
1273.00,0.6440
1272.00,0.6363
1271.00,0.6309
1270.00,0.6272
1269.00,0.6242
1268.00,0.6212
1267.00,0.6179
1266.00,0.6141
1265.00,0.6105
1264.00,0.6075
1263.00,0.6052
1262.00,0.6036
1261.00,0.6024
1260.00,0.6017
1259.00,0.6018
1258.00,0.6027
1257.00,0.6042
1256.00,0.6061
1255.00,0.6085
1254.00,0.6113
1253.00,0.6139
1252.00,0.6157
1251.00,0.6160
1250.00,0.6146
1249.00,0.6117
1248.00,0.6081
1247.00,0.6044
1246.00,0.6007
1245.00,0.5974
1244.00,0.5946
1243.00,0.5926
1242.00,0.5908
1241.00,0.5884
1240.00,0.5852
1239.00,0.5821
1238.00,0.5801
1237.00,0.5806
1236.00,0.5840
1235.00,0.5903
1234.00,0.5985
1233.00,0.6074
1232.00,0.6160
1231.00,0.6227
1230.00,0.6264
1229.00,0.6258
1228.00,0.6208
1227.00,0.6119
1226.00,0.6007
1225.00,0.5888
1224.00,0.5773
1223.00,0.5671
1222.00,0.5584
1221.00,0.5513
1220.00,0.5457
1219.00,0.5418
1218.00,0.5392
1217.00,0.5379
1216.00,0.5377
1215.00,0.5381
1214.00,0.5389
1213.00,0.5395
1212.00,0.5394
1211.00,0.5385
1210.00,0.5366
1209.00,0.5336
1208.00,0.5298
1207.00,0.5259
1206.00,0.5223
1205.00,0.5197
1204.00,0.5188
1203.00,0.5201
1202.00,0.5238
1201.00,0.5289
1200.00,0.5336
1199.00,0.5361
1198.00,0.5356
1197.00,0.5330
1196.00,0.5304
1195.00,0.5294
1194.00,0.5307
1193.00,0.5339
1192.00,0.5382
1191.00,0.5423
1190.00,0.5446
1189.00,0.5439
1188.00,0.5406
1187.00,0.5357
1186.00,0.5305
1185.00,0.5258
1184.00,0.5219
1183.00,0.5188
1182.00,0.5164
1181.00,0.5145
1180.00,0.5129
1179.00,0.5118
1178.00,0.5114
1177.00,0.5115
1176.00,0.5124
1175.00,0.5143
1174.00,0.5171
1173.00,0.5207
1172.00,0.5248
1171.00,0.5290
1170.00,0.5324
1169.00,0.5348
1168.00,0.5360
1167.00,0.5367
1166.00,0.5371
1165.00,0.5376
1164.00,0.5384
1163.00,0.5395
1162.00,0.5410
1161.00,0.5426
1160.00,0.5439
1159.00,0.5450
1158.00,0.5456
1157.00,0.5459
1156.00,0.5461
1155.00,0.5462
1154.00,0.5463
1153.00,0.5461
1152.00,0.5454
1151.00,0.5442
1150.00,0.5426
1149.00,0.5405
1148.00,0.5383
1147.00,0.5360
1146.00,0.5338
1145.00,0.5317
1144.00,0.5301
1143.00,0.5291
1142.00,0.5288
1141.00,0.5295
1140.00,0.5313
1139.00,0.5344
1138.00,0.5389
1137.00,0.5446
1136.00,0.5512
1135.00,0.5580
1134.00,0.5635
1133.00,0.5658
1132.00,0.5640
1131.00,0.5586
1130.00,0.5515
1129.00,0.5452
1128.00,0.5420
1127.00,0.5426
1126.00,0.5455
1125.00,0.5480
1124.00,0.5475
1123.00,0.5434
1122.00,0.5370
1121.00,0.5304
1120.00,0.5256
1119.00,0.5235
1118.00,0.5241
1117.00,0.5269
1116.00,0.5308
1115.00,0.5340
1114.00,0.5344
1113.00,0.5309
1112.00,0.5239
1111.00,0.5149
1110.00,0.5060
1109.00,0.4985
1108.00,0.4931
1107.00,0.4902
1106.00,0.4898
1105.00,0.4916
1104.00,0.4956
1103.00,0.5015
1102.00,0.5090
1101.00,0.5171
1100.00,0.5243
1099.00,0.5283
1098.00,0.5276
1097.00,0.5224
1096.00,0.5150
1095.00,0.5077
1094.00,0.5019
1093.00,0.4978
1092.00,0.4949
1091.00,0.4927
1090.00,0.4909
1089.00,0.4897
1088.00,0.4892
1087.00,0.4898
1086.00,0.4917
1085.00,0.4948
1084.00,0.4994
1083.00,0.5054
1082.00,0.5122
1081.00,0.5193
1080.00,0.5259
1079.00,0.5315
1078.00,0.5352
1077.00,0.5364
1076.00,0.5347
1075.00,0.5304
1074.00,0.5241
1073.00,0.5167
1072.00,0.5092
1071.00,0.5025
1070.00,0.4969
1069.00,0.4923
1068.00,0.4883
1067.00,0.4849
1066.00,0.4820
1065.00,0.4795
1064.00,0.4774
1063.00,0.4759
1062.00,0.4748
1061.00,0.4736
1060.00,0.4722
1059.00,0.4704
1058.00,0.4682
1057.00,0.4657
1056.00,0.4630
1055.00,0.4603
1054.00,0.4577
1053.00,0.4552
1052.00,0.4527
1051.00,0.4505
1050.00,0.4486
1049.00,0.4473
1048.00,0.4466
1047.00,0.4465
1046.00,0.4467
1045.00,0.4468
1044.00,0.4467
1043.00,0.4465
1042.00,0.4466
1041.00,0.4470
1040.00,0.4475
1039.00,0.4481
1038.00,0.4487
1037.00,0.4494
1036.00,0.4504
1035.00,0.4522
1034.00,0.4547
1033.00,0.4578
1032.00,0.4616
1031.00,0.4657
1030.00,0.4695
1029.00,0.4723
1028.00,0.4737
1027.00,0.4731
1026.00,0.4703
1025.00,0.4656
1024.00,0.4596
1023.00,0.4533
1022.00,0.4474
1021.00,0.4424
1020.00,0.4387
1019.00,0.4363
1018.00,0.4349
1017.00,0.4341
1016.00,0.4336
1015.00,0.4332
1014.00,0.4328
1013.00,0.4320
1012.00,0.4308
1011.00,0.4296
1010.00,0.4287
1009.00,0.4284
1008.00,0.4289
1007.00,0.4300
1006.00,0.4312
1005.00,0.4322
1004.00,0.4328
1003.00,0.4334
1002.00,0.4339
1001.00,0.4345
1000.00,0.4350
999.00,0.4354
998.00,0.4356
997.00,0.4353
996.00,0.4345
995.00,0.4334
994.00,0.4323
993.00,0.4312
992.00,0.4302
991.00,0.4296
990.00,0.4291
989.00,0.4287
988.00,0.4281
987.00,0.4272
986.00,0.4260
985.00,0.4250
984.00,0.4250
983.00,0.4266
982.00,0.4298
981.00,0.4345
980.00,0.4408
979.00,0.4489
978.00,0.4595
977.00,0.4730
976.00,0.4904
975.00,0.5125
974.00,0.5396
973.00,0.5725
972.00,0.6113
971.00,0.6551
970.00,0.7009
969.00,0.7430
968.00,0.7737
967.00,0.7861
966.00,0.7774
965.00,0.7508
964.00,0.7138
963.00,0.6738
962.00,0.6364
961.00,0.6053
960.00,0.5829
959.00,0.5701
958.00,0.5659
957.00,0.5674
956.00,0.5706
955.00,0.5717
954.00,0.5683
953.00,0.5601
952.00,0.5483
951.00,0.5348
950.00,0.5214
949.00,0.5094
948.00,0.4997
947.00,0.4925
946.00,0.4881
945.00,0.4860
944.00,0.4857
943.00,0.4868
942.00,0.4885
941.00,0.4903
940.00,0.4916
939.00,0.4920
938.00,0.4912
937.00,0.4892
936.00,0.4864
935.00,0.4831
934.00,0.4795
933.00,0.4754
932.00,0.4711
931.00,0.4669
930.00,0.4630
929.00,0.4594
928.00,0.4565
927.00,0.4548
926.00,0.4546
925.00,0.4562
924.00,0.4597
923.00,0.4644
922.00,0.4694
921.00,0.4727
920.00,0.4728
919.00,0.4690
918.00,0.4621
917.00,0.4534
916.00,0.4446
915.00,0.4366
914.00,0.4299
913.00,0.4246
912.00,0.4208
911.00,0.4183
910.00,0.4170
909.00,0.4167
908.00,0.4175
907.00,0.4198
906.00,0.4236
905.00,0.4283
904.00,0.4324
903.00,0.4343
902.00,0.4333
901.00,0.4303
900.00,0.4270
899.00,0.4251
898.00,0.4248
897.00,0.4259
896.00,0.4279
895.00,0.4308
894.00,0.4345
893.00,0.4388
892.00,0.4434
891.00,0.4479
890.00,0.4517
889.00,0.4539
888.00,0.4539
887.00,0.4518
886.00,0.4481
885.00,0.4437
884.00,0.4394
883.00,0.4359
882.00,0.4333
881.00,0.4316
880.00,0.4308
879.00,0.4306
878.00,0.4307
877.00,0.4309
876.00,0.4315
875.00,0.4323
874.00,0.4333
873.00,0.4340
872.00,0.4344
871.00,0.4347
870.00,0.4349
869.00,0.4352
868.00,0.4360
867.00,0.4379
866.00,0.4411
865.00,0.4453
864.00,0.4499
863.00,0.4541
862.00,0.4563
861.00,0.4555
860.00,0.4514
859.00,0.4449
858.00,0.4377
857.00,0.4309
856.00,0.4254
855.00,0.4215
854.00,0.4190
853.00,0.4173
852.00,0.4160
851.00,0.4150
850.00,0.4142
849.00,0.4134
848.00,0.4125
847.00,0.4116
846.00,0.4108
845.00,0.4101
844.00,0.4096
843.00,0.4098
842.00,0.4112
841.00,0.4146
840.00,0.4204
839.00,0.4287
838.00,0.4387
837.00,0.4483
836.00,0.4549
835.00,0.4566
834.00,0.4536
833.00,0.4478
832.00,0.4420
831.00,0.4387
830.00,0.4389
829.00,0.4425
828.00,0.4482
827.00,0.4549
826.00,0.4619
825.00,0.4690
824.00,0.4763
823.00,0.4835
822.00,0.4894
821.00,0.4930
820.00,0.4934
819.00,0.4909
818.00,0.4863
817.00,0.4806
816.00,0.4747
815.00,0.4693
814.00,0.4645
813.00,0.4596
812.00,0.4544
811.00,0.4489
810.00,0.4436
809.00,0.4386
808.00,0.4340
807.00,0.4297
806.00,0.4254
805.00,0.4212
804.00,0.4170
803.00,0.4131
802.00,0.4095
801.00,0.4065
800.00,0.4044
799.00,0.4033
798.00,0.4029
797.00,0.4027
796.00,0.4024
795.00,0.4022
794.00,0.4022
793.00,0.4025
792.00,0.4031
791.00,0.4039
790.00,0.4051
789.00,0.4064
788.00,0.4078
787.00,0.4097
786.00,0.4124
785.00,0.4161
784.00,0.4210
783.00,0.4272
782.00,0.4347
781.00,0.4437
780.00,0.4542
779.00,0.4647
778.00,0.4730
777.00,0.4765
776.00,0.4743
775.00,0.4682
774.00,0.4612
773.00,0.4558
772.00,0.4532
771.00,0.4533
770.00,0.4552
769.00,0.4578
768.00,0.4605
767.00,0.4628
766.00,0.4645
765.00,0.4656
764.00,0.4665
763.00,0.4678
762.00,0.4702
761.00,0.4738
760.00,0.4781
759.00,0.4824
758.00,0.4859
757.00,0.4885
756.00,0.4907
755.00,0.4934
754.00,0.4971
753.00,0.5019
752.00,0.5072
751.00,0.5128
750.00,0.5182
749.00,0.5233
748.00,0.5283
747.00,0.5336
746.00,0.5396
745.00,0.5464
744.00,0.5540
743.00,0.5623
742.00,0.5713
741.00,0.5809
740.00,0.5913
739.00,0.6023
738.00,0.6137
737.00,0.6254
736.00,0.6375
735.00,0.6503
734.00,0.6640
733.00,0.6782
732.00,0.6931
731.00,0.7098
730.00,0.7298
729.00,0.7541
728.00,0.7836
727.00,0.8194
726.00,0.8629
725.00,0.9142
724.00,0.9694
723.00,1.0184
722.00,1.0461
721.00,1.0394
720.00,0.9993
719.00,0.9404
718.00,0.8784
717.00,0.8221
716.00,0.7753
715.00,0.7386
714.00,0.7108
713.00,0.6891
712.00,0.6707
711.00,0.6539
710.00,0.6376
709.00,0.6212
708.00,0.6047
707.00,0.5884
706.00,0.5731
705.00,0.5585
704.00,0.5445
703.00,0.5316
702.00,0.5202
701.00,0.5103
700.00,0.5009
699.00,0.4908
698.00,0.4792
697.00,0.4661
696.00,0.4527
695.00,0.4404
694.00,0.4301
693.00,0.4217
692.00,0.4145
691.00,0.4085
690.00,0.4033
689.00,0.3990
688.00,0.3954
687.00,0.3923
686.00,0.3895
685.00,0.3868
684.00,0.3842
683.00,0.3822
682.00,0.3806
681.00,0.3794
680.00,0.3784
679.00,0.3775
678.00,0.3770
677.00,0.3766
676.00,0.3763
675.00,0.3760
674.00,0.3757
673.00,0.3754
672.00,0.3754
671.00,0.3755
670.00,0.3756
669.00,0.3757
668.00,0.3760
667.00,0.3764
666.00,0.3770
665.00,0.3779
664.00,0.3786
663.00,0.3791
662.00,0.3797
661.00,0.3805
660.00,0.3815
659.00,0.3824
658.00,0.3831
657.00,0.3839
656.00,0.3847
655.00,0.3856
654.00,0.3866
653.00,0.3877
652.00,0.3888
651.00,0.3901
650.00,0.3914
649.00,0.3926
648.00,0.3939
647.00,0.3952
646.00,0.3968
645.00,0.3988
644.00,0.4014
643.00,0.4044
642.00,0.4076
641.00,0.4107
640.00,0.4137
639.00,0.4165
638.00,0.4189
637.00,0.4209
636.00,0.4226
635.00,0.4242
634.00,0.4259
633.00,0.4278
632.00,0.4299
631.00,0.4324
630.00,0.4352
629.00,0.4381
628.00,0.4410
627.00,0.4440
626.00,0.4471
625.00,0.4502
624.00,0.4533
623.00,0.4561
622.00,0.4583
621.00,0.4599
620.00,0.4610
619.00,0.4616
618.00,0.4618
617.00,0.4619
616.00,0.4620
615.00,0.4620
614.00,0.4616
613.00,0.4606
612.00,0.4592
611.00,0.4578
610.00,0.4568
609.00,0.4564
608.00,0.4567
607.00,0.4576
606.00,0.4584
605.00,0.4587
604.00,0.4583
603.00,0.4574
602.00,0.4561
601.00,0.4546
600.00,0.4531
599.00,0.4517
598.00,0.4506
597.00,0.4496
596.00,0.4486
595.00,0.4478
594.00,0.4475
593.00,0.4476
592.00,0.4480
591.00,0.4487
590.00,0.4496
589.00,0.4506
588.00,0.4520
587.00,0.4541
586.00,0.4569
585.00,0.4600
584.00,0.4632
583.00,0.4665
582.00,0.4695
581.00,0.4719
580.00,0.4736
579.00,0.4748
578.00,0.4761
577.00,0.4780
576.00,0.4806
575.00,0.4835
574.00,0.4864
573.00,0.4885
572.00,0.4902
571.00,0.4919
570.00,0.4945
569.00,0.4978
568.00,0.5016
567.00,0.5055
566.00,0.5090
565.00,0.5121
564.00,0.5150
563.00,0.5180
562.00,0.5210
561.00,0.5240
560.00,0.5271
559.00,0.5311
558.00,0.5362
557.00,0.5418
556.00,0.5473
555.00,0.5524
554.00,0.5571
553.00,0.5613
552.00,0.5648
551.00,0.5677
550.00,0.5703
