Created as New Dataset,
cm-1,A
4000.00,0.5109
3999.00,0.5106
3998.00,0.5103
3997.00,0.5100
3996.00,0.5097
3995.00,0.5094
3994.00,0.5090
3993.00,0.5085
3992.00,0.5081
3991.00,0.5078
3990.00,0.5074
3989.00,0.5069
3988.00,0.5065
3987.00,0.5061
3986.00,0.5057
3985.00,0.5053
3984.00,0.5050
3983.00,0.5045
3982.00,0.5041
3981.00,0.5036
3980.00,0.5031
3979.00,0.5026
3978.00,0.5022
3977.00,0.5019
3976.00,0.5016
3975.00,0.5013
3974.00,0.5011
3973.00,0.5009
3972.00,0.5006
3971.00,0.5004
3970.00,0.5001
3969.00,0.4998
3968.00,0.4996
3967.00,0.4995
3966.00,0.4993
3965.00,0.4990
3964.00,0.4987
3963.00,0.4984
3962.00,0.4981
3961.00,0.4977
3960.00,0.4974
3959.00,0.4970
3958.00,0.4968
3957.00,0.4966
3956.00,0.4964
3955.00,0.4963
3954.00,0.4961
3953.00,0.4958
3952.00,0.4956
3951.00,0.4954
3950.00,0.4953
3949.00,0.4951
3948.00,0.4949
3947.00,0.4946
3946.00,0.4943
3945.00,0.4939
3944.00,0.4937
3943.00,0.4935
3942.00,0.4933
3941.00,0.4931
3940.00,0.4930
3939.00,0.4930
3938.00,0.4931
3937.00,0.4931
3936.00,0.4930
3935.00,0.4929
3934.00,0.4928
3933.00,0.4927
3932.00,0.4925
3931.00,0.4924
3930.00,0.4923
3929.00,0.4923
3928.00,0.4922
3927.00,0.4922
3926.00,0.4922
3925.00,0.4921
3924.00,0.4920
3923.00,0.4918
3922.00,0.4917
3921.00,0.4916
3920.00,0.4915
3919.00,0.4914
3918.00,0.4914
3917.00,0.4914
3916.00,0.4913
3915.00,0.4912
3914.00,0.4911
3913.00,0.4910
3912.00,0.4911
3911.00,0.4911
3910.00,0.4910
3909.00,0.4909
3908.00,0.4908
3907.00,0.4905
3906.00,0.4901
3905.00,0.4897
3904.00,0.4893
3903.00,0.4889
3902.00,0.4887
3901.00,0.4887
3900.00,0.4888
3899.00,0.4889
3898.00,0.4889
3897.00,0.4889
3896.00,0.4889
3895.00,0.4889
3894.00,0.4888
3893.00,0.4887
3892.00,0.4886
3891.00,0.4885
3890.00,0.4882
3889.00,0.4879
3888.00,0.4876
3887.00,0.4874
3886.00,0.4874
3885.00,0.4872
3884.00,0.4870
3883.00,0.4869
3882.00,0.4870
3881.00,0.4870
3880.00,0.4869
3879.00,0.4868
3878.00,0.4868
3877.00,0.4870
3876.00,0.4871
3875.00,0.4869
3874.00,0.4865
3873.00,0.4859
3872.00,0.4856
3871.00,0.4854
3870.00,0.4853
3869.00,0.4851
3868.00,0.4847
3867.00,0.4844
3866.00,0.4845
3865.00,0.4845
3864.00,0.4843
3863.00,0.4842
3862.00,0.4842
3861.00,0.4844
3860.00,0.4845
3859.00,0.4843
3858.00,0.4839
3857.00,0.4832
3856.00,0.4823
3855.00,0.4815
3854.00,0.4810
3853.00,0.4808
3852.00,0.4806
3851.00,0.4804
3850.00,0.4805
3849.00,0.4810
3848.00,0.4814
3847.00,0.4817
3846.00,0.4821
3845.00,0.4825
3844.00,0.4827
3843.00,0.4826
3842.00,0.4823
3841.00,0.4819
3840.00,0.4815
3839.00,0.4812
3838.00,0.4809
3837.00,0.4806
3836.00,0.4804
3835.00,0.4803
3834.00,0.4803
3833.00,0.4804
3832.00,0.4806
3831.00,0.4808
3830.00,0.4809
3829.00,0.4810
3828.00,0.4811
3827.00,0.4812
3826.00,0.4810
3825.00,0.4806
3824.00,0.4802
3823.00,0.4799
3822.00,0.4797
3821.00,0.4793
3820.00,0.4788
3819.00,0.4783
3818.00,0.4781
3817.00,0.4782
3816.00,0.4781
3815.00,0.4779
3814.00,0.4777
3813.00,0.4778
3812.00,0.4780
3811.00,0.4780
3810.00,0.4777
3809.00,0.4774
3808.00,0.4773
3807.00,0.4772
3806.00,0.4769
3805.00,0.4764
3804.00,0.4760
3803.00,0.4758
3802.00,0.4757
3801.00,0.4754
3800.00,0.4751
3799.00,0.4749
3798.00,0.4751
3797.00,0.4753
3796.00,0.4753
3795.00,0.4753
3794.00,0.4754
3793.00,0.4756
3792.00,0.4756
3791.00,0.4755
3790.00,0.4753
3789.00,0.4751
3788.00,0.4749
3787.00,0.4747
3786.00,0.4744
3785.00,0.4741
3784.00,0.4738
3783.00,0.4735
3782.00,0.4732
3781.00,0.4730
3780.00,0.4728
3779.00,0.4726
3778.00,0.4724
3777.00,0.4722
3776.00,0.4722
3775.00,0.4722
3774.00,0.4720
3773.00,0.4718
3772.00,0.4715
3771.00,0.4713
3770.00,0.4710
3769.00,0.4707
3768.00,0.4705
3767.00,0.4704
3766.00,0.4704
3765.00,0.4704
3764.00,0.4701
3763.00,0.4698
3762.00,0.4697
3761.00,0.4696
3760.00,0.4694
3759.00,0.4691
3758.00,0.4689
3757.00,0.4687
3756.00,0.4683
3755.00,0.4678
3754.00,0.4672
3753.00,0.4664
3752.00,0.4658
3751.00,0.4652
3750.00,0.4648
3749.00,0.4643
3748.00,0.4637
3747.00,0.4632
3746.00,0.4629
3745.00,0.4630
3744.00,0.4631
3743.00,0.4631
3742.00,0.4632
3741.00,0.4635
3740.00,0.4639
3739.00,0.4639
3738.00,0.4637
3737.00,0.4637
3736.00,0.4637
3735.00,0.4637
3734.00,0.4635
3733.00,0.4634
3732.00,0.4635
3731.00,0.4634
3730.00,0.4633
3729.00,0.4634
3728.00,0.4636
3727.00,0.4638
3726.00,0.4638
3725.00,0.4637
3724.00,0.4635
3723.00,0.4634
3722.00,0.4633
3721.00,0.4632
3720.00,0.4631
3719.00,0.4631
3718.00,0.4630
3717.00,0.4629
3716.00,0.4627
3715.00,0.4624
3714.00,0.4621
3713.00,0.4617
3712.00,0.4614
3711.00,0.4611
3710.00,0.4610
3709.00,0.4610
3708.00,0.4612
3707.00,0.4614
3706.00,0.4616
3705.00,0.4618
3704.00,0.4620
3703.00,0.4621
3702.00,0.4622
3701.00,0.4622
3700.00,0.4623
3699.00,0.4623
3698.00,0.4624
3697.00,0.4626
3696.00,0.4626
3695.00,0.4625
3694.00,0.4625
3693.00,0.4623
3692.00,0.4620
3691.00,0.4616
3690.00,0.4612
3689.00,0.4610
3688.00,0.4609
3687.00,0.4609
3686.00,0.4609
3685.00,0.4612
3684.00,0.4614
3683.00,0.4616
3682.00,0.4616
3681.00,0.4616
3680.00,0.4614
3679.00,0.4610
3678.00,0.4605
3677.00,0.4600
3676.00,0.4598
3675.00,0.4595
3674.00,0.4591
3673.00,0.4588
3672.00,0.4589
3671.00,0.4592
3670.00,0.4595
3669.00,0.4597
3668.00,0.4602
3667.00,0.4610
3666.00,0.4619
3665.00,0.4627
3664.00,0.4634
3663.00,0.4643
3662.00,0.4654
3661.00,0.4666
3660.00,0.4678
3659.00,0.4691
3658.00,0.4708
3657.00,0.4729
3656.00,0.4752
3655.00,0.4775
3654.00,0.4796
3653.00,0.4816
3652.00,0.4834
3651.00,0.4847
3650.00,0.4856
3649.00,0.4859
3648.00,0.4856
3647.00,0.4846
3646.00,0.4831
3645.00,0.4815
3644.00,0.4799
3643.00,0.4784
3642.00,0.4769
3641.00,0.4755
3640.00,0.4742
3639.00,0.4731
3638.00,0.4721
3637.00,0.4713
3636.00,0.4706
3635.00,0.4700
3634.00,0.4694
3633.00,0.4688
3632.00,0.4680
3631.00,0.4674
3630.00,0.4670
3629.00,0.4668
3628.00,0.4667
3627.00,0.4668
3626.00,0.4670
3625.00,0.4674
3624.00,0.4677
3623.00,0.4678
3622.00,0.4677
3621.00,0.4674
3620.00,0.4670
3619.00,0.4664
3618.00,0.4657
3617.00,0.4651
3616.00,0.4645
3615.00,0.4641
3614.00,0.4637
3613.00,0.4635
3612.00,0.4634
3611.00,0.4633
3610.00,0.4634
3609.00,0.4634
3608.00,0.4633
3607.00,0.4632
3606.00,0.4631
3605.00,0.4631
3604.00,0.4630
3603.00,0.4627
3602.00,0.4623
3601.00,0.4617
3600.00,0.4609
3599.00,0.4600
3598.00,0.4591
3597.00,0.4583
3596.00,0.4575
3595.00,0.4567
3594.00,0.4560
3593.00,0.4553
3592.00,0.4546
3591.00,0.4540
3590.00,0.4534
3589.00,0.4528
3588.00,0.4523
3587.00,0.4519
3586.00,0.4516
3585.00,0.4513
3584.00,0.4512
3583.00,0.4512
3582.00,0.4511
3581.00,0.4510
3580.00,0.4509
3579.00,0.4509
3578.00,0.4508
3577.00,0.4508
3576.00,0.4507
3575.00,0.4506
3574.00,0.4505
3573.00,0.4503
3572.00,0.4502
3571.00,0.4500
3570.00,0.4497
3569.00,0.4495
3568.00,0.4493
3567.00,0.4492
3566.00,0.4491
3565.00,0.4491
3564.00,0.4492
3563.00,0.4493
3562.00,0.4495
3561.00,0.4496
3560.00,0.4498
3559.00,0.4499
3558.00,0.4501
3557.00,0.4502
3556.00,0.4504
3555.00,0.4505
3554.00,0.4507
3553.00,0.4509
3552.00,0.4510
3551.00,0.4511
3550.00,0.4513
3549.00,0.4516
3548.00,0.4518
3547.00,0.4521
3546.00,0.4523
3545.00,0.4525
3544.00,0.4526
3543.00,0.4528
3542.00,0.4531
3541.00,0.4533
3540.00,0.4536
3539.00,0.4538
3538.00,0.4540
3537.00,0.4542
3536.00,0.4544
3535.00,0.4546
3534.00,0.4547
3533.00,0.4550
3532.00,0.4552
3531.00,0.4555
3530.00,0.4557
3529.00,0.4560
3528.00,0.4561
3527.00,0.4563
3526.00,0.4566
3525.00,0.4569
3524.00,0.4572
3523.00,0.4575
3522.00,0.4577
3521.00,0.4580
3520.00,0.4584
3519.00,0.4588
3518.00,0.4592
3517.00,0.4596
3516.00,0.4600
3515.00,0.4604
3514.00,0.4608
3513.00,0.4612
3512.00,0.4616
3511.00,0.4620
3510.00,0.4623
3509.00,0.4627
3508.00,0.4631
3507.00,0.4635
3506.00,0.4639
3505.00,0.4643
3504.00,0.4647
3503.00,0.4651
3502.00,0.4655
3501.00,0.4660
3500.00,0.4664
3499.00,0.4669
3498.00,0.4675
3497.00,0.4680
3496.00,0.4685
3495.00,0.4691
3494.00,0.4697
3493.00,0.4704
3492.00,0.4711
3491.00,0.4718
3490.00,0.4724
3489.00,0.4729
3488.00,0.4735
3487.00,0.4741
3486.00,0.4747
3485.00,0.4753
3484.00,0.4759
3483.00,0.4764
3482.00,0.4770
3481.00,0.4777
3480.00,0.4783
3479.00,0.4788
3478.00,0.4794
3477.00,0.4800
3476.00,0.4805
3475.00,0.4809
3474.00,0.4814
3473.00,0.4820
3472.00,0.4825
3471.00,0.4831
3470.00,0.4837
3469.00,0.4844
3468.00,0.4850
3467.00,0.4856
3466.00,0.4862
3465.00,0.4868
3464.00,0.4875
3463.00,0.4882
3462.00,0.4889
3461.00,0.4897
3460.00,0.4905
3459.00,0.4913
3458.00,0.4921
3457.00,0.4929
3456.00,0.4936
3455.00,0.4945
3454.00,0.4953
3453.00,0.4962
3452.00,0.4971
3451.00,0.4981
3450.00,0.4992
3449.00,0.5002
3448.00,0.5012
3447.00,0.5022
3446.00,0.5033
3445.00,0.5045
3444.00,0.5058
3443.00,0.5072
3442.00,0.5084
3441.00,0.5097
3440.00,0.5108
3439.00,0.5120
3438.00,0.5130
3437.00,0.5140
3436.00,0.5149
3435.00,0.5158
3434.00,0.5166
3433.00,0.5174
3432.00,0.5182
3431.00,0.5190
3430.00,0.5198
3429.00,0.5207
3428.00,0.5214
3427.00,0.5222
3426.00,0.5229
3425.00,0.5237
3424.00,0.5245
3423.00,0.5254
3422.00,0.5263
3421.00,0.5271
3420.00,0.5280
3419.00,0.5289
3418.00,0.5299
3417.00,0.5311
3416.00,0.5323
3415.00,0.5335
3414.00,0.5347
3413.00,0.5359
3412.00,0.5371
3411.00,0.5383
3410.00,0.5395
3409.00,0.5408
3408.00,0.5421
3407.00,0.5434
3406.00,0.5448
3405.00,0.5463
3404.00,0.5479
3403.00,0.5494
3402.00,0.5508
3401.00,0.5523
3400.00,0.5537
3399.00,0.5552
3398.00,0.5566
3397.00,0.5579
3396.00,0.5592
3395.00,0.5606
3394.00,0.5620
3393.00,0.5635
3392.00,0.5649
3391.00,0.5662
3390.00,0.5676
3389.00,0.5689
3388.00,0.5703
3387.00,0.5717
3386.00,0.5731
3385.00,0.5745
3384.00,0.5759
3383.00,0.5773
3382.00,0.5789
3381.00,0.5805
3380.00,0.5821
3379.00,0.5837
3378.00,0.5852
3377.00,0.5868
3376.00,0.5883
3375.00,0.5899
3374.00,0.5915
3373.00,0.5933
3372.00,0.5952
3371.00,0.5971
3370.00,0.5990
3369.00,0.6009
3368.00,0.6028
3367.00,0.6047
3366.00,0.6067
3365.00,0.6088
3364.00,0.6108
3363.00,0.6128
3362.00,0.6148
3361.00,0.6169
3360.00,0.6190
3359.00,0.6210
3358.00,0.6229
3357.00,0.6248
3356.00,0.6267
3355.00,0.6287
3354.00,0.6307
3353.00,0.6326
3352.00,0.6345
3351.00,0.6362
3350.00,0.6379
3349.00,0.6396
3348.00,0.6413
3347.00,0.6430
3346.00,0.6446
3345.00,0.6461
3344.00,0.6476
3343.00,0.6488
3342.00,0.6500
3341.00,0.6511
3340.00,0.6521
3339.00,0.6531
3338.00,0.6539
3337.00,0.6547
3336.00,0.6553
3335.00,0.6559
3334.00,0.6562
3333.00,0.6564
3332.00,0.6564
3331.00,0.6563
3330.00,0.6562
3329.00,0.6559
3328.00,0.6555
3327.00,0.6551
3326.00,0.6546
3325.00,0.6541
3324.00,0.6535
3323.00,0.6528
3322.00,0.6522
3321.00,0.6515
3320.00,0.6507
3319.00,0.6499
3318.00,0.6490
3317.00,0.6480
3316.00,0.6471
3315.00,0.6462
3314.00,0.6452
3313.00,0.6443
3312.00,0.6433
3311.00,0.6423
3310.00,0.6413
3309.00,0.6403
3308.00,0.6393
3307.00,0.6384
3306.00,0.6374
3305.00,0.6365
3304.00,0.6356
3303.00,0.6347
3302.00,0.6340
3301.00,0.6333
3300.00,0.6326
3299.00,0.6320
3298.00,0.6315
3297.00,0.6310
3296.00,0.6305
3295.00,0.6300
3294.00,0.6296
3293.00,0.6293
3292.00,0.6290
3291.00,0.6289
3290.00,0.6288
3289.00,0.6289
3288.00,0.6289
3287.00,0.6288
3286.00,0.6288
3285.00,0.6288
3284.00,0.6288
3283.00,0.6289
3282.00,0.6291
3281.00,0.6293
3280.00,0.6296
3279.00,0.6298
3278.00,0.6302
3277.00,0.6305
3276.00,0.6309
3275.00,0.6312
3274.00,0.6315
3273.00,0.6319
3272.00,0.6323
3271.00,0.6326
3270.00,0.6330
3269.00,0.6333
3268.00,0.6337
3267.00,0.6341
3266.00,0.6345
3265.00,0.6350
3264.00,0.6355
3263.00,0.6360
3262.00,0.6364
3261.00,0.6368
3260.00,0.6372
3259.00,0.6375
3258.00,0.6379
3257.00,0.6381
3256.00,0.6382
3255.00,0.6383
3254.00,0.6384
3253.00,0.6384
3252.00,0.6385
3251.00,0.6386
3250.00,0.6387
3249.00,0.6388
3248.00,0.6387
3247.00,0.6386
3246.00,0.6384
3245.00,0.6382
3244.00,0.6380
3243.00,0.6378
3242.00,0.6376
3241.00,0.6373
3240.00,0.6369
3239.00,0.6365
3238.00,0.6361
3237.00,0.6356
3236.00,0.6352
3235.00,0.6347
3234.00,0.6342
3233.00,0.6335
3232.00,0.6328
3231.00,0.6321
3230.00,0.6315
3229.00,0.6309
3228.00,0.6303
3227.00,0.6296
3226.00,0.6289
3225.00,0.6281
3224.00,0.6273
3223.00,0.6266
3222.00,0.6259
3221.00,0.6251
3220.00,0.6244
3219.00,0.6235
3218.00,0.6228
3217.00,0.6220
3216.00,0.6212
3215.00,0.6205
3214.00,0.6197
3213.00,0.6188
3212.00,0.6180
3211.00,0.6171
3210.00,0.6163
3209.00,0.6156
3208.00,0.6150
3207.00,0.6143
3206.00,0.6137
3205.00,0.6130
3204.00,0.6123
3203.00,0.6116
3202.00,0.6109
3201.00,0.6102
3200.00,0.6095
3199.00,0.6088
3198.00,0.6081
3197.00,0.6074
3196.00,0.6067
3195.00,0.6060
3194.00,0.6053
3193.00,0.6046
3192.00,0.6040
3191.00,0.6033
3190.00,0.6026
3189.00,0.6018
3188.00,0.6011
3187.00,0.6004
3186.00,0.5997
3185.00,0.5990
3184.00,0.5983
3183.00,0.5975
3182.00,0.5967
3181.00,0.5959
3180.00,0.5950
3179.00,0.5942
3178.00,0.5933
3177.00,0.5924
3176.00,0.5914
3175.00,0.5904
3174.00,0.5894
3173.00,0.5885
3172.00,0.5875
3171.00,0.5867
3170.00,0.5858
3169.00,0.5849
3168.00,0.5839
3167.00,0.5830
3166.00,0.5822
3165.00,0.5813
3164.00,0.5805
3163.00,0.5796
3162.00,0.5788
3161.00,0.5779
3160.00,0.5771
3159.00,0.5762
3158.00,0.5753
3157.00,0.5745
3156.00,0.5737
3155.00,0.5729
3154.00,0.5721
3153.00,0.5714
3152.00,0.5706
3151.00,0.5698
3150.00,0.5690
3149.00,0.5681
3148.00,0.5674
3147.00,0.5667
3146.00,0.5661
3145.00,0.5656
3144.00,0.5650
3143.00,0.5644
3142.00,0.5638
3141.00,0.5633
3140.00,0.5628
3139.00,0.5623
3138.00,0.5618
3137.00,0.5613
3136.00,0.5608
3135.00,0.5603
3134.00,0.5599
3133.00,0.5595
3132.00,0.5592
3131.00,0.5589
3130.00,0.5587
3129.00,0.5584
3128.00,0.5582
3127.00,0.5580
3126.00,0.5579
3125.00,0.5578
3124.00,0.5578
3123.00,0.5577
3122.00,0.5577
3121.00,0.5578
3120.00,0.5579
3119.00,0.5580
3118.00,0.5581
3117.00,0.5583
3116.00,0.5585
3115.00,0.5589
3114.00,0.5593
3113.00,0.5598
3112.00,0.5603
3111.00,0.5607
3110.00,0.5613
3109.00,0.5619
3108.00,0.5627
3107.00,0.5635
3106.00,0.5644
3105.00,0.5653
3104.00,0.5662
3103.00,0.5671
3102.00,0.5680
3101.00,0.5690
3100.00,0.5699
3099.00,0.5710
3098.00,0.5720
3097.00,0.5731
3096.00,0.5742
3095.00,0.5753
3094.00,0.5766
3093.00,0.5780
3092.00,0.5796
3091.00,0.5813
3090.00,0.5831
3089.00,0.5850
3088.00,0.5871
3087.00,0.5893
3086.00,0.5916
3085.00,0.5941
3084.00,0.5967
3083.00,0.5995
3082.00,0.6023
3081.00,0.6054
3080.00,0.6085
3079.00,0.6118
3078.00,0.6152
3077.00,0.6188
3076.00,0.6223
3075.00,0.6260
3074.00,0.6298
3073.00,0.6336
3072.00,0.6375
3071.00,0.6413
3070.00,0.6452
3069.00,0.6491
3068.00,0.6530
3067.00,0.6568
3066.00,0.6604
3065.00,0.6640
3064.00,0.6676
3063.00,0.6709
3062.00,0.6742
3061.00,0.6772
3060.00,0.6801
3059.00,0.6830
3058.00,0.6859
3057.00,0.6889
3056.00,0.6918
3055.00,0.6948
3054.00,0.6978
3053.00,0.7008
3052.00,0.7040
3051.00,0.7072
3050.00,0.7107
3049.00,0.7143
3048.00,0.7181
3047.00,0.7221
3046.00,0.7263
3045.00,0.7306
3044.00,0.7350
3043.00,0.7394
3042.00,0.7439
3041.00,0.7485
3040.00,0.7532
3039.00,0.7579
3038.00,0.7629
3037.00,0.7680
3036.00,0.7735
3035.00,0.7793
3034.00,0.7854
3033.00,0.7918
3032.00,0.7984
3031.00,0.8053
3030.00,0.8126
3029.00,0.8202
3028.00,0.8279
3027.00,0.8359
3026.00,0.8441
3025.00,0.8526
3024.00,0.8612
3023.00,0.8701
3022.00,0.8793
3021.00,0.8889
3020.00,0.8989
3019.00,0.9093
3018.00,0.9199
3017.00,0.9308
3016.00,0.9418
3015.00,0.9530
3014.00,0.9647
3013.00,0.9770
3012.00,0.9900
3011.00,1.0036
3010.00,1.0181
3009.00,1.0333
3008.00,1.0491
3007.00,1.0657
3006.00,1.0830
3005.00,1.1009
3004.00,1.1195
3003.00,1.1388
3002.00,1.1591
3001.00,1.1804
3000.00,1.2027
2999.00,1.2261
2998.00,1.2506
2997.00,1.2766
2996.00,1.3046
2995.00,1.3353
2994.00,1.3693
2993.00,1.4068
2992.00,1.4482
2991.00,1.4939
2990.00,1.5446
2989.00,1.6008
2988.00,1.6629
2987.00,1.7315
2986.00,1.8073
2985.00,1.8908
2984.00,1.9827
2983.00,2.0845
2982.00,2.1970
2981.00,2.3194
2980.00,2.4493
2979.00,2.5863
2978.00,2.7345
2977.00,2.9005
2976.00,3.0935
2975.00,3.3284
2974.00,3.6268
2973.00,3.9801
2972.00,4.2189
2971.00,4.2066
2970.00,4.1560
2969.00,4.1771
2968.00,4.2902
2967.00,4.4004
2966.00,4.2121
2965.00,3.9953
2964.00,3.8979
2963.00,3.9748
2962.00,4.0680
2961.00,4.0242
2960.00,3.9870
2959.00,4.0909
2958.00,4.5088
2957.00,4.5917
2956.00,4.2771
2955.00,4.0828
2954.00,4.0418
2953.00,3.9885
2952.00,3.9351
2951.00,3.9843
2950.00,4.1769
2949.00,4.5668
2948.00,4.4208
2947.00,4.0770
2946.00,3.8608
2945.00,3.8078
2944.00,3.8486
2943.00,3.8732
2942.00,3.8385
2941.00,3.8174
2940.00,3.8906
2939.00,4.1125
2938.00,4.4527
2937.00,4.8362
2936.00,5.2287
2935.00,4.9200
2934.00,4.4531
2933.00,4.2102
2932.00,4.1815
2931.00,4.2386
2930.00,4.3209
2929.00,4.3213
2928.00,4.1955
2927.00,4.1063
2926.00,4.0448
2925.00,4.1032
2924.00,4.2813
2923.00,4.4573
2922.00,4.3409
2921.00,4.1878
2920.00,4.1896
2919.00,4.3958
2918.00,4.4661
2917.00,4.2852
2916.00,4.0880
2915.00,3.9908
2914.00,4.0088
2913.00,4.1975
2912.00,4.6227
2911.00,4.3725
2910.00,4.1441
2909.00,4.0860
2908.00,4.3201
2907.00,4.6151
2906.00,4.6331
2905.00,4.3929
2904.00,4.0616
2903.00,3.8689
2902.00,3.8197
2901.00,3.8860
2900.00,3.9200
2899.00,3.8719
2898.00,3.8555
2897.00,3.9617
2896.00,4.2216
2895.00,4.4447
2894.00,4.3494
2893.00,4.1995
2892.00,4.1432
2891.00,4.1439
2890.00,4.0876
2889.00,4.0370
2888.00,4.0758
2887.00,4.2410
2886.00,4.4617
2885.00,4.4146
2884.00,4.1929
2883.00,4.0501
2882.00,3.9755
2881.00,3.9482
2880.00,3.9879
2879.00,4.1903
2878.00,4.5309
2877.00,4.2644
2876.00,3.9408
2875.00,3.7703
2874.00,3.7380
2873.00,3.7716
2872.00,3.8514
2871.00,3.9516
2870.00,4.0474
2869.00,4.2224
2868.00,4.4143
2867.00,4.2189
2866.00,3.9849
2865.00,3.8711
2864.00,3.9707
2863.00,4.3169
2862.00,4.2941
2861.00,4.0766
2860.00,3.9596
2859.00,4.0882
2858.00,4.1270
2857.00,4.0822
2856.00,4.2426
2855.00,4.3634
2854.00,4.1498
2853.00,3.9121
2852.00,3.8111
2851.00,3.7968
2850.00,3.8039
2849.00,3.8310
2848.00,3.8738
2847.00,3.9553
2846.00,4.1037
2845.00,4.3370
2844.00,4.6667
2843.00,4.8958
2842.00,4.5718
2841.00,4.1650
2840.00,3.9384
2839.00,3.8185
2838.00,3.6536
2837.00,3.3855
2836.00,3.1137
2835.00,2.8827
2834.00,2.6866
2833.00,2.5142
2832.00,2.3624
2831.00,2.2292
2830.00,2.1108
2829.00,2.0046
2828.00,1.9093
2827.00,1.8244
2826.00,1.7484
2825.00,1.6800
2824.00,1.6180
2823.00,1.5618
2822.00,1.5106
2821.00,1.4633
2820.00,1.4197
2819.00,1.3793
2818.00,1.3419
2817.00,1.3068
2816.00,1.2740
2815.00,1.2433
2814.00,1.2148
2813.00,1.1881
2812.00,1.1629
2811.00,1.1390
2810.00,1.1162
2809.00,1.0943
2808.00,1.0734
2807.00,1.0535
2806.00,1.0345
2805.00,1.0163
2804.00,0.9989
2803.00,0.9823
2802.00,0.9664
2801.00,0.9512
2800.00,0.9368
2799.00,0.9231
2798.00,0.9100
2797.00,0.8971
2796.00,0.8847
2795.00,0.8727
2794.00,0.8611
2793.00,0.8500
2792.00,0.8393
2791.00,0.8289
2790.00,0.8187
2789.00,0.8088
2788.00,0.7989
2787.00,0.7893
2786.00,0.7799
2785.00,0.7707
2784.00,0.7618
2783.00,0.7531
2782.00,0.7447
2781.00,0.7366
2780.00,0.7288
2779.00,0.7213
2778.00,0.7142
2777.00,0.7075
2776.00,0.7012
2775.00,0.6952
2774.00,0.6897
2773.00,0.6844
2772.00,0.6796
2771.00,0.6751
2770.00,0.6711
2769.00,0.6674
2768.00,0.6640
2767.00,0.6610
2766.00,0.6583
2765.00,0.6560
2764.00,0.6539
2763.00,0.6521
2762.00,0.6507
2761.00,0.6494
2760.00,0.6482
2759.00,0.6471
2758.00,0.6460
2757.00,0.6450
2756.00,0.6441
2755.00,0.6433
2754.00,0.6426
2753.00,0.6421
2752.00,0.6418
2751.00,0.6416
2750.00,0.6415
2749.00,0.6417
2748.00,0.6420
2747.00,0.6426
2746.00,0.6435
2745.00,0.6446
2744.00,0.6459
2743.00,0.6475
2742.00,0.6495
2741.00,0.6517
2740.00,0.6543
2739.00,0.6574
2738.00,0.6608
2737.00,0.6648
2736.00,0.6691
2735.00,0.6737
2734.00,0.6783
2733.00,0.6828
2732.00,0.6868
2731.00,0.6901
2730.00,0.6924
2729.00,0.6936
2728.00,0.6937
2727.00,0.6929
2726.00,0.6915
2725.00,0.6897
2724.00,0.6875
2723.00,0.6851
2722.00,0.6825
2721.00,0.6797
2720.00,0.6766
2719.00,0.6734
2718.00,0.6699
2717.00,0.6662
2716.00,0.6623
2715.00,0.6583
2714.00,0.6543
2713.00,0.6504
2712.00,0.6465
2711.00,0.6430
2710.00,0.6398
2709.00,0.6372
2708.00,0.6349
2707.00,0.6331
2706.00,0.6315
2705.00,0.6302
2704.00,0.6291
2703.00,0.6281
2702.00,0.6275
2701.00,0.6271
2700.00,0.6270
2699.00,0.6272
2698.00,0.6275
2697.00,0.6280
2696.00,0.6287
2695.00,0.6295
2694.00,0.6306
2693.00,0.6317
2692.00,0.6329
2691.00,0.6341
2690.00,0.6354
2689.00,0.6366
2688.00,0.6377
2687.00,0.6386
2686.00,0.6396
2685.00,0.6404
2684.00,0.6411
2683.00,0.6416
2682.00,0.6420
2681.00,0.6422
2680.00,0.6424
2679.00,0.6426
2678.00,0.6428
2677.00,0.6430
2676.00,0.6433
2675.00,0.6436
2674.00,0.6438
2673.00,0.6439
2672.00,0.6439
2671.00,0.6435
2670.00,0.6427
2669.00,0.6417
2668.00,0.6405
2667.00,0.6390
2666.00,0.6373
2665.00,0.6354
2664.00,0.6331
2663.00,0.6308
2662.00,0.6283
2661.00,0.6259
2660.00,0.6235
2659.00,0.6211
2658.00,0.6188
2657.00,0.6166
2656.00,0.6145
2655.00,0.6125
2654.00,0.6105
2653.00,0.6086
2652.00,0.6067
2651.00,0.6049
2650.00,0.6032
2649.00,0.6016
2648.00,0.6001
2647.00,0.5987
2646.00,0.5973
2645.00,0.5959
2644.00,0.5945
2643.00,0.5931
2642.00,0.5918
2641.00,0.5906
2640.00,0.5894
2639.00,0.5883
2638.00,0.5872
2637.00,0.5861
2636.00,0.5851
2635.00,0.5841
2634.00,0.5830
2633.00,0.5820
2632.00,0.5811
2631.00,0.5801
2630.00,0.5792
2629.00,0.5782
2628.00,0.5772
2627.00,0.5763
2626.00,0.5754
2625.00,0.5744
2624.00,0.5734
2623.00,0.5723
2622.00,0.5712
2621.00,0.5702
2620.00,0.5691
2619.00,0.5681
2618.00,0.5671
2617.00,0.5661
2616.00,0.5650
2615.00,0.5640
2614.00,0.5630
2613.00,0.5619
2612.00,0.5609
2611.00,0.5599
2610.00,0.5590
2609.00,0.5582
2608.00,0.5573
2607.00,0.5564
2606.00,0.5554
2605.00,0.5543
2604.00,0.5533
2603.00,0.5523
2602.00,0.5512
2601.00,0.5501
2600.00,0.5488
2599.00,0.5474
2598.00,0.5459
2597.00,0.5443
2596.00,0.5428
2595.00,0.5412
2594.00,0.5396
2593.00,0.5380
2592.00,0.5364
2591.00,0.5347
2590.00,0.5330
2589.00,0.5313
2588.00,0.5297
2587.00,0.5281
2586.00,0.5265
2585.00,0.5250
2584.00,0.5234
2583.00,0.5218
2582.00,0.5202
2581.00,0.5185
2580.00,0.5167
2579.00,0.5151
2578.00,0.5135
2577.00,0.5119
2576.00,0.5102
2575.00,0.5087
2574.00,0.5071
2573.00,0.5056
2572.00,0.5042
2571.00,0.5029
2570.00,0.5016
2569.00,0.5003
2568.00,0.4991
2567.00,0.4978
2566.00,0.4965
2565.00,0.4952
2564.00,0.4939
2563.00,0.4926
2562.00,0.4912
2561.00,0.4898
2560.00,0.4885
2559.00,0.4871
2558.00,0.4859
2557.00,0.4846
2556.00,0.4834
2555.00,0.4822
2554.00,0.4810
2553.00,0.4799
2552.00,0.4789
2551.00,0.4779
2550.00,0.4769
2549.00,0.4760
2548.00,0.4751
2547.00,0.4742
2546.00,0.4733
2545.00,0.4725
2544.00,0.4716
2543.00,0.4708
2542.00,0.4700
2541.00,0.4692
2540.00,0.4685
2539.00,0.4678
2538.00,0.4671
2537.00,0.4664
2536.00,0.4657
2535.00,0.4651
2534.00,0.4645
2533.00,0.4638
2532.00,0.4631
2531.00,0.4623
2530.00,0.4615
2529.00,0.4605
2528.00,0.4596
2527.00,0.4585
2526.00,0.4574
2525.00,0.4563
2524.00,0.4551
2523.00,0.4540
2522.00,0.4529
2521.00,0.4518
2520.00,0.4508
2519.00,0.4498
2518.00,0.4489
2517.00,0.4481
2516.00,0.4472
2515.00,0.4463
2514.00,0.4454
2513.00,0.4445
2512.00,0.4437
2511.00,0.4429
2510.00,0.4422
2509.00,0.4416
2508.00,0.4411
2507.00,0.4405
2506.00,0.4400
2505.00,0.4395
2504.00,0.4391
2503.00,0.4386
2502.00,0.4383
2501.00,0.4381
2500.00,0.4379
2499.00,0.4378
2498.00,0.4375
2497.00,0.4372
2496.00,0.4369
2495.00,0.4364
2494.00,0.4360
2493.00,0.4356
2492.00,0.4352
2491.00,0.4347
2490.00,0.4341
2489.00,0.4336
2488.00,0.4331
2487.00,0.4325
2486.00,0.4319
2485.00,0.4313
2484.00,0.4306
2483.00,0.4300
2482.00,0.4294
2481.00,0.4288
2480.00,0.4283
2479.00,0.4277
2478.00,0.4272
2477.00,0.4267
2476.00,0.4262
2475.00,0.4257
2474.00,0.4252
2473.00,0.4248
2472.00,0.4245
2471.00,0.4241
2470.00,0.4238
2469.00,0.4235
2468.00,0.4232
2467.00,0.4229
2466.00,0.4226
2465.00,0.4223
2464.00,0.4220
2463.00,0.4217
2462.00,0.4213
2461.00,0.4210
2460.00,0.4207
2459.00,0.4205
2458.00,0.4203
2457.00,0.4201
2456.00,0.4199
2455.00,0.4197
2454.00,0.4196
2453.00,0.4195
2452.00,0.4194
2451.00,0.4193
2450.00,0.4191
2449.00,0.4190
2448.00,0.4190
2447.00,0.4189
2446.00,0.4189
2445.00,0.4188
2444.00,0.4188
2443.00,0.4188
2442.00,0.4188
2441.00,0.4188
2440.00,0.4189
2439.00,0.4189
2438.00,0.4190
2437.00,0.4190
2436.00,0.4191
2435.00,0.4191
2434.00,0.4192
2433.00,0.4192
2432.00,0.4192
2431.00,0.4193
2430.00,0.4193
2429.00,0.4194
2428.00,0.4195
2427.00,0.4196
2426.00,0.4198
2425.00,0.4199
2424.00,0.4200
2423.00,0.4200
2422.00,0.4201
2421.00,0.4202
2420.00,0.4202
2419.00,0.4203
2418.00,0.4203
2417.00,0.4203
2416.00,0.4203
2415.00,0.4204
2414.00,0.4205
2413.00,0.4205
2412.00,0.4206
2411.00,0.4207
2410.00,0.4208
2409.00,0.4209
2408.00,0.4209
2407.00,0.4209
2406.00,0.4208
2405.00,0.4208
2404.00,0.4208
2403.00,0.4207
2402.00,0.4208
2401.00,0.4208
2400.00,0.4208
2399.00,0.4207
2398.00,0.4206
2397.00,0.4206
2396.00,0.4206
2395.00,0.4205
2394.00,0.4205
2393.00,0.4204
2392.00,0.4203
2391.00,0.4203
2390.00,0.4203
2389.00,0.4204
2388.00,0.4204
2387.00,0.4205
2386.00,0.4207
2385.00,0.4208
2384.00,0.4210
2383.00,0.4211
2382.00,0.4213
2381.00,0.4214
2380.00,0.4216
2379.00,0.4218
2378.00,0.4220
2377.00,0.4221
2376.00,0.4222
2375.00,0.4221
2374.00,0.4220
2373.00,0.4219
2372.00,0.4217
2371.00,0.4215
2370.00,0.4213
2369.00,0.4211
2368.00,0.4210
2367.00,0.4210
2366.00,0.4211
2365.00,0.4212
2364.00,0.4212
2363.00,0.4212
2362.00,0.4211
2361.00,0.4211
2360.00,0.4211
2359.00,0.4210
2358.00,0.4208
2357.00,0.4207
2356.00,0.4205
2355.00,0.4204
2354.00,0.4204
2353.00,0.4204
2352.00,0.4204
2351.00,0.4203
2350.00,0.4200
2349.00,0.4198
2348.00,0.4195
2347.00,0.4193
2346.00,0.4192
2345.00,0.4192
2344.00,0.4191
2343.00,0.4189
2342.00,0.4186
2341.00,0.4184
2340.00,0.4182
2339.00,0.4181
2338.00,0.4181
2337.00,0.4179
2336.00,0.4176
2335.00,0.4174
2334.00,0.4171
2333.00,0.4170
2332.00,0.4169
2331.00,0.4166
2330.00,0.4163
2329.00,0.4158
2328.00,0.4154
2327.00,0.4150
2326.00,0.4147
2325.00,0.4143
2324.00,0.4140
2323.00,0.4137
2322.00,0.4135
2321.00,0.4131
2320.00,0.4128
2319.00,0.4123
2318.00,0.4119
2317.00,0.4115
2316.00,0.4111
2315.00,0.4108
2314.00,0.4105
2313.00,0.4101
2312.00,0.4097
2311.00,0.4093
2310.00,0.4088
2309.00,0.4084
2308.00,0.4080
2307.00,0.4076
2306.00,0.4072
2305.00,0.4067
2304.00,0.4063
2303.00,0.4059
2302.00,0.4057
2301.00,0.4055
2300.00,0.4053
2299.00,0.4050
2298.00,0.4047
2297.00,0.4045
2296.00,0.4042
2295.00,0.4039
2294.00,0.4036
2293.00,0.4032
2292.00,0.4028
2291.00,0.4024
2290.00,0.4020
2289.00,0.4016
2288.00,0.4011
2287.00,0.4007
2286.00,0.4003
2285.00,0.3999
2284.00,0.3995
2283.00,0.3991
2282.00,0.3987
2281.00,0.3983
2280.00,0.3979
2279.00,0.3976
2278.00,0.3972
2277.00,0.3968
2276.00,0.3964
2275.00,0.3960
2274.00,0.3957
2273.00,0.3955
2272.00,0.3953
2271.00,0.3951
2270.00,0.3949
2269.00,0.3948
2268.00,0.3947
2267.00,0.3946
2266.00,0.3945
2265.00,0.3944
2264.00,0.3943
2263.00,0.3941
2262.00,0.3938
2261.00,0.3936
2260.00,0.3932
2259.00,0.3929
2258.00,0.3926
2257.00,0.3922
2256.00,0.3918
2255.00,0.3914
2254.00,0.3911
2253.00,0.3908
2252.00,0.3905
2251.00,0.3902
2250.00,0.3899
2249.00,0.3896
2248.00,0.3893
2247.00,0.3890
2246.00,0.3888
2245.00,0.3885
2244.00,0.3883
2243.00,0.3881
2242.00,0.3879
2241.00,0.3878
2240.00,0.3876
2239.00,0.3874
2238.00,0.3872
2237.00,0.3870
2236.00,0.3867
2235.00,0.3865
2234.00,0.3864
2233.00,0.3863
2232.00,0.3861
2231.00,0.3860
2230.00,0.3858
2229.00,0.3856
2228.00,0.3854
2227.00,0.3852
2226.00,0.3850
2225.00,0.3848
2224.00,0.3846
2223.00,0.3844
2222.00,0.3842
2221.00,0.3841
2220.00,0.3839
2219.00,0.3838
2218.00,0.3836
2217.00,0.3835
2216.00,0.3833
2215.00,0.3833
2214.00,0.3832
2213.00,0.3832
2212.00,0.3831
2211.00,0.3829
2210.00,0.3829
2209.00,0.3828
2208.00,0.3828
2207.00,0.3828
2206.00,0.3829
2205.00,0.3829
2204.00,0.3829
2203.00,0.3829
2202.00,0.3829
2201.00,0.3829
2200.00,0.3829
2199.00,0.3829
2198.00,0.3830
2197.00,0.3830
2196.00,0.3831
2195.00,0.3831
2194.00,0.3831
2193.00,0.3831
2192.00,0.3831
2191.00,0.3831
2190.00,0.3830
2189.00,0.3830
2188.00,0.3830
2187.00,0.3831
2186.00,0.3831
2185.00,0.3831
2184.00,0.3830
2183.00,0.3830
2182.00,0.3828
2181.00,0.3827
2180.00,0.3826
2179.00,0.3826
2178.00,0.3824
2177.00,0.3824
2176.00,0.3823
2175.00,0.3822
2174.00,0.3822
2173.00,0.3822
2172.00,0.3821
2171.00,0.3821
2170.00,0.3820
2169.00,0.3819
2168.00,0.3818
2167.00,0.3817
2166.00,0.3816
2165.00,0.3816
2164.00,0.3815
2163.00,0.3815
2162.00,0.3814
2161.00,0.3813
2160.00,0.3811
2159.00,0.3810
2158.00,0.3808
2157.00,0.3806
2156.00,0.3804
2155.00,0.3802
2154.00,0.3801
2153.00,0.3799
2152.00,0.3797
2151.00,0.3795
2150.00,0.3792
2149.00,0.3789
2148.00,0.3785
2147.00,0.3781
2146.00,0.3776
2145.00,0.3771
2144.00,0.3766
2143.00,0.3760
2142.00,0.3754
2141.00,0.3748
2140.00,0.3743
2139.00,0.3738
2138.00,0.3734
2137.00,0.3730
2136.00,0.3727
2135.00,0.3723
2134.00,0.3720
2133.00,0.3716
2132.00,0.3713
2131.00,0.3710
2130.00,0.3707
2129.00,0.3705
2128.00,0.3703
2127.00,0.3701
2126.00,0.3699
2125.00,0.3698
2124.00,0.3696
2123.00,0.3694
2122.00,0.3692
2121.00,0.3691
2120.00,0.3690
2119.00,0.3689
2118.00,0.3687
2117.00,0.3686
2116.00,0.3685
2115.00,0.3684
2114.00,0.3683
2113.00,0.3682
2112.00,0.3681
2111.00,0.3679
2110.00,0.3677
2109.00,0.3675
2108.00,0.3674
2107.00,0.3673
2106.00,0.3673
2105.00,0.3672
2104.00,0.3672
2103.00,0.3671
2102.00,0.3669
2101.00,0.3668
2100.00,0.3667
2099.00,0.3667
2098.00,0.3666
2097.00,0.3666
2096.00,0.3665
2095.00,0.3664
2094.00,0.3663
2093.00,0.3663
2092.00,0.3662
2091.00,0.3662
2090.00,0.3660
2089.00,0.3659
2088.00,0.3658
2087.00,0.3657
2086.00,0.3656
2085.00,0.3655
2084.00,0.3654
2083.00,0.3653
2082.00,0.3652
2081.00,0.3652
2080.00,0.3652
2079.00,0.3651
2078.00,0.3650
2077.00,0.3650
2076.00,0.3650
2075.00,0.3650
2074.00,0.3650
2073.00,0.3650
2072.00,0.3650
2071.00,0.3650
2070.00,0.3650
2069.00,0.3650
2068.00,0.3652
2067.00,0.3653
2066.00,0.3655
2065.00,0.3657
2064.00,0.3658
2063.00,0.3660
2062.00,0.3661
2061.00,0.3661
2060.00,0.3662
2059.00,0.3663
2058.00,0.3664
2057.00,0.3666
2056.00,0.3667
2055.00,0.3668
2054.00,0.3668
2053.00,0.3669
2052.00,0.3670
2051.00,0.3672
2050.00,0.3673
2049.00,0.3674
2048.00,0.3676
2047.00,0.3678
2046.00,0.3680
2045.00,0.3682
2044.00,0.3684
2043.00,0.3686
2042.00,0.3687
2041.00,0.3689
2040.00,0.3691
2039.00,0.3692
2038.00,0.3693
2037.00,0.3694
2036.00,0.3694
2035.00,0.3695
2034.00,0.3696
2033.00,0.3696
2032.00,0.3697
2031.00,0.3696
2030.00,0.3696
2029.00,0.3695
2028.00,0.3695
2027.00,0.3695
2026.00,0.3695
2025.00,0.3694
2024.00,0.3693
2023.00,0.3690
2022.00,0.3687
2021.00,0.3683
2020.00,0.3678
2019.00,0.3672
2018.00,0.3665
2017.00,0.3658
2016.00,0.3651
2015.00,0.3643
2014.00,0.3635
2013.00,0.3626
2012.00,0.3619
2011.00,0.3612
2010.00,0.3606
2009.00,0.3600
2008.00,0.3594
2007.00,0.3589
2006.00,0.3585
2005.00,0.3581
2004.00,0.3578
2003.00,0.3575
2002.00,0.3572
2001.00,0.3570
2000.00,0.3567
1999.00,0.3565
1998.00,0.3563
1997.00,0.3562
1996.00,0.3561
1995.00,0.3560
1994.00,0.3558
1993.00,0.3557
1992.00,0.3557
1991.00,0.3558
1990.00,0.3558
1989.00,0.3557
1988.00,0.3555
1987.00,0.3554
1986.00,0.3553
1985.00,0.3553
1984.00,0.3552
1983.00,0.3551
1982.00,0.3550
1981.00,0.3550
1980.00,0.3549
1979.00,0.3548
1978.00,0.3547
1977.00,0.3546
1976.00,0.3545
1975.00,0.3545
1974.00,0.3545
1973.00,0.3545
1972.00,0.3546
1971.00,0.3546
1970.00,0.3546
1969.00,0.3546
1968.00,0.3547
1967.00,0.3548
1966.00,0.3549
1965.00,0.3549
1964.00,0.3548
1963.00,0.3546
1962.00,0.3544
1961.00,0.3544
1960.00,0.3545
1959.00,0.3545
1958.00,0.3546
1957.00,0.3546
1956.00,0.3548
1955.00,0.3550
1954.00,0.3552
1953.00,0.3554
1952.00,0.3555
1951.00,0.3556
1950.00,0.3556
1949.00,0.3557
1948.00,0.3558
1947.00,0.3560
1946.00,0.3562
1945.00,0.3566
1944.00,0.3569
1943.00,0.3573
1942.00,0.3578
1941.00,0.3585
1940.00,0.3590
1939.00,0.3593
1938.00,0.3594
1937.00,0.3594
1936.00,0.3594
1935.00,0.3593
1934.00,0.3591
1933.00,0.3589
1932.00,0.3587
1931.00,0.3586
1930.00,0.3585
1929.00,0.3585
1928.00,0.3584
1927.00,0.3583
1926.00,0.3582
1925.00,0.3582
1924.00,0.3584
1923.00,0.3585
1922.00,0.3588
1921.00,0.3591
1920.00,0.3593
1919.00,0.3596
1918.00,0.3599
1917.00,0.3602
1916.00,0.3604
1915.00,0.3606
1914.00,0.3607
1913.00,0.3608
1912.00,0.3608
1911.00,0.3609
1910.00,0.3610
1909.00,0.3611
1908.00,0.3611
1907.00,0.3613
1906.00,0.3616
1905.00,0.3614
1904.00,0.3613
1903.00,0.3611
1902.00,0.3610
1901.00,0.3610
1900.00,0.3609
1899.00,0.3608
1898.00,0.3607
1897.00,0.3606
1896.00,0.3605
1895.00,0.3605
1894.00,0.3606
1893.00,0.3605
1892.00,0.3604
1891.00,0.3601
1890.00,0.3600
1889.00,0.3602
1888.00,0.3606
1887.00,0.3609
1886.00,0.3609
1885.00,0.3610
1884.00,0.3611
1883.00,0.3612
1882.00,0.3611
1881.00,0.3611
1880.00,0.3610
1879.00,0.3610
1878.00,0.3608
1877.00,0.3607
1876.00,0.3606
1875.00,0.3604
1874.00,0.3603
1873.00,0.3601
1872.00,0.3599
1871.00,0.3597
1870.00,0.3595
1869.00,0.3593
1868.00,0.3590
1867.00,0.3586
1866.00,0.3582
1865.00,0.3578
1864.00,0.3574
1863.00,0.3570
1862.00,0.3565
1861.00,0.3561
1860.00,0.3558
1859.00,0.3555
1858.00,0.3551
1857.00,0.3548
1856.00,0.3545
1855.00,0.3542
1854.00,0.3539
1853.00,0.3537
1852.00,0.3535
1851.00,0.3534
1850.00,0.3533
1849.00,0.3533
1848.00,0.3532
1847.00,0.3532
1846.00,0.3532
1845.00,0.3532
1844.00,0.3532
1843.00,0.3531
1842.00,0.3531
1841.00,0.3531
1840.00,0.3531
1839.00,0.3530
1838.00,0.3530
1837.00,0.3530
1836.00,0.3530
1835.00,0.3530
1834.00,0.3528
1833.00,0.3527
1832.00,0.3526
1831.00,0.3525
1830.00,0.3523
1829.00,0.3522
1828.00,0.3522
1827.00,0.3521
1826.00,0.3521
1825.00,0.3521
1824.00,0.3520
1823.00,0.3520
1822.00,0.3519
1821.00,0.3518
1820.00,0.3517
1819.00,0.3517
1818.00,0.3517
1817.00,0.3517
1816.00,0.3518
1815.00,0.3520
1814.00,0.3522
1813.00,0.3524
1812.00,0.3527
1811.00,0.3530
1810.00,0.3534
1809.00,0.3539
1808.00,0.3543
1807.00,0.3547
1806.00,0.3551
1805.00,0.3556
1804.00,0.3561
1803.00,0.3565
1802.00,0.3571
1801.00,0.3581
1800.00,0.3586
1799.00,0.3592
1798.00,0.3598
1797.00,0.3603
1796.00,0.3608
1795.00,0.3613
1794.00,0.3617
1793.00,0.3621
1792.00,0.3626
1791.00,0.3630
1790.00,0.3634
1789.00,0.3638
1788.00,0.3642
1787.00,0.3646
1786.00,0.3651
1785.00,0.3656
1784.00,0.3662
1783.00,0.3668
1782.00,0.3674
1781.00,0.3681
1780.00,0.3687
1779.00,0.3695
1778.00,0.3702
1777.00,0.3710
1776.00,0.3718
1775.00,0.3725
1774.00,0.3733
1773.00,0.3742
1772.00,0.3754
1771.00,0.3772
1770.00,0.3783
1769.00,0.3786
1768.00,0.3789
1767.00,0.3800
1766.00,0.3816
1765.00,0.3830
1764.00,0.3842
1763.00,0.3855
1762.00,0.3872
1761.00,0.3896
1760.00,0.3922
1759.00,0.3949
1758.00,0.3978
1757.00,0.4013
1756.00,0.4059
1755.00,0.4112
1754.00,0.4172
1753.00,0.4244
1752.00,0.4342
1751.00,0.4471
1750.00,0.4628
1749.00,0.4808
1748.00,0.5010
1747.00,0.5233
1746.00,0.5472
1745.00,0.5722
1744.00,0.5975
1743.00,0.6214
1742.00,0.6426
1741.00,0.6605
1740.00,0.6750
1739.00,0.6862
1738.00,0.6945
1737.00,0.7003
1736.00,0.7043
1735.00,0.7076
1734.00,0.7108
1733.00,0.7128
1732.00,0.7112
1731.00,0.7034
1730.00,0.6890
1729.00,0.6697
1728.00,0.6474
1727.00,0.6236
1726.00,0.5993
1725.00,0.5755
1724.00,0.5533
1723.00,0.5334
1722.00,0.5167
1721.00,0.5026
1720.00,0.4901
1719.00,0.4787
1718.00,0.4693
1717.00,0.4633
1716.00,0.4600
1715.00,0.4569
1714.00,0.4529
1713.00,0.4491
1712.00,0.4464
1711.00,0.4445
1710.00,0.4433
1709.00,0.4423
1708.00,0.4411
1707.00,0.4395
1706.00,0.4376
1705.00,0.4359
1704.00,0.4344
1703.00,0.4323
1702.00,0.4290
1701.00,0.4251
1700.00,0.4213
1699.00,0.4192
1698.00,0.4187
1697.00,0.4190
1696.00,0.4185
1695.00,0.4195
1694.00,0.4164
1693.00,0.4116
1692.00,0.4116
1691.00,0.4102
1690.00,0.4095
1689.00,0.4086
1688.00,0.4081
1687.00,0.4074
1686.00,0.4068
1685.00,0.4061
1684.00,0.4054
1683.00,0.4048
1682.00,0.4044
1681.00,0.4043
1680.00,0.4043
1679.00,0.4042
1678.00,0.4042
1677.00,0.4045
1676.00,0.4049
1675.00,0.4055
1674.00,0.4060
1673.00,0.4071
1672.00,0.4072
1671.00,0.4068
1670.00,0.4079
1669.00,0.4093
1668.00,0.4115
1667.00,0.4133
1666.00,0.4147
1665.00,0.4160
1664.00,0.4174
1663.00,0.4190
1662.00,0.4212
1661.00,0.4239
1660.00,0.4267
1659.00,0.4292
1658.00,0.4316
1657.00,0.4342
1656.00,0.4368
1655.00,0.4396
1654.00,0.4430
1653.00,0.4473
1652.00,0.4515
1651.00,0.4547
1650.00,0.4573
1649.00,0.4604
1648.00,0.4641
1647.00,0.4683
1646.00,0.4726
1645.00,0.4769
1644.00,0.4809
1643.00,0.4848
1642.00,0.4886
1641.00,0.4929
1640.00,0.4972
1639.00,0.5007
1638.00,0.5039
1637.00,0.5077
1636.00,0.5127
1635.00,0.5185
1634.00,0.5236
1633.00,0.5277
1632.00,0.5313
1631.00,0.5349
1630.00,0.5387
1629.00,0.5431
1628.00,0.5478
1627.00,0.5526
1626.00,0.5574
1625.00,0.5625
1624.00,0.5683
1623.00,0.5750
1622.00,0.5825
1621.00,0.5905
1620.00,0.5985
1619.00,0.6069
1618.00,0.6174
1617.00,0.6317
1616.00,0.6488
1615.00,0.6655
1614.00,0.6806
1613.00,0.6960
1612.00,0.7139
1611.00,0.7343
1610.00,0.7557
1609.00,0.7769
1608.00,0.7966
1607.00,0.8132
1606.00,0.8267
1605.00,0.8392
1604.00,0.8525
1603.00,0.8672
1602.00,0.8842
1601.00,0.9053
1600.00,0.9315
1599.00,0.9627
1598.00,1.0002
1597.00,1.0467
1596.00,1.1049
1595.00,1.1754
1594.00,1.2599
1593.00,1.3632
1592.00,1.4909
1591.00,1.6446
1590.00,1.8253
1589.00,2.0458
1588.00,2.3278
1587.00,2.6777
1586.00,3.0280
1585.00,3.3918
1584.00,3.9477
1583.00,3.9529
1582.00,3.8096
1581.00,3.8057
1580.00,3.6937
1579.00,3.6906
1578.00,3.6370
1577.00,3.2116
1576.00,2.8621
1575.00,2.5301
1574.00,2.2561
1573.00,2.0579
1572.00,1.9052
1571.00,1.7822
1570.00,1.6937
1569.00,1.6534
1568.00,1.6627
1567.00,1.7134
1566.00,1.8042
1565.00,1.9460
1564.00,2.1480
1563.00,2.3933
1562.00,2.6314
1561.00,2.8442
1560.00,3.0227
1559.00,2.8481
1558.00,2.4870
1557.00,2.2092
1556.00,1.9767
1555.00,1.7607
1554.00,1.5770
1553.00,1.4374
1552.00,1.3341
1551.00,1.2521
1550.00,1.1855
1549.00,1.1355
1548.00,1.1010
1547.00,1.0771
1546.00,1.0605
1545.00,1.0511
1544.00,1.0490
1543.00,1.0516
1542.00,1.0557
1541.00,1.0601
1540.00,1.0631
1539.00,1.0613
1538.00,1.0534
1537.00,1.0410
1536.00,1.0248
1535.00,1.0038
1534.00,0.9791
1533.00,0.9557
1532.00,0.9369
1531.00,0.9221
1530.00,0.9099
1529.00,0.8998
1528.00,0.8906
1527.00,0.8804
1526.00,0.8691
1525.00,0.8584
1524.00,0.8493
1523.00,0.8420
1522.00,0.8379
1521.00,0.8389
1520.00,0.8436
1519.00,0.8483
1518.00,0.8516
1517.00,0.8538
1516.00,0.8536
1515.00,0.8479
1514.00,0.8355
1513.00,0.8179
1512.00,0.7976
1511.00,0.7770
1510.00,0.7583
1509.00,0.7426
1508.00,0.7303
1507.00,0.7218
1506.00,0.7178
1505.00,0.7168
1504.00,0.7168
1503.00,0.7177
1502.00,0.7186
1501.00,0.7206
1500.00,0.7243
1499.00,0.7291
1498.00,0.7356
1497.00,0.7453
1496.00,0.7581
1495.00,0.7717
1494.00,0.7843
1493.00,0.7969
1492.00,0.8108
1491.00,0.8267
1490.00,0.8448
1489.00,0.8655
1488.00,0.8877
1487.00,0.9107
1486.00,0.9354
1485.00,0.9632
1484.00,0.9946
1483.00,1.0298
1482.00,1.0704
1481.00,1.1184
1480.00,1.1734
1479.00,1.2352
1478.00,1.3070
1477.00,1.3941
1476.00,1.4984
1475.00,1.6202
1474.00,1.7672
1473.00,1.9598
1472.00,2.2152
1471.00,2.5297
1470.00,2.8877
1469.00,3.3192
1468.00,3.7697
1467.00,3.6891
1466.00,3.5520
1465.00,3.5394
1464.00,3.5974
1463.00,3.7980
1462.00,4.2574
1461.00,4.1367
1460.00,3.7856
1459.00,3.8234
1458.00,4.0039
1457.00,3.8414
1456.00,3.6712
1455.00,3.7091
1454.00,3.7804
1453.00,4.0034
1452.00,4.4494
1451.00,4.1269
1450.00,4.0690
1449.00,4.1629
1448.00,4.0997
1447.00,3.8279
1446.00,3.7411
1445.00,3.9790
1444.00,4.2625
1443.00,3.8541
1442.00,3.4223
1441.00,3.1562
1440.00,2.9360
1439.00,2.7226
1438.00,2.5297
1437.00,2.3544
1436.00,2.1894
1435.00,2.0389
1434.00,1.9061
1433.00,1.7847
1432.00,1.6687
1431.00,1.5593
1430.00,1.4616
1429.00,1.3789
1428.00,1.3118
1427.00,1.2586
1426.00,1.2167
1425.00,1.1839
1424.00,1.1596
1423.00,1.1431
1422.00,1.1328
1421.00,1.1276
1420.00,1.1280
1419.00,1.1352
1418.00,1.1493
1417.00,1.1692
1416.00,1.1941
1415.00,1.2235
1414.00,1.2554
1413.00,1.2866
1412.00,1.3120
1411.00,1.3262
1410.00,1.3258
1409.00,1.3112
1408.00,1.2845
1407.00,1.2483
1406.00,1.2047
1405.00,1.1570
1404.00,1.1090
1403.00,1.0641
1402.00,1.0239
1401.00,0.9880
1400.00,0.9564
1399.00,0.9300
1398.00,0.9099
1397.00,0.8956
1396.00,0.8853
1395.00,0.8782
1394.00,0.8740
1393.00,0.8737
1392.00,0.8790
1391.00,0.8914
1390.00,0.9127
1389.00,0.9457
1388.00,0.9942
1387.00,1.0596
1386.00,1.1387
1385.00,1.2270
1384.00,1.3240
1383.00,1.4327
1382.00,1.5565
1381.00,1.6987
1380.00,1.8597
1379.00,2.0242
1378.00,2.1490
1377.00,2.1855
1376.00,2.1270
1375.00,2.0043
1374.00,1.8588
1373.00,1.7246
1372.00,1.6160
1371.00,1.5331
1370.00,1.4734
1369.00,1.4348
1368.00,1.4127
1367.00,1.3964
1366.00,1.3722
1365.00,1.3307
1364.00,1.2724
1363.00,1.2063
1362.00,1.1439
1361.00,1.0921
1360.00,1.0518
1359.00,1.0215
1358.00,0.9990
1357.00,0.9834
1356.00,0.9739
1355.00,0.9696
1354.00,0.9692
1353.00,0.9714
1352.00,0.9751
1351.00,0.9803
1350.00,0.9877
1349.00,0.9990
1348.00,1.0160
1347.00,1.0384
1346.00,1.0621
1345.00,1.0795
1344.00,1.0827
1343.00,1.0689
1342.00,1.0419
1341.00,1.0090
1340.00,0.9758
1339.00,0.9446
1338.00,0.9159
1337.00,0.8893
1336.00,0.8652
1335.00,0.8439
1334.00,0.8256
1333.00,0.8105
1332.00,0.7985
1331.00,0.7896
1330.00,0.7836
1329.00,0.7805
1328.00,0.7801
1327.00,0.7818
1326.00,0.7846
1325.00,0.7876
1324.00,0.7905
1323.00,0.7934
1322.00,0.7965
1321.00,0.8002
1320.00,0.8047
1319.00,0.8098
1318.00,0.8154
1317.00,0.8216
1316.00,0.8284
1315.00,0.8360
1314.00,0.8442
1313.00,0.8532
1312.00,0.8632
1311.00,0.8742
1310.00,0.8857
1309.00,0.8971
1308.00,0.9075
1307.00,0.9159
1306.00,0.9216
1305.00,0.9251
1304.00,0.9274
1303.00,0.9299
1302.00,0.9334
1301.00,0.9386
1300.00,0.9451
1299.00,0.9520
1298.00,0.9579
1297.00,0.9622
1296.00,0.9653
1295.00,0.9676
1294.00,0.9698
1293.00,0.9719
1292.00,0.9734
1291.00,0.9732
1290.00,0.9703
1289.00,0.9646
1288.00,0.9569
1287.00,0.9481
1286.00,0.9391
1285.00,0.9306
1284.00,0.9238
1283.00,0.9196
1282.00,0.9191
1281.00,0.9224
1280.00,0.9285
1279.00,0.9341
1278.00,0.9356
1277.00,0.9304
1276.00,0.9196
1275.00,0.9061
1274.00,0.8932
1273.00,0.8827
1272.00,0.8747
1271.00,0.8682
1270.00,0.8619
1269.00,0.8548
1268.00,0.8464
1267.00,0.8365
1266.00,0.8257
1265.00,0.8149
1264.00,0.8051
1263.00,0.7963
1262.00,0.7885
1261.00,0.7814
1260.00,0.7750
1259.00,0.7695
1258.00,0.7649
1257.00,0.7610
1256.00,0.7576
1255.00,0.7547
1254.00,0.7521
1253.00,0.7496
1252.00,0.7464
1251.00,0.7419
1250.00,0.7362
1249.00,0.7296
1248.00,0.7227
1247.00,0.7162
1246.00,0.7102
1245.00,0.7048
1244.00,0.7002
1243.00,0.6962
1242.00,0.6924
1241.00,0.6880
1240.00,0.6831
1239.00,0.6783
1238.00,0.6752
1237.00,0.6750
1236.00,0.6782
1235.00,0.6848
1234.00,0.6939
1233.00,0.7041
1232.00,0.7137
1231.00,0.7208
1230.00,0.7233
1229.00,0.7204
1228.00,0.7119
1227.00,0.6989
1226.00,0.6830
1225.00,0.6660
1224.00,0.6494
1223.00,0.6345
1222.00,0.6219
1221.00,0.6119
1220.00,0.6042
1219.00,0.5986
1218.00,0.5948
1217.00,0.5925
1216.00,0.5916
1215.00,0.5917
1214.00,0.5924
1213.00,0.5929
1212.00,0.5927
1211.00,0.5914
1210.00,0.5890
1209.00,0.5855
1208.00,0.5813
1207.00,0.5768
1206.00,0.5728
1205.00,0.5700
1204.00,0.5691
1203.00,0.5706
1202.00,0.5746
1201.00,0.5802
1200.00,0.5853
1199.00,0.5875
1198.00,0.5859
1197.00,0.5815
1196.00,0.5768
1195.00,0.5737
1194.00,0.5731
1193.00,0.5747
1192.00,0.5776
1191.00,0.5807
1190.00,0.5826
1189.00,0.5823
1188.00,0.5799
1187.00,0.5761
1186.00,0.5721
1185.00,0.5686
1184.00,0.5659
1183.00,0.5641
1182.00,0.5627
1181.00,0.5616
1180.00,0.5605
1179.00,0.5597
1178.00,0.5591
1177.00,0.5591
1176.00,0.5599
1175.00,0.5617
1174.00,0.5645
1173.00,0.5680
1172.00,0.5719
1171.00,0.5757
1170.00,0.5789
1169.00,0.5811
1168.00,0.5824
1167.00,0.5834
1166.00,0.5844
1165.00,0.5858
1164.00,0.5875
1163.00,0.5894
1162.00,0.5914
1161.00,0.5934
1160.00,0.5954
1159.00,0.5972
1158.00,0.5990
1157.00,0.6007
1156.00,0.6026
1155.00,0.6048
1154.00,0.6071
1153.00,0.6091
1152.00,0.6106
1151.00,0.6114
1150.00,0.6119
1149.00,0.6124
1148.00,0.6133
1147.00,0.6145
1146.00,0.6163
1145.00,0.6188
1144.00,0.6224
1143.00,0.6274
1142.00,0.6336
1141.00,0.6412
1140.00,0.6499
1139.00,0.6599
1138.00,0.6706
1137.00,0.6820
1136.00,0.6938
1135.00,0.7054
1134.00,0.7153
1133.00,0.7213
1132.00,0.7224
1131.00,0.7190
1130.00,0.7134
1129.00,0.7088
1128.00,0.7078
1127.00,0.7110
1126.00,0.7165
1125.00,0.7211
1124.00,0.7221
1123.00,0.7184
1122.00,0.7111
1121.00,0.7026
1120.00,0.6946
1119.00,0.6881
1118.00,0.6832
1117.00,0.6794
1116.00,0.6758
1115.00,0.6708
1114.00,0.6630
1113.00,0.6514
1112.00,0.6368
1111.00,0.6208
1110.00,0.6054
1109.00,0.5920
1108.00,0.5817
1107.00,0.5745
1106.00,0.5704
1105.00,0.5693
1104.00,0.5710
1103.00,0.5750
1102.00,0.5810
1101.00,0.5876
1100.00,0.5933
1099.00,0.5959
1098.00,0.5941
1097.00,0.5882
1096.00,0.5805
1095.00,0.5733
1094.00,0.5681
1093.00,0.5645
1092.00,0.5621
1091.00,0.5602
1090.00,0.5590
1089.00,0.5587
1088.00,0.5597
1087.00,0.5622
1086.00,0.5664
1085.00,0.5725
1084.00,0.5806
1083.00,0.5908
1082.00,0.6028
1081.00,0.6159
1080.00,0.6294
1079.00,0.6422
1078.00,0.6532
1077.00,0.6612
1076.00,0.6655
1075.00,0.6658
1074.00,0.6622
1073.00,0.6555
1072.00,0.6468
1071.00,0.6371
1070.00,0.6269
1069.00,0.6165
1068.00,0.6062
1067.00,0.5962
1066.00,0.5869
1065.00,0.5784
1064.00,0.5708
1063.00,0.5643
1062.00,0.5586
1061.00,0.5534
1060.00,0.5484
1059.00,0.5434
1058.00,0.5385
1057.00,0.5338
1056.00,0.5295
1055.00,0.5255
1054.00,0.5219
1053.00,0.5184
1052.00,0.5153
1051.00,0.5128
1050.00,0.5110
1049.00,0.5101
1048.00,0.5101
1047.00,0.5109
1046.00,0.5123
1045.00,0.5140
1044.00,0.5159
1043.00,0.5181
1042.00,0.5203
1041.00,0.5218
1040.00,0.5224
1039.00,0.5218
1038.00,0.5202
1037.00,0.5182
1036.00,0.5165
1035.00,0.5158
1034.00,0.5163
1033.00,0.5182
1032.00,0.5210
1031.00,0.5245
1030.00,0.5280
1029.00,0.5307
1028.00,0.5318
1027.00,0.5306
1026.00,0.5269
1025.00,0.5211
1024.00,0.5139
1023.00,0.5066
1022.00,0.4997
1021.00,0.4940
1020.00,0.4897
1019.00,0.4867
1018.00,0.4847
1017.00,0.4834
1016.00,0.4824
1015.00,0.4817
1014.00,0.4810
1013.00,0.4801
1012.00,0.4789
1011.00,0.4776
1010.00,0.4767
1009.00,0.4768
1008.00,0.4779
1007.00,0.4798
1006.00,0.4820
1005.00,0.4838
1004.00,0.4850
1003.00,0.4858
1002.00,0.4866
1001.00,0.4875
1000.00,0.4885
999.00,0.4894
998.00,0.4896
997.00,0.4892
996.00,0.4880
995.00,0.4865
994.00,0.4849
993.00,0.4834
992.00,0.4820
991.00,0.4810
990.00,0.4804
989.00,0.4799
988.00,0.4791
987.00,0.4777
986.00,0.4762
985.00,0.4751
984.00,0.4753
983.00,0.4771
982.00,0.4806
981.00,0.4857
980.00,0.4922
979.00,0.5007
978.00,0.5117
977.00,0.5263
976.00,0.5456
975.00,0.5706
974.00,0.6019
973.00,0.6406
972.00,0.6874
971.00,0.7425
970.00,0.8035
969.00,0.8642
968.00,0.9137
967.00,0.9387
966.00,0.9317
965.00,0.8968
964.00,0.8460
963.00,0.7913
962.00,0.7409
961.00,0.6996
960.00,0.6701
959.00,0.6533
958.00,0.6474
957.00,0.6486
956.00,0.6518
955.00,0.6522
954.00,0.6471
953.00,0.6359
952.00,0.6204
951.00,0.6029
950.00,0.5855
949.00,0.5696
948.00,0.5565
947.00,0.5466
946.00,0.5400
945.00,0.5364
944.00,0.5353
943.00,0.5359
942.00,0.5373
941.00,0.5388
940.00,0.5396
939.00,0.5392
938.00,0.5376
937.00,0.5349
936.00,0.5316
935.00,0.5278
934.00,0.5239
933.00,0.5199
932.00,0.5158
931.00,0.5117
930.00,0.5076
929.00,0.5040
928.00,0.5012
927.00,0.4997
926.00,0.5000
925.00,0.5023
924.00,0.5067
923.00,0.5124
922.00,0.5180
921.00,0.5217
920.00,0.5216
919.00,0.5172
918.00,0.5091
917.00,0.4993
916.00,0.4892
915.00,0.4803
914.00,0.4731
913.00,0.4675
912.00,0.4635
911.00,0.4608
910.00,0.4591
909.00,0.4585
908.00,0.4592
907.00,0.4616
906.00,0.4659
905.00,0.4713
904.00,0.4758
903.00,0.4776
902.00,0.4757
901.00,0.4714
900.00,0.4670
899.00,0.4642
898.00,0.4635
897.00,0.4645
896.00,0.4666
895.00,0.4696
894.00,0.4734
893.00,0.4777
892.00,0.4826
891.00,0.4873
890.00,0.4913
889.00,0.4938
888.00,0.4943
887.00,0.4926
886.00,0.4892
885.00,0.4847
884.00,0.4801
883.00,0.4763
882.00,0.4737
881.00,0.4722
880.00,0.4715
879.00,0.4715
878.00,0.4717
877.00,0.4720
876.00,0.4726
875.00,0.4732
874.00,0.4738
873.00,0.4741
872.00,0.4743
871.00,0.4747
870.00,0.4754
869.00,0.4764
868.00,0.4781
867.00,0.4807
866.00,0.4846
865.00,0.4897
864.00,0.4955
863.00,0.5009
862.00,0.5039
861.00,0.5031
860.00,0.4980
859.00,0.4900
858.00,0.4811
857.00,0.4730
856.00,0.4667
855.00,0.4620
854.00,0.4587
853.00,0.4562
852.00,0.4543
851.00,0.4528
850.00,0.4517
849.00,0.4506
848.00,0.4496
847.00,0.4486
846.00,0.4476
845.00,0.4468
844.00,0.4464
843.00,0.4468
842.00,0.4487
841.00,0.4528
840.00,0.4598
839.00,0.4697
838.00,0.4813
837.00,0.4921
836.00,0.4990
835.00,0.5000
834.00,0.4954
833.00,0.4879
832.00,0.4807
831.00,0.4761
830.00,0.4754
829.00,0.4782
828.00,0.4835
827.00,0.4900
826.00,0.4964
825.00,0.5025
824.00,0.5086
823.00,0.5148
822.00,0.5203
821.00,0.5237
820.00,0.5244
819.00,0.5226
818.00,0.5190
817.00,0.5146
816.00,0.5101
815.00,0.5060
814.00,0.5020
813.00,0.4977
812.00,0.4928
811.00,0.4876
810.00,0.4822
809.00,0.4770
808.00,0.4720
807.00,0.4675
806.00,0.4634
805.00,0.4598
804.00,0.4564
803.00,0.4532
802.00,0.4504
801.00,0.4483
800.00,0.4473
799.00,0.4474
798.00,0.4482
797.00,0.4492
796.00,0.4500
795.00,0.4505
794.00,0.4510
793.00,0.4516
792.00,0.4525
791.00,0.4538
790.00,0.4553
789.00,0.4570
788.00,0.4588
787.00,0.4611
786.00,0.4641
785.00,0.4680
784.00,0.4730
783.00,0.4794
782.00,0.4875
781.00,0.4975
780.00,0.5090
779.00,0.5205
778.00,0.5292
777.00,0.5324
776.00,0.5294
775.00,0.5218
774.00,0.5132
773.00,0.5065
772.00,0.5032
771.00,0.5029
770.00,0.5048
769.00,0.5077
768.00,0.5108
767.00,0.5134
766.00,0.5153
765.00,0.5167
764.00,0.5181
763.00,0.5205
762.00,0.5241
761.00,0.5288
760.00,0.5342
759.00,0.5393
758.00,0.5435
757.00,0.5466
756.00,0.5495
755.00,0.5531
754.00,0.5578
753.00,0.5636
752.00,0.5702
751.00,0.5774
750.00,0.5849
749.00,0.5925
748.00,0.6000
747.00,0.6079
746.00,0.6165
745.00,0.6262
744.00,0.6368
743.00,0.6477
742.00,0.6586
741.00,0.6691
740.00,0.6792
739.00,0.6888
738.00,0.6982
737.00,0.7077
736.00,0.7175
735.00,0.7280
734.00,0.7390
733.00,0.7501
732.00,0.7621
731.00,0.7763
730.00,0.7941
729.00,0.8163
728.00,0.8442
727.00,0.8798
726.00,0.9258
725.00,0.9823
724.00,1.0442
723.00,1.0993
722.00,1.1299
721.00,1.1223
720.00,1.0785
719.00,1.0150
718.00,0.9491
717.00,0.8907
716.00,0.8434
715.00,0.8072
714.00,0.7800
713.00,0.7591
712.00,0.7417
711.00,0.7260
710.00,0.7110
709.00,0.6959
708.00,0.6810
707.00,0.6666
706.00,0.6528
705.00,0.6393
704.00,0.6255
703.00,0.6118
702.00,0.5985
701.00,0.5860
700.00,0.5737
699.00,0.5610
698.00,0.5471
697.00,0.5322
696.00,0.5173
695.00,0.5038
694.00,0.4924
693.00,0.4830
692.00,0.4751
691.00,0.4685
690.00,0.4626
689.00,0.4572
688.00,0.4522
687.00,0.4478
686.00,0.4439
685.00,0.4405
684.00,0.4377
683.00,0.4354
682.00,0.4335
681.00,0.4320
680.00,0.4307
679.00,0.4297
678.00,0.4291
677.00,0.4286
676.00,0.4283
675.00,0.4282
674.00,0.4280
673.00,0.4278
672.00,0.4278
671.00,0.4280
670.00,0.4282
669.00,0.4285
668.00,0.4284
667.00,0.4279
666.00,0.4281
665.00,0.4288
664.00,0.4294
663.00,0.4300
662.00,0.4310
661.00,0.4323
660.00,0.4336
659.00,0.4349
658.00,0.4362
657.00,0.4375
656.00,0.4390
655.00,0.4407
654.00,0.4425
653.00,0.4437
652.00,0.4444
651.00,0.4449
650.00,0.4453
649.00,0.4459
648.00,0.4464
647.00,0.4469
646.00,0.4478
645.00,0.4493
644.00,0.4514
643.00,0.4539
642.00,0.4568
641.00,0.4599
640.00,0.4630
639.00,0.4661
638.00,0.4689
637.00,0.4714
636.00,0.4738
635.00,0.4761
634.00,0.4786
633.00,0.4809
632.00,0.4829
631.00,0.4848
630.00,0.4869
629.00,0.4897
628.00,0.4929
627.00,0.4959
626.00,0.4984
625.00,0.5007
624.00,0.5031
623.00,0.5058
622.00,0.5085
621.00,0.5109
620.00,0.5126
619.00,0.5138
618.00,0.5144
617.00,0.5146
616.00,0.5146
615.00,0.5142
614.00,0.5133
613.00,0.5117
612.00,0.5100
611.00,0.5087
610.00,0.5082
609.00,0.5084
608.00,0.5091
607.00,0.5097
606.00,0.5103
605.00,0.5105
604.00,0.5100
603.00,0.5086
602.00,0.5063
601.00,0.5037
600.00,0.5014
599.00,0.4997
598.00,0.4987
597.00,0.4984
596.00,0.4987
595.00,0.4991
594.00,0.4993
593.00,0.4990
592.00,0.4987
591.00,0.4986
590.00,0.4988
589.00,0.4994
588.00,0.5005
587.00,0.5027
586.00,0.5059
585.00,0.5100
584.00,0.5141
583.00,0.5178
582.00,0.5212
581.00,0.5242
580.00,0.5268
579.00,0.5289
578.00,0.5309
577.00,0.5331
576.00,0.5356
575.00,0.5382
574.00,0.5407
573.00,0.5429
572.00,0.5454
571.00,0.5480
570.00,0.5511
569.00,0.5546
568.00,0.5589
567.00,0.5636
566.00,0.5680
565.00,0.5717
564.00,0.5748
563.00,0.5780
562.00,0.5818
561.00,0.5858
560.00,0.5896
559.00,0.5930
558.00,0.5963
557.00,0.6003
556.00,0.6052
555.00,0.6107
554.00,0.6161
553.00,0.6212
552.00,0.6258
551.00,0.6303
550.00,0.6346
