Created as New Dataset,
cm-1,A
4000.00,0.4013
3999.00,0.4010
3998.00,0.4006
3997.00,0.4002
3996.00,0.3999
3995.00,0.3996
3994.00,0.3994
3993.00,0.3991
3992.00,0.3988
3991.00,0.3985
3990.00,0.3981
3989.00,0.3977
3988.00,0.3974
3987.00,0.3970
3986.00,0.3967
3985.00,0.3964
3984.00,0.3961
3983.00,0.3958
3982.00,0.3955
3981.00,0.3952
3980.00,0.3948
3979.00,0.3945
3978.00,0.3942
3977.00,0.3939
3976.00,0.3936
3975.00,0.3932
3974.00,0.3929
3973.00,0.3926
3972.00,0.3923
3971.00,0.3921
3970.00,0.3919
3969.00,0.3917
3968.00,0.3914
3967.00,0.3911
3966.00,0.3909
3965.00,0.3906
3964.00,0.3903
3963.00,0.3901
3962.00,0.3899
3961.00,0.3897
3960.00,0.3895
3959.00,0.3894
3958.00,0.3893
3957.00,0.3892
3956.00,0.3890
3955.00,0.3889
3954.00,0.3888
3953.00,0.3887
3952.00,0.3886
3951.00,0.3885
3950.00,0.3884
3949.00,0.3883
3948.00,0.3882
3947.00,0.3880
3946.00,0.3879
3945.00,0.3878
3944.00,0.3876
3943.00,0.3876
3942.00,0.3875
3941.00,0.3873
3940.00,0.3872
3939.00,0.3870
3938.00,0.3868
3937.00,0.3867
3936.00,0.3867
3935.00,0.3866
3934.00,0.3865
3933.00,0.3864
3932.00,0.3863
3931.00,0.3863
3930.00,0.3862
3929.00,0.3861
3928.00,0.3861
3927.00,0.3860
3926.00,0.3860
3925.00,0.3860
3924.00,0.3860
3923.00,0.3861
3922.00,0.3861
3921.00,0.3860
3920.00,0.3859
3919.00,0.3859
3918.00,0.3858
3917.00,0.3859
3916.00,0.3859
3915.00,0.3859
3914.00,0.3859
3913.00,0.3859
3912.00,0.3858
3911.00,0.3858
3910.00,0.3856
3909.00,0.3855
3908.00,0.3854
3907.00,0.3853
3906.00,0.3852
3905.00,0.3851
3904.00,0.3851
3903.00,0.3850
3902.00,0.3850
3901.00,0.3850
3900.00,0.3850
3899.00,0.3849
3898.00,0.3848
3897.00,0.3847
3896.00,0.3846
3895.00,0.3845
3894.00,0.3845
3893.00,0.3844
3892.00,0.3843
3891.00,0.3842
3890.00,0.3841
3889.00,0.3840
3888.00,0.3839
3887.00,0.3840
3886.00,0.3841
3885.00,0.3841
3884.00,0.3840
3883.00,0.3839
3882.00,0.3838
3881.00,0.3837
3880.00,0.3837
3879.00,0.3837
3878.00,0.3836
3877.00,0.3836
3876.00,0.3835
3875.00,0.3835
3874.00,0.3833
3873.00,0.3831
3872.00,0.3828
3871.00,0.3827
3870.00,0.3825
3869.00,0.3824
3868.00,0.3823
3867.00,0.3822
3866.00,0.3820
3865.00,0.3819
3864.00,0.3818
3863.00,0.3816
3862.00,0.3814
3861.00,0.3813
3860.00,0.3811
3859.00,0.3810
3858.00,0.3809
3857.00,0.3807
3856.00,0.3806
3855.00,0.3806
3854.00,0.3805
3853.00,0.3805
3852.00,0.3805
3851.00,0.3805
3850.00,0.3805
3849.00,0.3805
3848.00,0.3805
3847.00,0.3806
3846.00,0.3806
3845.00,0.3805
3844.00,0.3805
3843.00,0.3804
3842.00,0.3802
3841.00,0.3802
3840.00,0.3801
3839.00,0.3801
3838.00,0.3801
3837.00,0.3799
3836.00,0.3797
3835.00,0.3795
3834.00,0.3793
3833.00,0.3792
3832.00,0.3792
3831.00,0.3791
3830.00,0.3791
3829.00,0.3790
3828.00,0.3790
3827.00,0.3790
3826.00,0.3789
3825.00,0.3788
3824.00,0.3787
3823.00,0.3786
3822.00,0.3785
3821.00,0.3784
3820.00,0.3782
3819.00,0.3780
3818.00,0.3778
3817.00,0.3777
3816.00,0.3776
3815.00,0.3774
3814.00,0.3771
3813.00,0.3769
3812.00,0.3767
3811.00,0.3766
3810.00,0.3766
3809.00,0.3765
3808.00,0.3762
3807.00,0.3760
3806.00,0.3757
3805.00,0.3755
3804.00,0.3753
3803.00,0.3752
3802.00,0.3750
3801.00,0.3749
3800.00,0.3747
3799.00,0.3744
3798.00,0.3742
3797.00,0.3740
3796.00,0.3738
3795.00,0.3736
3794.00,0.3735
3793.00,0.3733
3792.00,0.3732
3791.00,0.3731
3790.00,0.3729
3789.00,0.3727
3788.00,0.3725
3787.00,0.3724
3786.00,0.3723
3785.00,0.3723
3784.00,0.3722
3783.00,0.3721
3782.00,0.3720
3781.00,0.3719
3780.00,0.3717
3779.00,0.3715
3778.00,0.3713
3777.00,0.3711
3776.00,0.3710
3775.00,0.3709
3774.00,0.3708
3773.00,0.3706
3772.00,0.3703
3771.00,0.3700
3770.00,0.3697
3769.00,0.3695
3768.00,0.3693
3767.00,0.3691
3766.00,0.3689
3765.00,0.3686
3764.00,0.3685
3763.00,0.3683
3762.00,0.3682
3761.00,0.3680
3760.00,0.3678
3759.00,0.3676
3758.00,0.3675
3757.00,0.3673
3756.00,0.3671
3755.00,0.3669
3754.00,0.3667
3753.00,0.3665
3752.00,0.3665
3751.00,0.3664
3750.00,0.3664
3749.00,0.3663
3748.00,0.3662
3747.00,0.3661
3746.00,0.3660
3745.00,0.3660
3744.00,0.3660
3743.00,0.3659
3742.00,0.3658
3741.00,0.3656
3740.00,0.3656
3739.00,0.3655
3738.00,0.3654
3737.00,0.3652
3736.00,0.3650
3735.00,0.3649
3734.00,0.3647
3733.00,0.3646
3732.00,0.3644
3731.00,0.3643
3730.00,0.3640
3729.00,0.3637
3728.00,0.3635
3727.00,0.3632
3726.00,0.3630
3725.00,0.3628
3724.00,0.3627
3723.00,0.3625
3722.00,0.3624
3721.00,0.3622
3720.00,0.3621
3719.00,0.3620
3718.00,0.3619
3717.00,0.3619
3716.00,0.3619
3715.00,0.3618
3714.00,0.3618
3713.00,0.3618
3712.00,0.3618
3711.00,0.3619
3710.00,0.3619
3709.00,0.3618
3708.00,0.3618
3707.00,0.3619
3706.00,0.3619
3705.00,0.3618
3704.00,0.3617
3703.00,0.3616
3702.00,0.3615
3701.00,0.3615
3700.00,0.3614
3699.00,0.3614
3698.00,0.3614
3697.00,0.3614
3696.00,0.3614
3695.00,0.3614
3694.00,0.3613
3693.00,0.3612
3692.00,0.3611
3691.00,0.3610
3690.00,0.3610
3689.00,0.3610
3688.00,0.3611
3687.00,0.3611
3686.00,0.3611
3685.00,0.3612
3684.00,0.3612
3683.00,0.3612
3682.00,0.3612
3681.00,0.3612
3680.00,0.3612
3679.00,0.3612
3678.00,0.3612
3677.00,0.3612
3676.00,0.3611
3675.00,0.3611
3674.00,0.3611
3673.00,0.3611
3672.00,0.3611
3671.00,0.3612
3670.00,0.3613
3669.00,0.3612
3668.00,0.3611
3667.00,0.3610
3666.00,0.3609
3665.00,0.3610
3664.00,0.3611
3663.00,0.3612
3662.00,0.3612
3661.00,0.3613
3660.00,0.3613
3659.00,0.3614
3658.00,0.3615
3657.00,0.3618
3656.00,0.3620
3655.00,0.3622
3654.00,0.3624
3653.00,0.3626
3652.00,0.3629
3651.00,0.3632
3650.00,0.3634
3649.00,0.3636
3648.00,0.3637
3647.00,0.3639
3646.00,0.3641
3645.00,0.3643
3644.00,0.3645
3643.00,0.3646
3642.00,0.3648
3641.00,0.3649
3640.00,0.3651
3639.00,0.3652
3638.00,0.3654
3637.00,0.3656
3636.00,0.3658
3635.00,0.3661
3634.00,0.3663
3633.00,0.3665
3632.00,0.3667
3631.00,0.3669
3630.00,0.3671
3629.00,0.3674
3628.00,0.3677
3627.00,0.3681
3626.00,0.3684
3625.00,0.3688
3624.00,0.3691
3623.00,0.3693
3622.00,0.3694
3621.00,0.3694
3620.00,0.3692
3619.00,0.3690
3618.00,0.3687
3617.00,0.3685
3616.00,0.3684
3615.00,0.3684
3614.00,0.3685
3613.00,0.3685
3612.00,0.3686
3611.00,0.3686
3610.00,0.3687
3609.00,0.3687
3608.00,0.3688
3607.00,0.3688
3606.00,0.3689
3605.00,0.3688
3604.00,0.3687
3603.00,0.3685
3602.00,0.3683
3601.00,0.3680
3600.00,0.3676
3599.00,0.3672
3598.00,0.3668
3597.00,0.3663
3596.00,0.3657
3595.00,0.3651
3594.00,0.3646
3593.00,0.3641
3592.00,0.3637
3591.00,0.3635
3590.00,0.3633
3589.00,0.3631
3588.00,0.3630
3587.00,0.3629
3586.00,0.3628
3585.00,0.3628
3584.00,0.3628
3583.00,0.3628
3582.00,0.3629
3581.00,0.3630
3580.00,0.3632
3579.00,0.3633
3578.00,0.3634
3577.00,0.3636
3576.00,0.3638
3575.00,0.3640
3574.00,0.3643
3573.00,0.3645
3572.00,0.3648
3571.00,0.3650
3570.00,0.3652
3569.00,0.3654
3568.00,0.3656
3567.00,0.3659
3566.00,0.3661
3565.00,0.3664
3564.00,0.3666
3563.00,0.3669
3562.00,0.3672
3561.00,0.3676
3560.00,0.3679
3559.00,0.3682
3558.00,0.3685
3557.00,0.3688
3556.00,0.3692
3555.00,0.3696
3554.00,0.3701
3553.00,0.3706
3552.00,0.3710
3551.00,0.3714
3550.00,0.3718
3549.00,0.3722
3548.00,0.3727
3547.00,0.3732
3546.00,0.3737
3545.00,0.3741
3544.00,0.3746
3543.00,0.3751
3542.00,0.3755
3541.00,0.3760
3540.00,0.3765
3539.00,0.3769
3538.00,0.3774
3537.00,0.3778
3536.00,0.3782
3535.00,0.3787
3534.00,0.3791
3533.00,0.3796
3532.00,0.3800
3531.00,0.3804
3530.00,0.3808
3529.00,0.3811
3528.00,0.3815
3527.00,0.3819
3526.00,0.3823
3525.00,0.3828
3524.00,0.3832
3523.00,0.3837
3522.00,0.3841
3521.00,0.3845
3520.00,0.3849
3519.00,0.3853
3518.00,0.3858
3517.00,0.3864
3516.00,0.3870
3515.00,0.3876
3514.00,0.3882
3513.00,0.3887
3512.00,0.3893
3511.00,0.3898
3510.00,0.3903
3509.00,0.3908
3508.00,0.3914
3507.00,0.3920
3506.00,0.3926
3505.00,0.3933
3504.00,0.3940
3503.00,0.3947
3502.00,0.3954
3501.00,0.3961
3500.00,0.3967
3499.00,0.3974
3498.00,0.3981
3497.00,0.3988
3496.00,0.3996
3495.00,0.4004
3494.00,0.4012
3493.00,0.4019
3492.00,0.4027
3491.00,0.4035
3490.00,0.4042
3489.00,0.4050
3488.00,0.4058
3487.00,0.4065
3486.00,0.4072
3485.00,0.4079
3484.00,0.4086
3483.00,0.4093
3482.00,0.4100
3481.00,0.4107
3480.00,0.4114
3479.00,0.4120
3478.00,0.4125
3477.00,0.4130
3476.00,0.4136
3475.00,0.4142
3474.00,0.4149
3473.00,0.4156
3472.00,0.4162
3471.00,0.4168
3470.00,0.4174
3469.00,0.4180
3468.00,0.4186
3467.00,0.4192
3466.00,0.4199
3465.00,0.4206
3464.00,0.4212
3463.00,0.4219
3462.00,0.4226
3461.00,0.4233
3460.00,0.4240
3459.00,0.4247
3458.00,0.4254
3457.00,0.4262
3456.00,0.4269
3455.00,0.4276
3454.00,0.4282
3453.00,0.4289
3452.00,0.4296
3451.00,0.4304
3450.00,0.4312
3449.00,0.4320
3448.00,0.4328
3447.00,0.4336
3446.00,0.4344
3445.00,0.4352
3444.00,0.4361
3443.00,0.4370
3442.00,0.4380
3441.00,0.4389
3440.00,0.4398
3439.00,0.4406
3438.00,0.4415
3437.00,0.4424
3436.00,0.4433
3435.00,0.4442
3434.00,0.4451
3433.00,0.4460
3432.00,0.4468
3431.00,0.4477
3430.00,0.4487
3429.00,0.4496
3428.00,0.4505
3427.00,0.4514
3426.00,0.4522
3425.00,0.4531
3424.00,0.4539
3423.00,0.4549
3422.00,0.4558
3421.00,0.4568
3420.00,0.4578
3419.00,0.4588
3418.00,0.4599
3417.00,0.4610
3416.00,0.4621
3415.00,0.4632
3414.00,0.4642
3413.00,0.4653
3412.00,0.4663
3411.00,0.4674
3410.00,0.4685
3409.00,0.4697
3408.00,0.4708
3407.00,0.4720
3406.00,0.4732
3405.00,0.4744
3404.00,0.4756
3403.00,0.4769
3402.00,0.4781
3401.00,0.4793
3400.00,0.4805
3399.00,0.4816
3398.00,0.4829
3397.00,0.4841
3396.00,0.4853
3395.00,0.4866
3394.00,0.4879
3393.00,0.4892
3392.00,0.4905
3391.00,0.4918
3390.00,0.4930
3389.00,0.4943
3388.00,0.4956
3387.00,0.4968
3386.00,0.4981
3385.00,0.4993
3384.00,0.5007
3383.00,0.5020
3382.00,0.5033
3381.00,0.5047
3380.00,0.5062
3379.00,0.5078
3378.00,0.5093
3377.00,0.5108
3376.00,0.5123
3375.00,0.5138
3374.00,0.5153
3373.00,0.5169
3372.00,0.5186
3371.00,0.5203
3370.00,0.5220
3369.00,0.5237
3368.00,0.5254
3367.00,0.5270
3366.00,0.5287
3365.00,0.5305
3364.00,0.5323
3363.00,0.5341
3362.00,0.5359
3361.00,0.5378
3360.00,0.5396
3359.00,0.5414
3358.00,0.5432
3357.00,0.5451
3356.00,0.5469
3355.00,0.5488
3354.00,0.5506
3353.00,0.5524
3352.00,0.5542
3351.00,0.5559
3350.00,0.5576
3349.00,0.5594
3348.00,0.5611
3347.00,0.5629
3346.00,0.5645
3345.00,0.5662
3344.00,0.5677
3343.00,0.5691
3342.00,0.5705
3341.00,0.5719
3340.00,0.5733
3339.00,0.5747
3338.00,0.5760
3337.00,0.5771
3336.00,0.5782
3335.00,0.5792
3334.00,0.5801
3333.00,0.5809
3332.00,0.5814
3331.00,0.5819
3330.00,0.5823
3329.00,0.5826
3328.00,0.5829
3327.00,0.5830
3326.00,0.5830
3325.00,0.5829
3324.00,0.5827
3323.00,0.5824
3322.00,0.5821
3321.00,0.5817
3320.00,0.5812
3319.00,0.5805
3318.00,0.5799
3317.00,0.5792
3316.00,0.5785
3315.00,0.5777
3314.00,0.5769
3313.00,0.5760
3312.00,0.5751
3311.00,0.5742
3310.00,0.5733
3309.00,0.5724
3308.00,0.5715
3307.00,0.5705
3306.00,0.5694
3305.00,0.5683
3304.00,0.5672
3303.00,0.5662
3302.00,0.5653
3301.00,0.5645
3300.00,0.5638
3299.00,0.5630
3298.00,0.5622
3297.00,0.5616
3296.00,0.5609
3295.00,0.5602
3294.00,0.5596
3293.00,0.5589
3292.00,0.5583
3291.00,0.5578
3290.00,0.5574
3289.00,0.5571
3288.00,0.5569
3287.00,0.5567
3286.00,0.5564
3285.00,0.5562
3284.00,0.5559
3283.00,0.5557
3282.00,0.5556
3281.00,0.5557
3280.00,0.5557
3279.00,0.5559
3278.00,0.5561
3277.00,0.5563
3276.00,0.5565
3275.00,0.5567
3274.00,0.5569
3273.00,0.5572
3272.00,0.5575
3271.00,0.5579
3270.00,0.5583
3269.00,0.5587
3268.00,0.5591
3267.00,0.5596
3266.00,0.5602
3265.00,0.5607
3264.00,0.5611
3263.00,0.5616
3262.00,0.5621
3261.00,0.5627
3260.00,0.5632
3259.00,0.5637
3258.00,0.5643
3257.00,0.5648
3256.00,0.5653
3255.00,0.5658
3254.00,0.5663
3253.00,0.5667
3252.00,0.5671
3251.00,0.5675
3250.00,0.5679
3249.00,0.5684
3248.00,0.5688
3247.00,0.5692
3246.00,0.5695
3245.00,0.5698
3244.00,0.5701
3243.00,0.5703
3242.00,0.5705
3241.00,0.5707
3240.00,0.5707
3239.00,0.5707
3238.00,0.5707
3237.00,0.5707
3236.00,0.5708
3235.00,0.5709
3234.00,0.5709
3233.00,0.5710
3232.00,0.5710
3231.00,0.5710
3230.00,0.5710
3229.00,0.5709
3228.00,0.5706
3227.00,0.5703
3226.00,0.5699
3225.00,0.5696
3224.00,0.5693
3223.00,0.5690
3222.00,0.5687
3221.00,0.5684
3220.00,0.5680
3219.00,0.5676
3218.00,0.5671
3217.00,0.5666
3216.00,0.5662
3215.00,0.5658
3214.00,0.5654
3213.00,0.5650
3212.00,0.5645
3211.00,0.5641
3210.00,0.5636
3209.00,0.5632
3208.00,0.5628
3207.00,0.5623
3206.00,0.5618
3205.00,0.5613
3204.00,0.5608
3203.00,0.5604
3202.00,0.5599
3201.00,0.5593
3200.00,0.5587
3199.00,0.5581
3198.00,0.5574
3197.00,0.5568
3196.00,0.5562
3195.00,0.5556
3194.00,0.5549
3193.00,0.5543
3192.00,0.5535
3191.00,0.5528
3190.00,0.5520
3189.00,0.5512
3188.00,0.5504
3187.00,0.5496
3186.00,0.5488
3185.00,0.5480
3184.00,0.5471
3183.00,0.5461
3182.00,0.5452
3181.00,0.5443
3180.00,0.5435
3179.00,0.5427
3178.00,0.5418
3177.00,0.5409
3176.00,0.5399
3175.00,0.5389
3174.00,0.5380
3173.00,0.5370
3172.00,0.5360
3171.00,0.5350
3170.00,0.5340
3169.00,0.5329
3168.00,0.5319
3167.00,0.5310
3166.00,0.5300
3165.00,0.5289
3164.00,0.5278
3163.00,0.5267
3162.00,0.5255
3161.00,0.5244
3160.00,0.5234
3159.00,0.5224
3158.00,0.5214
3157.00,0.5204
3156.00,0.5194
3155.00,0.5183
3154.00,0.5173
3153.00,0.5163
3152.00,0.5153
3151.00,0.5144
3150.00,0.5134
3149.00,0.5125
3148.00,0.5116
3147.00,0.5107
3146.00,0.5097
3145.00,0.5088
3144.00,0.5079
3143.00,0.5071
3142.00,0.5064
3141.00,0.5057
3140.00,0.5051
3139.00,0.5044
3138.00,0.5037
3137.00,0.5030
3136.00,0.5023
3135.00,0.5016
3134.00,0.5009
3133.00,0.5004
3132.00,0.5000
3131.00,0.4996
3130.00,0.4993
3129.00,0.4990
3128.00,0.4987
3127.00,0.4984
3126.00,0.4982
3125.00,0.4980
3124.00,0.4978
3123.00,0.4977
3122.00,0.4977
3121.00,0.4976
3120.00,0.4976
3119.00,0.4976
3118.00,0.4977
3117.00,0.4977
3116.00,0.4978
3115.00,0.4980
3114.00,0.4982
3113.00,0.4986
3112.00,0.4990
3111.00,0.4995
3110.00,0.5000
3109.00,0.5006
3108.00,0.5012
3107.00,0.5018
3106.00,0.5025
3105.00,0.5032
3104.00,0.5039
3103.00,0.5047
3102.00,0.5054
3101.00,0.5062
3100.00,0.5069
3099.00,0.5077
3098.00,0.5085
3097.00,0.5094
3096.00,0.5105
3095.00,0.5118
3094.00,0.5132
3093.00,0.5148
3092.00,0.5166
3091.00,0.5186
3090.00,0.5207
3089.00,0.5230
3088.00,0.5255
3087.00,0.5280
3086.00,0.5307
3085.00,0.5334
3084.00,0.5362
3083.00,0.5391
3082.00,0.5422
3081.00,0.5454
3080.00,0.5489
3079.00,0.5527
3078.00,0.5566
3077.00,0.5606
3076.00,0.5647
3075.00,0.5689
3074.00,0.5731
3073.00,0.5774
3072.00,0.5817
3071.00,0.5861
3070.00,0.5905
3069.00,0.5950
3068.00,0.5994
3067.00,0.6037
3066.00,0.6079
3065.00,0.6119
3064.00,0.6158
3063.00,0.6193
3062.00,0.6226
3061.00,0.6256
3060.00,0.6284
3059.00,0.6311
3058.00,0.6337
3057.00,0.6364
3056.00,0.6392
3055.00,0.6422
3054.00,0.6454
3053.00,0.6487
3052.00,0.6523
3051.00,0.6562
3050.00,0.6603
3049.00,0.6647
3048.00,0.6691
3047.00,0.6737
3046.00,0.6783
3045.00,0.6830
3044.00,0.6876
3043.00,0.6923
3042.00,0.6969
3041.00,0.7014
3040.00,0.7061
3039.00,0.7108
3038.00,0.7158
3037.00,0.7211
3036.00,0.7267
3035.00,0.7327
3034.00,0.7392
3033.00,0.7462
3032.00,0.7536
3031.00,0.7615
3030.00,0.7699
3029.00,0.7786
3028.00,0.7877
3027.00,0.7971
3026.00,0.8069
3025.00,0.8169
3024.00,0.8273
3023.00,0.8381
3022.00,0.8492
3021.00,0.8607
3020.00,0.8725
3019.00,0.8846
3018.00,0.8967
3017.00,0.9088
3016.00,0.9210
3015.00,0.9332
3014.00,0.9457
3013.00,0.9584
3012.00,0.9716
3011.00,0.9851
3010.00,0.9992
3009.00,1.0138
3008.00,1.0291
3007.00,1.0450
3006.00,1.0615
3005.00,1.0787
3004.00,1.0966
3003.00,1.1151
3002.00,1.1343
3001.00,1.1543
3000.00,1.1752
2999.00,1.1974
2998.00,1.2213
2997.00,1.2473
2996.00,1.2759
2995.00,1.3076
2994.00,1.3430
2993.00,1.3824
2992.00,1.4263
2991.00,1.4755
2990.00,1.5307
2989.00,1.5925
2988.00,1.6613
2987.00,1.7372
2986.00,1.8203
2985.00,1.9109
2984.00,2.0102
2983.00,2.1218
2982.00,2.2495
2981.00,2.3950
2980.00,2.5549
2979.00,2.7232
2978.00,2.8972
2977.00,3.0803
2976.00,3.2749
2975.00,3.4728
2974.00,3.6385
2973.00,3.7494
2972.00,3.8458
2971.00,4.0759
2970.00,4.4755
2969.00,4.4115
2968.00,4.2651
2967.00,4.1672
2966.00,4.0749
2965.00,3.9649
2964.00,3.9877
2963.00,4.2977
2962.00,4.5962
2961.00,4.3478
2960.00,4.0536
2959.00,3.8648
2958.00,3.7981
2957.00,3.8410
2956.00,4.0127
2955.00,4.3271
2954.00,4.5501
2953.00,4.4416
2952.00,4.3165
2951.00,4.3136
2950.00,4.4867
2949.00,4.6556
2948.00,4.5675
2947.00,4.4339
2946.00,4.3406
2945.00,4.2408
2944.00,4.0207
2943.00,3.8238
2942.00,3.7362
2941.00,3.7679
2940.00,3.9239
2939.00,4.1748
2938.00,4.4818
2937.00,4.4923
2936.00,4.1988
2935.00,4.0170
2934.00,3.9842
2933.00,4.0710
2932.00,4.1790
2931.00,4.3042
2930.00,4.5987
2929.00,5.0719
2928.00,4.6130
2927.00,4.1490
2926.00,3.9204
2925.00,3.8430
2924.00,3.8514
2923.00,3.9167
2922.00,4.0349
2921.00,4.1622
2920.00,4.1933
2919.00,4.0884
2918.00,3.9874
2917.00,3.9729
2916.00,4.0330
2915.00,4.1018
2914.00,4.1230
2913.00,4.1542
2912.00,4.1685
2911.00,4.0618
2910.00,3.9462
2909.00,3.8924
2908.00,3.8700
2907.00,3.8104
2906.00,3.7407
2905.00,3.7359
2904.00,3.8136
2903.00,3.9604
2902.00,4.1006
2901.00,4.1334
2900.00,4.1427
2899.00,4.2589
2898.00,4.5457
2897.00,4.7998
2896.00,4.5812
2895.00,4.3631
2894.00,4.2206
2893.00,4.0979
2892.00,4.0154
2891.00,4.0474
2890.00,4.2064
2889.00,4.3339
2888.00,4.2788
2887.00,4.1238
2886.00,4.0060
2885.00,3.9343
2884.00,3.9427
2883.00,4.0217
2882.00,4.2066
2881.00,4.5662
2880.00,4.4999
2879.00,4.1561
2878.00,3.9563
2877.00,3.9560
2876.00,4.1128
2875.00,4.4592
2874.00,4.7342
2873.00,4.3197
2872.00,4.0412
2871.00,4.0331
2870.00,4.1008
2869.00,3.9888
2868.00,3.8398
2867.00,3.7895
2866.00,3.8787
2865.00,4.0869
2864.00,4.3445
2863.00,4.2361
2862.00,3.9625
2861.00,3.8194
2860.00,3.8718
2859.00,4.1523
2858.00,4.7027
2857.00,4.7606
2856.00,4.2275
2855.00,3.9859
2854.00,3.8699
2853.00,3.8492
2852.00,3.9363
2851.00,4.1579
2850.00,4.4753
2849.00,4.2806
2848.00,3.9500
2847.00,3.7738
2846.00,3.7217
2845.00,3.7236
2844.00,3.7968
2843.00,3.9315
2842.00,4.0090
2841.00,4.0014
2840.00,3.8610
2839.00,3.6621
2838.00,3.4608
2837.00,3.2696
2836.00,3.0728
2835.00,2.8683
2834.00,2.6749
2833.00,2.4999
2832.00,2.3445
2831.00,2.2079
2830.00,2.0866
2829.00,1.9774
2828.00,1.8786
2827.00,1.7898
2826.00,1.7101
2825.00,1.6385
2824.00,1.5737
2823.00,1.5149
2822.00,1.4613
2821.00,1.4122
2820.00,1.3668
2819.00,1.3247
2818.00,1.2857
2817.00,1.2496
2816.00,1.2161
2815.00,1.1848
2814.00,1.1553
2813.00,1.1272
2812.00,1.1007
2811.00,1.0756
2810.00,1.0520
2809.00,1.0296
2808.00,1.0085
2807.00,0.9884
2806.00,0.9693
2805.00,0.9511
2804.00,0.9337
2803.00,0.9172
2802.00,0.9014
2801.00,0.8864
2800.00,0.8720
2799.00,0.8583
2798.00,0.8452
2797.00,0.8327
2796.00,0.8205
2795.00,0.8088
2794.00,0.7975
2793.00,0.7864
2792.00,0.7756
2791.00,0.7651
2790.00,0.7550
2789.00,0.7452
2788.00,0.7355
2787.00,0.7260
2786.00,0.7168
2785.00,0.7078
2784.00,0.6990
2783.00,0.6905
2782.00,0.6822
2781.00,0.6743
2780.00,0.6667
2779.00,0.6595
2778.00,0.6527
2777.00,0.6461
2776.00,0.6400
2775.00,0.6342
2774.00,0.6288
2773.00,0.6237
2772.00,0.6190
2771.00,0.6146
2770.00,0.6105
2769.00,0.6068
2768.00,0.6034
2767.00,0.6005
2766.00,0.5979
2765.00,0.5956
2764.00,0.5936
2763.00,0.5918
2762.00,0.5902
2761.00,0.5887
2760.00,0.5874
2759.00,0.5862
2758.00,0.5851
2757.00,0.5840
2756.00,0.5829
2755.00,0.5819
2754.00,0.5810
2753.00,0.5802
2752.00,0.5796
2751.00,0.5792
2750.00,0.5791
2749.00,0.5793
2748.00,0.5797
2747.00,0.5802
2746.00,0.5810
2745.00,0.5820
2744.00,0.5833
2743.00,0.5849
2742.00,0.5868
2741.00,0.5892
2740.00,0.5921
2739.00,0.5955
2738.00,0.5994
2737.00,0.6038
2736.00,0.6087
2735.00,0.6140
2734.00,0.6195
2733.00,0.6249
2732.00,0.6299
2731.00,0.6340
2730.00,0.6371
2729.00,0.6391
2728.00,0.6398
2727.00,0.6394
2726.00,0.6383
2725.00,0.6366
2724.00,0.6345
2723.00,0.6322
2722.00,0.6295
2721.00,0.6265
2720.00,0.6231
2719.00,0.6194
2718.00,0.6154
2717.00,0.6111
2716.00,0.6065
2715.00,0.6017
2714.00,0.5970
2713.00,0.5923
2712.00,0.5880
2711.00,0.5840
2710.00,0.5806
2709.00,0.5775
2708.00,0.5747
2707.00,0.5723
2706.00,0.5702
2705.00,0.5685
2704.00,0.5671
2703.00,0.5660
2702.00,0.5654
2701.00,0.5650
2700.00,0.5648
2699.00,0.5648
2698.00,0.5649
2697.00,0.5652
2696.00,0.5657
2695.00,0.5663
2694.00,0.5670
2693.00,0.5678
2692.00,0.5688
2691.00,0.5697
2690.00,0.5706
2689.00,0.5714
2688.00,0.5722
2687.00,0.5728
2686.00,0.5734
2685.00,0.5740
2684.00,0.5744
2683.00,0.5747
2682.00,0.5749
2681.00,0.5751
2680.00,0.5753
2679.00,0.5756
2678.00,0.5760
2677.00,0.5764
2676.00,0.5768
2675.00,0.5772
2674.00,0.5775
2673.00,0.5778
2672.00,0.5779
2671.00,0.5778
2670.00,0.5775
2669.00,0.5769
2668.00,0.5760
2667.00,0.5749
2666.00,0.5735
2665.00,0.5720
2664.00,0.5703
2663.00,0.5685
2662.00,0.5665
2661.00,0.5645
2660.00,0.5625
2659.00,0.5603
2658.00,0.5582
2657.00,0.5560
2656.00,0.5539
2655.00,0.5518
2654.00,0.5499
2653.00,0.5482
2652.00,0.5466
2651.00,0.5450
2650.00,0.5434
2649.00,0.5419
2648.00,0.5404
2647.00,0.5389
2646.00,0.5375
2645.00,0.5362
2644.00,0.5349
2643.00,0.5337
2642.00,0.5326
2641.00,0.5316
2640.00,0.5306
2639.00,0.5298
2638.00,0.5289
2637.00,0.5280
2636.00,0.5271
2635.00,0.5263
2634.00,0.5255
2633.00,0.5247
2632.00,0.5239
2631.00,0.5231
2630.00,0.5222
2629.00,0.5214
2628.00,0.5205
2627.00,0.5196
2626.00,0.5188
2625.00,0.5180
2624.00,0.5172
2623.00,0.5163
2622.00,0.5153
2621.00,0.5144
2620.00,0.5134
2619.00,0.5125
2618.00,0.5116
2617.00,0.5107
2616.00,0.5098
2615.00,0.5089
2614.00,0.5080
2613.00,0.5071
2612.00,0.5062
2611.00,0.5053
2610.00,0.5043
2609.00,0.5034
2608.00,0.5024
2607.00,0.5014
2606.00,0.5004
2605.00,0.4994
2604.00,0.4984
2603.00,0.4973
2602.00,0.4962
2601.00,0.4951
2600.00,0.4939
2599.00,0.4926
2598.00,0.4913
2597.00,0.4899
2596.00,0.4885
2595.00,0.4871
2594.00,0.4856
2593.00,0.4840
2592.00,0.4824
2591.00,0.4808
2590.00,0.4791
2589.00,0.4775
2588.00,0.4759
2587.00,0.4743
2586.00,0.4727
2585.00,0.4709
2584.00,0.4692
2583.00,0.4674
2582.00,0.4656
2581.00,0.4637
2580.00,0.4619
2579.00,0.4601
2578.00,0.4583
2577.00,0.4566
2576.00,0.4549
2575.00,0.4532
2574.00,0.4516
2573.00,0.4500
2572.00,0.4484
2571.00,0.4468
2570.00,0.4453
2569.00,0.4438
2568.00,0.4424
2567.00,0.4410
2566.00,0.4395
2565.00,0.4381
2564.00,0.4368
2563.00,0.4355
2562.00,0.4341
2561.00,0.4328
2560.00,0.4315
2559.00,0.4303
2558.00,0.4291
2557.00,0.4280
2556.00,0.4268
2555.00,0.4257
2554.00,0.4246
2553.00,0.4234
2552.00,0.4223
2551.00,0.4212
2550.00,0.4201
2549.00,0.4191
2548.00,0.4180
2547.00,0.4170
2546.00,0.4161
2545.00,0.4152
2544.00,0.4143
2543.00,0.4134
2542.00,0.4126
2541.00,0.4119
2540.00,0.4112
2539.00,0.4106
2538.00,0.4099
2537.00,0.4093
2536.00,0.4086
2535.00,0.4081
2534.00,0.4075
2533.00,0.4070
2532.00,0.4064
2531.00,0.4057
2530.00,0.4049
2529.00,0.4041
2528.00,0.4033
2527.00,0.4025
2526.00,0.4016
2525.00,0.4007
2524.00,0.3998
2523.00,0.3989
2522.00,0.3979
2521.00,0.3970
2520.00,0.3961
2519.00,0.3952
2518.00,0.3943
2517.00,0.3935
2516.00,0.3927
2515.00,0.3919
2514.00,0.3912
2513.00,0.3904
2512.00,0.3897
2511.00,0.3889
2510.00,0.3882
2509.00,0.3875
2508.00,0.3868
2507.00,0.3861
2506.00,0.3854
2505.00,0.3848
2504.00,0.3841
2503.00,0.3835
2502.00,0.3829
2501.00,0.3824
2500.00,0.3819
2499.00,0.3814
2498.00,0.3809
2497.00,0.3803
2496.00,0.3797
2495.00,0.3792
2494.00,0.3787
2493.00,0.3783
2492.00,0.3779
2491.00,0.3774
2490.00,0.3769
2489.00,0.3765
2488.00,0.3761
2487.00,0.3757
2486.00,0.3753
2485.00,0.3748
2484.00,0.3744
2483.00,0.3739
2482.00,0.3735
2481.00,0.3731
2480.00,0.3728
2479.00,0.3724
2478.00,0.3720
2477.00,0.3716
2476.00,0.3712
2475.00,0.3709
2474.00,0.3705
2473.00,0.3702
2472.00,0.3699
2471.00,0.3696
2470.00,0.3694
2469.00,0.3692
2468.00,0.3689
2467.00,0.3686
2466.00,0.3683
2465.00,0.3680
2464.00,0.3677
2463.00,0.3674
2462.00,0.3672
2461.00,0.3669
2460.00,0.3667
2459.00,0.3665
2458.00,0.3664
2457.00,0.3663
2456.00,0.3661
2455.00,0.3659
2454.00,0.3656
2453.00,0.3655
2452.00,0.3653
2451.00,0.3652
2450.00,0.3651
2449.00,0.3651
2448.00,0.3650
2447.00,0.3649
2446.00,0.3648
2445.00,0.3648
2444.00,0.3647
2443.00,0.3647
2442.00,0.3648
2441.00,0.3648
2440.00,0.3649
2439.00,0.3649
2438.00,0.3649
2437.00,0.3649
2436.00,0.3650
2435.00,0.3651
2434.00,0.3652
2433.00,0.3653
2432.00,0.3654
2431.00,0.3654
2430.00,0.3653
2429.00,0.3654
2428.00,0.3655
2427.00,0.3656
2426.00,0.3657
2425.00,0.3657
2424.00,0.3658
2423.00,0.3659
2422.00,0.3659
2421.00,0.3660
2420.00,0.3661
2419.00,0.3662
2418.00,0.3662
2417.00,0.3663
2416.00,0.3663
2415.00,0.3663
2414.00,0.3662
2413.00,0.3663
2412.00,0.3664
2411.00,0.3664
2410.00,0.3665
2409.00,0.3664
2408.00,0.3663
2407.00,0.3662
2406.00,0.3662
2405.00,0.3661
2404.00,0.3660
2403.00,0.3659
2402.00,0.3658
2401.00,0.3657
2400.00,0.3656
2399.00,0.3654
2398.00,0.3653
2397.00,0.3652
2396.00,0.3651
2395.00,0.3650
2394.00,0.3649
2393.00,0.3648
2392.00,0.3647
2391.00,0.3646
2390.00,0.3644
2389.00,0.3643
2388.00,0.3642
2387.00,0.3641
2386.00,0.3641
2385.00,0.3640
2384.00,0.3640
2383.00,0.3640
2382.00,0.3640
2381.00,0.3640
2380.00,0.3641
2379.00,0.3641
2378.00,0.3641
2377.00,0.3640
2376.00,0.3640
2375.00,0.3638
2374.00,0.3637
2373.00,0.3636
2372.00,0.3635
2371.00,0.3634
2370.00,0.3633
2369.00,0.3633
2368.00,0.3633
2367.00,0.3633
2366.00,0.3633
2365.00,0.3633
2364.00,0.3633
2363.00,0.3632
2362.00,0.3632
2361.00,0.3632
2360.00,0.3632
2359.00,0.3632
2358.00,0.3631
2357.00,0.3629
2356.00,0.3627
2355.00,0.3625
2354.00,0.3624
2353.00,0.3624
2352.00,0.3626
2351.00,0.3628
2350.00,0.3629
2349.00,0.3627
2348.00,0.3625
2347.00,0.3622
2346.00,0.3619
2345.00,0.3617
2344.00,0.3615
2343.00,0.3613
2342.00,0.3611
2341.00,0.3610
2340.00,0.3608
2339.00,0.3607
2338.00,0.3606
2337.00,0.3606
2336.00,0.3606
2335.00,0.3605
2334.00,0.3603
2333.00,0.3600
2332.00,0.3598
2331.00,0.3594
2330.00,0.3590
2329.00,0.3588
2328.00,0.3586
2327.00,0.3585
2326.00,0.3583
2325.00,0.3581
2324.00,0.3579
2323.00,0.3577
2322.00,0.3575
2321.00,0.3573
2320.00,0.3571
2319.00,0.3567
2318.00,0.3564
2317.00,0.3561
2316.00,0.3559
2315.00,0.3556
2314.00,0.3554
2313.00,0.3551
2312.00,0.3547
2311.00,0.3544
2310.00,0.3540
2309.00,0.3537
2308.00,0.3533
2307.00,0.3530
2306.00,0.3525
2305.00,0.3521
2304.00,0.3517
2303.00,0.3514
2302.00,0.3511
2301.00,0.3509
2300.00,0.3507
2299.00,0.3505
2298.00,0.3502
2297.00,0.3499
2296.00,0.3497
2295.00,0.3494
2294.00,0.3491
2293.00,0.3488
2292.00,0.3486
2291.00,0.3483
2290.00,0.3480
2289.00,0.3478
2288.00,0.3475
2287.00,0.3472
2286.00,0.3469
2285.00,0.3466
2284.00,0.3464
2283.00,0.3461
2282.00,0.3458
2281.00,0.3455
2280.00,0.3451
2279.00,0.3447
2278.00,0.3443
2277.00,0.3439
2276.00,0.3435
2275.00,0.3432
2274.00,0.3429
2273.00,0.3426
2272.00,0.3424
2271.00,0.3422
2270.00,0.3420
2269.00,0.3418
2268.00,0.3416
2267.00,0.3415
2266.00,0.3413
2265.00,0.3411
2264.00,0.3409
2263.00,0.3407
2262.00,0.3405
2261.00,0.3402
2260.00,0.3400
2259.00,0.3397
2258.00,0.3394
2257.00,0.3392
2256.00,0.3389
2255.00,0.3387
2254.00,0.3384
2253.00,0.3382
2252.00,0.3379
2251.00,0.3376
2250.00,0.3373
2249.00,0.3371
2248.00,0.3368
2247.00,0.3366
2246.00,0.3363
2245.00,0.3361
2244.00,0.3358
2243.00,0.3356
2242.00,0.3354
2241.00,0.3352
2240.00,0.3350
2239.00,0.3348
2238.00,0.3347
2237.00,0.3345
2236.00,0.3344
2235.00,0.3342
2234.00,0.3341
2233.00,0.3340
2232.00,0.3339
2231.00,0.3338
2230.00,0.3337
2229.00,0.3337
2228.00,0.3336
2227.00,0.3335
2226.00,0.3333
2225.00,0.3332
2224.00,0.3330
2223.00,0.3329
2222.00,0.3328
2221.00,0.3327
2220.00,0.3327
2219.00,0.3325
2218.00,0.3324
2217.00,0.3323
2216.00,0.3323
2215.00,0.3322
2214.00,0.3321
2213.00,0.3321
2212.00,0.3320
2211.00,0.3319
2210.00,0.3318
2209.00,0.3317
2208.00,0.3317
2207.00,0.3316
2206.00,0.3316
2205.00,0.3316
2204.00,0.3316
2203.00,0.3315
2202.00,0.3314
2201.00,0.3314
2200.00,0.3314
2199.00,0.3314
2198.00,0.3314
2197.00,0.3314
2196.00,0.3314
2195.00,0.3314
2194.00,0.3315
2193.00,0.3315
2192.00,0.3315
2191.00,0.3316
2190.00,0.3316
2189.00,0.3316
2188.00,0.3317
2187.00,0.3317
2186.00,0.3317
2185.00,0.3316
2184.00,0.3315
2183.00,0.3314
2182.00,0.3312
2181.00,0.3311
2180.00,0.3310
2179.00,0.3309
2178.00,0.3307
2177.00,0.3305
2176.00,0.3304
2175.00,0.3302
2174.00,0.3301
2173.00,0.3299
2172.00,0.3297
2171.00,0.3296
2170.00,0.3295
2169.00,0.3293
2168.00,0.3292
2167.00,0.3291
2166.00,0.3290
2165.00,0.3289
2164.00,0.3288
2163.00,0.3286
2162.00,0.3285
2161.00,0.3283
2160.00,0.3282
2159.00,0.3281
2158.00,0.3280
2157.00,0.3279
2156.00,0.3278
2155.00,0.3276
2154.00,0.3274
2153.00,0.3272
2152.00,0.3270
2151.00,0.3268
2150.00,0.3265
2149.00,0.3263
2148.00,0.3259
2147.00,0.3255
2146.00,0.3251
2145.00,0.3246
2144.00,0.3242
2143.00,0.3237
2142.00,0.3231
2141.00,0.3226
2140.00,0.3222
2139.00,0.3219
2138.00,0.3215
2137.00,0.3213
2136.00,0.3210
2135.00,0.3207
2134.00,0.3205
2133.00,0.3202
2132.00,0.3201
2131.00,0.3199
2130.00,0.3198
2129.00,0.3197
2128.00,0.3197
2127.00,0.3195
2126.00,0.3194
2125.00,0.3193
2124.00,0.3192
2123.00,0.3191
2122.00,0.3190
2121.00,0.3189
2120.00,0.3189
2119.00,0.3188
2118.00,0.3186
2117.00,0.3185
2116.00,0.3183
2115.00,0.3181
2114.00,0.3180
2113.00,0.3179
2112.00,0.3178
2111.00,0.3177
2110.00,0.3175
2109.00,0.3173
2108.00,0.3172
2107.00,0.3170
2106.00,0.3168
2105.00,0.3167
2104.00,0.3166
2103.00,0.3165
2102.00,0.3164
2101.00,0.3163
2100.00,0.3163
2099.00,0.3162
2098.00,0.3162
2097.00,0.3162
2096.00,0.3162
2095.00,0.3161
2094.00,0.3161
2093.00,0.3161
2092.00,0.3162
2091.00,0.3163
2090.00,0.3163
2089.00,0.3164
2088.00,0.3164
2087.00,0.3164
2086.00,0.3164
2085.00,0.3164
2084.00,0.3164
2083.00,0.3164
2082.00,0.3163
2081.00,0.3163
2080.00,0.3162
2079.00,0.3162
2078.00,0.3161
2077.00,0.3161
2076.00,0.3161
2075.00,0.3160
2074.00,0.3160
2073.00,0.3160
2072.00,0.3161
2071.00,0.3160
2070.00,0.3160
2069.00,0.3159
2068.00,0.3158
2067.00,0.3158
2066.00,0.3159
2065.00,0.3160
2064.00,0.3162
2063.00,0.3164
2062.00,0.3166
2061.00,0.3168
2060.00,0.3170
2059.00,0.3171
2058.00,0.3172
2057.00,0.3174
2056.00,0.3176
2055.00,0.3178
2054.00,0.3180
2053.00,0.3182
2052.00,0.3184
2051.00,0.3186
2050.00,0.3188
2049.00,0.3189
2048.00,0.3191
2047.00,0.3192
2046.00,0.3193
2045.00,0.3193
2044.00,0.3193
2043.00,0.3194
2042.00,0.3195
2041.00,0.3197
2040.00,0.3199
2039.00,0.3199
2038.00,0.3200
2037.00,0.3200
2036.00,0.3200
2035.00,0.3200
2034.00,0.3199
2033.00,0.3199
2032.00,0.3200
2031.00,0.3199
2030.00,0.3199
2029.00,0.3198
2028.00,0.3198
2027.00,0.3197
2026.00,0.3196
2025.00,0.3196
2024.00,0.3194
2023.00,0.3193
2022.00,0.3190
2021.00,0.3186
2020.00,0.3182
2019.00,0.3177
2018.00,0.3172
2017.00,0.3167
2016.00,0.3163
2015.00,0.3159
2014.00,0.3154
2013.00,0.3150
2012.00,0.3145
2011.00,0.3140
2010.00,0.3135
2009.00,0.3131
2008.00,0.3127
2007.00,0.3123
2006.00,0.3119
2005.00,0.3116
2004.00,0.3114
2003.00,0.3111
2002.00,0.3108
2001.00,0.3105
2000.00,0.3103
1999.00,0.3101
1998.00,0.3099
1997.00,0.3097
1996.00,0.3094
1995.00,0.3090
1994.00,0.3086
1993.00,0.3084
1992.00,0.3084
1991.00,0.3085
1990.00,0.3085
1989.00,0.3086
1988.00,0.3086
1987.00,0.3087
1986.00,0.3087
1985.00,0.3088
1984.00,0.3089
1983.00,0.3089
1982.00,0.3089
1981.00,0.3089
1980.00,0.3089
1979.00,0.3089
1978.00,0.3089
1977.00,0.3089
1976.00,0.3089
1975.00,0.3089
1974.00,0.3089
1973.00,0.3089
1972.00,0.3089
1971.00,0.3087
1970.00,0.3085
1969.00,0.3082
1968.00,0.3082
1967.00,0.3083
1966.00,0.3085
1965.00,0.3087
1964.00,0.3088
1963.00,0.3089
1962.00,0.3088
1961.00,0.3089
1960.00,0.3090
1959.00,0.3090
1958.00,0.3090
1957.00,0.3091
1956.00,0.3092
1955.00,0.3094
1954.00,0.3096
1953.00,0.3098
1952.00,0.3100
1951.00,0.3100
1950.00,0.3101
1949.00,0.3100
1948.00,0.3100
1947.00,0.3100
1946.00,0.3100
1945.00,0.3101
1944.00,0.3104
1943.00,0.3111
1942.00,0.3119
1941.00,0.3128
1940.00,0.3136
1939.00,0.3141
1938.00,0.3143
1937.00,0.3144
1936.00,0.3143
1935.00,0.3142
1934.00,0.3140
1933.00,0.3140
1932.00,0.3139
1931.00,0.3139
1930.00,0.3138
1929.00,0.3138
1928.00,0.3138
1927.00,0.3136
1926.00,0.3133
1925.00,0.3131
1924.00,0.3130
1923.00,0.3134
1922.00,0.3139
1921.00,0.3146
1920.00,0.3152
1919.00,0.3157
1918.00,0.3160
1917.00,0.3166
1916.00,0.3168
1915.00,0.3170
1914.00,0.3171
1913.00,0.3172
1912.00,0.3174
1911.00,0.3175
1910.00,0.3176
1909.00,0.3177
1908.00,0.3179
1907.00,0.3180
1906.00,0.3178
1905.00,0.3179
1904.00,0.3180
1903.00,0.3180
1902.00,0.3180
1901.00,0.3181
1900.00,0.3181
1899.00,0.3183
1898.00,0.3184
1897.00,0.3186
1896.00,0.3187
1895.00,0.3188
1894.00,0.3189
1893.00,0.3191
1892.00,0.3191
1891.00,0.3193
1890.00,0.3186
1889.00,0.3187
1888.00,0.3190
1887.00,0.3191
1886.00,0.3192
1885.00,0.3192
1884.00,0.3192
1883.00,0.3192
1882.00,0.3192
1881.00,0.3192
1880.00,0.3192
1879.00,0.3191
1878.00,0.3189
1877.00,0.3188
1876.00,0.3187
1875.00,0.3186
1874.00,0.3184
1873.00,0.3182
1872.00,0.3181
1871.00,0.3180
1870.00,0.3178
1869.00,0.3176
1868.00,0.3175
1867.00,0.3173
1866.00,0.3171
1865.00,0.3170
1864.00,0.3168
1863.00,0.3166
1862.00,0.3163
1861.00,0.3161
1860.00,0.3158
1859.00,0.3156
1858.00,0.3153
1857.00,0.3150
1856.00,0.3147
1855.00,0.3144
1854.00,0.3141
1853.00,0.3139
1852.00,0.3137
1851.00,0.3135
1850.00,0.3133
1849.00,0.3131
1848.00,0.3129
1847.00,0.3127
1846.00,0.3125
1845.00,0.3123
1844.00,0.3122
1843.00,0.3111
1842.00,0.3110
1841.00,0.3112
1840.00,0.3112
1839.00,0.3111
1838.00,0.3109
1837.00,0.3109
1836.00,0.3110
1835.00,0.3110
1834.00,0.3107
1833.00,0.3104
1832.00,0.3100
1831.00,0.3095
1830.00,0.3093
1829.00,0.3092
1828.00,0.3094
1827.00,0.3095
1826.00,0.3096
1825.00,0.3098
1824.00,0.3099
1823.00,0.3101
1822.00,0.3103
1821.00,0.3104
1820.00,0.3105
1819.00,0.3104
1818.00,0.3104
1817.00,0.3105
1816.00,0.3105
1815.00,0.3104
1814.00,0.3101
1813.00,0.3099
1812.00,0.3099
1811.00,0.3101
1810.00,0.3105
1809.00,0.3110
1808.00,0.3116
1807.00,0.3121
1806.00,0.3125
1805.00,0.3129
1804.00,0.3132
1803.00,0.3137
1802.00,0.3144
1801.00,0.3155
1800.00,0.3165
1799.00,0.3174
1798.00,0.3178
1797.00,0.3182
1796.00,0.3186
1795.00,0.3189
1794.00,0.3192
1793.00,0.3195
1792.00,0.3199
1791.00,0.3204
1790.00,0.3210
1789.00,0.3214
1788.00,0.3219
1787.00,0.3220
1786.00,0.3225
1785.00,0.3228
1784.00,0.3229
1783.00,0.3230
1782.00,0.3231
1781.00,0.3232
1780.00,0.3234
1779.00,0.3236
1778.00,0.3238
1777.00,0.3240
1776.00,0.3242
1775.00,0.3244
1774.00,0.3247
1773.00,0.3250
1772.00,0.3255
1771.00,0.3260
1770.00,0.3267
1769.00,0.3262
1768.00,0.3269
1767.00,0.3278
1766.00,0.3283
1765.00,0.3290
1764.00,0.3297
1763.00,0.3303
1762.00,0.3309
1761.00,0.3315
1760.00,0.3324
1759.00,0.3334
1758.00,0.3347
1757.00,0.3360
1756.00,0.3372
1755.00,0.3381
1754.00,0.3389
1753.00,0.3397
1752.00,0.3405
1751.00,0.3416
1750.00,0.3432
1749.00,0.3455
1748.00,0.3482
1747.00,0.3507
1746.00,0.3530
1745.00,0.3552
1744.00,0.3575
1743.00,0.3598
1742.00,0.3619
1741.00,0.3637
1740.00,0.3649
1739.00,0.3654
1738.00,0.3655
1737.00,0.3658
1736.00,0.3659
1735.00,0.3654
1734.00,0.3647
1733.00,0.3646
1732.00,0.3652
1731.00,0.3661
1730.00,0.3669
1729.00,0.3675
1728.00,0.3679
1727.00,0.3679
1726.00,0.3680
1725.00,0.3683
1724.00,0.3690
1723.00,0.3700
1722.00,0.3711
1721.00,0.3722
1720.00,0.3729
1719.00,0.3737
1718.00,0.3759
1717.00,0.3802
1716.00,0.3857
1715.00,0.3915
1714.00,0.3972
1713.00,0.4025
1712.00,0.4077
1711.00,0.4124
1710.00,0.4166
1709.00,0.4200
1708.00,0.4224
1707.00,0.4236
1706.00,0.4237
1705.00,0.4229
1704.00,0.4217
1703.00,0.4207
1702.00,0.4189
1701.00,0.4145
1700.00,0.4077
1699.00,0.4017
1698.00,0.3981
1697.00,0.3966
1696.00,0.3955
1695.00,0.3938
1694.00,0.3921
1693.00,0.3907
1692.00,0.3891
1691.00,0.3871
1690.00,0.3848
1689.00,0.3826
1688.00,0.3804
1687.00,0.3784
1686.00,0.3766
1685.00,0.3752
1684.00,0.3749
1683.00,0.3748
1682.00,0.3747
1681.00,0.3749
1680.00,0.3751
1679.00,0.3754
1678.00,0.3758
1677.00,0.3762
1676.00,0.3762
1675.00,0.3756
1674.00,0.3749
1673.00,0.3748
1672.00,0.3751
1671.00,0.3757
1670.00,0.3768
1669.00,0.3782
1668.00,0.3797
1667.00,0.3809
1666.00,0.3821
1665.00,0.3834
1664.00,0.3846
1663.00,0.3860
1662.00,0.3876
1661.00,0.3893
1660.00,0.3910
1659.00,0.3924
1658.00,0.3932
1657.00,0.3936
1656.00,0.3939
1655.00,0.3942
1654.00,0.3957
1653.00,0.3987
1652.00,0.4014
1651.00,0.4038
1650.00,0.4059
1649.00,0.4077
1648.00,0.4101
1647.00,0.4139
1646.00,0.4182
1645.00,0.4223
1644.00,0.4259
1643.00,0.4293
1642.00,0.4324
1641.00,0.4353
1640.00,0.4378
1639.00,0.4400
1638.00,0.4423
1637.00,0.4458
1636.00,0.4508
1635.00,0.4556
1634.00,0.4594
1633.00,0.4627
1632.00,0.4659
1631.00,0.4687
1630.00,0.4712
1629.00,0.4739
1628.00,0.4767
1627.00,0.4795
1626.00,0.4823
1625.00,0.4856
1624.00,0.4896
1623.00,0.4942
1622.00,0.4992
1621.00,0.5045
1620.00,0.5099
1619.00,0.5159
1618.00,0.5236
1617.00,0.5342
1616.00,0.5468
1615.00,0.5591
1614.00,0.5704
1613.00,0.5816
1612.00,0.5930
1611.00,0.6043
1610.00,0.6154
1609.00,0.6267
1608.00,0.6376
1607.00,0.6472
1606.00,0.6553
1605.00,0.6626
1604.00,0.6694
1603.00,0.6756
1602.00,0.6814
1601.00,0.6875
1600.00,0.6943
1599.00,0.7015
1598.00,0.7097
1597.00,0.7203
1596.00,0.7342
1595.00,0.7519
1594.00,0.7740
1593.00,0.8024
1592.00,0.8387
1591.00,0.8839
1590.00,0.9394
1589.00,1.0083
1588.00,1.0934
1587.00,1.1954
1586.00,1.3158
1585.00,1.4592
1584.00,1.6308
1583.00,1.8239
1582.00,2.0147
1581.00,2.1734
1580.00,2.2672
1579.00,2.2544
1578.00,2.1487
1577.00,2.0218
1576.00,1.9085
1575.00,1.8086
1574.00,1.7241
1573.00,1.6593
1572.00,1.6087
1571.00,1.5617
1570.00,1.5176
1569.00,1.4855
1568.00,1.4694
1567.00,1.4633
1566.00,1.4645
1565.00,1.4762
1564.00,1.4975
1563.00,1.5168
1562.00,1.5210
1561.00,1.4996
1560.00,1.4337
1559.00,1.3228
1558.00,1.2078
1557.00,1.1176
1556.00,1.0451
1555.00,0.9780
1554.00,0.9152
1553.00,0.8623
1552.00,0.8203
1551.00,0.7854
1550.00,0.7548
1549.00,0.7290
1548.00,0.7080
1547.00,0.6898
1546.00,0.6725
1545.00,0.6561
1544.00,0.6416
1543.00,0.6285
1542.00,0.6156
1541.00,0.6035
1540.00,0.5929
1539.00,0.5832
1538.00,0.5748
1537.00,0.5684
1536.00,0.5631
1535.00,0.5576
1534.00,0.5522
1533.00,0.5482
1532.00,0.5463
1531.00,0.5457
1530.00,0.5459
1529.00,0.5469
1528.00,0.5484
1527.00,0.5500
1526.00,0.5514
1525.00,0.5526
1524.00,0.5538
1523.00,0.5554
1522.00,0.5584
1521.00,0.5631
1520.00,0.5685
1519.00,0.5739
1518.00,0.5796
1517.00,0.5862
1516.00,0.5930
1515.00,0.5986
1514.00,0.6024
1513.00,0.6051
1512.00,0.6069
1511.00,0.6082
1510.00,0.6097
1509.00,0.6128
1508.00,0.6203
1507.00,0.6343
1506.00,0.6511
1505.00,0.6663
1504.00,0.6792
1503.00,0.6904
1502.00,0.7005
1501.00,0.7101
1500.00,0.7186
1499.00,0.7261
1498.00,0.7341
1497.00,0.7446
1496.00,0.7572
1495.00,0.7701
1494.00,0.7829
1493.00,0.7965
1492.00,0.8112
1491.00,0.8275
1490.00,0.8466
1489.00,0.8690
1488.00,0.8939
1487.00,0.9206
1486.00,0.9502
1485.00,0.9839
1484.00,1.0220
1483.00,1.0653
1482.00,1.1157
1481.00,1.1749
1480.00,1.2415
1479.00,1.3145
1478.00,1.3973
1477.00,1.4953
1476.00,1.6100
1475.00,1.7412
1474.00,1.8986
1473.00,2.1029
1472.00,2.3655
1471.00,2.6708
1470.00,3.0042
1469.00,3.4048
1468.00,3.8870
1467.00,4.0787
1466.00,4.3295
1465.00,4.2410
1464.00,3.8566
1463.00,3.9404
1462.00,3.9721
1461.00,3.8179
1460.00,3.7004
1459.00,3.6551
1458.00,3.7009
1457.00,3.7823
1456.00,3.8720
1455.00,3.8180
1454.00,3.7779
1453.00,3.8980
1452.00,3.9372
1451.00,3.8430
1450.00,3.7779
1449.00,3.8513
1448.00,3.8900
1447.00,3.7209
1446.00,3.5468
1445.00,3.3902
1444.00,3.1749
1443.00,2.9537
1442.00,2.7927
1441.00,2.6795
1440.00,2.5747
1439.00,2.4620
1438.00,2.3472
1437.00,2.2308
1436.00,2.1115
1435.00,1.9979
1434.00,1.8951
1433.00,1.7980
1432.00,1.7016
1431.00,1.6085
1430.00,1.5243
1429.00,1.4511
1428.00,1.3882
1427.00,1.3342
1426.00,1.2874
1425.00,1.2454
1424.00,1.2080
1423.00,1.1761
1422.00,1.1493
1421.00,1.1245
1420.00,1.0994
1419.00,1.0746
1418.00,1.0530
1417.00,1.0351
1416.00,1.0200
1415.00,1.0068
1414.00,0.9955
1413.00,0.9864
1412.00,0.9800
1411.00,0.9761
1410.00,0.9734
1409.00,0.9694
1408.00,0.9617
1407.00,0.9488
1406.00,0.9305
1405.00,0.9084
1404.00,0.8857
1403.00,0.8650
1402.00,0.8470
1401.00,0.8310
1400.00,0.8166
1399.00,0.8045
1398.00,0.7955
1397.00,0.7895
1396.00,0.7872
1395.00,0.7891
1394.00,0.7955
1393.00,0.8066
1392.00,0.8237
1391.00,0.8488
1390.00,0.8845
1389.00,0.9344
1388.00,1.0028
1387.00,1.0909
1386.00,1.1935
1385.00,1.3035
1384.00,1.4177
1383.00,1.5386
1382.00,1.6701
1381.00,1.8167
1380.00,1.9813
1379.00,2.1521
1378.00,2.2869
1377.00,2.3302
1376.00,2.2657
1375.00,2.1247
1374.00,1.9551
1373.00,1.7956
1372.00,1.6629
1371.00,1.5597
1370.00,1.4855
1369.00,1.4388
1368.00,1.4140
1367.00,1.3978
1366.00,1.3733
1365.00,1.3279
1364.00,1.2613
1363.00,1.1845
1362.00,1.1115
1361.00,1.0510
1360.00,1.0045
1359.00,0.9701
1358.00,0.9449
1357.00,0.9271
1356.00,0.9150
1355.00,0.9075
1354.00,0.9032
1353.00,0.9006
1352.00,0.8986
1351.00,0.8965
1350.00,0.8939
1349.00,0.8909
1348.00,0.8879
1347.00,0.8851
1346.00,0.8825
1345.00,0.8801
1344.00,0.8779
1343.00,0.8752
1342.00,0.8713
1341.00,0.8656
1340.00,0.8583
1339.00,0.8497
1338.00,0.8401
1337.00,0.8295
1336.00,0.8178
1335.00,0.8049
1334.00,0.7912
1333.00,0.7774
1332.00,0.7644
1331.00,0.7530
1330.00,0.7435
1329.00,0.7362
1328.00,0.7309
1327.00,0.7275
1326.00,0.7260
1325.00,0.7262
1324.00,0.7275
1323.00,0.7295
1322.00,0.7315
1321.00,0.7331
1320.00,0.7340
1319.00,0.7348
1318.00,0.7358
1317.00,0.7372
1316.00,0.7392
1315.00,0.7419
1314.00,0.7454
1313.00,0.7496
1312.00,0.7542
1311.00,0.7588
1310.00,0.7631
1309.00,0.7671
1308.00,0.7705
1307.00,0.7734
1306.00,0.7753
1305.00,0.7755
1304.00,0.7738
1303.00,0.7701
1302.00,0.7648
1301.00,0.7585
1300.00,0.7517
1299.00,0.7447
1298.00,0.7376
1297.00,0.7307
1296.00,0.7242
1295.00,0.7184
1294.00,0.7134
1293.00,0.7089
1292.00,0.7046
1291.00,0.7004
1290.00,0.6960
1289.00,0.6918
1288.00,0.6877
1287.00,0.6838
1286.00,0.6800
1285.00,0.6760
1284.00,0.6717
1283.00,0.6671
1282.00,0.6627
1281.00,0.6587
1280.00,0.6553
1279.00,0.6526
1278.00,0.6503
1277.00,0.6481
1276.00,0.6458
1275.00,0.6434
1274.00,0.6410
1273.00,0.6389
1272.00,0.6373
1271.00,0.6365
1270.00,0.6364
1269.00,0.6365
1268.00,0.6359
1267.00,0.6339
1266.00,0.6302
1265.00,0.6253
1264.00,0.6202
1263.00,0.6158
1262.00,0.6125
1261.00,0.6101
1260.00,0.6083
1259.00,0.6068
1258.00,0.6054
1257.00,0.6037
1256.00,0.6017
1255.00,0.5996
1254.00,0.5977
1253.00,0.5958
1252.00,0.5942
1251.00,0.5929
1250.00,0.5917
1249.00,0.5903
1248.00,0.5883
1247.00,0.5859
1246.00,0.5830
1245.00,0.5795
1244.00,0.5756
1243.00,0.5715
1242.00,0.5674
1241.00,0.5635
1240.00,0.5599
1239.00,0.5569
1238.00,0.5546
1237.00,0.5527
1236.00,0.5513
1235.00,0.5502
1234.00,0.5496
1233.00,0.5494
1232.00,0.5497
1231.00,0.5507
1230.00,0.5521
1229.00,0.5532
1228.00,0.5534
1227.00,0.5523
1226.00,0.5497
1225.00,0.5459
1224.00,0.5416
1223.00,0.5376
1222.00,0.5343
1221.00,0.5318
1220.00,0.5298
1219.00,0.5287
1218.00,0.5282
1217.00,0.5285
1216.00,0.5294
1215.00,0.5307
1214.00,0.5320
1213.00,0.5328
1212.00,0.5328
1211.00,0.5318
1210.00,0.5303
1209.00,0.5286
1208.00,0.5268
1207.00,0.5250
1206.00,0.5232
1205.00,0.5213
1204.00,0.5193
1203.00,0.5174
1202.00,0.5157
1201.00,0.5143
1200.00,0.5135
1199.00,0.5132
1198.00,0.5133
1197.00,0.5133
1196.00,0.5129
1195.00,0.5122
1194.00,0.5113
1193.00,0.5103
1192.00,0.5093
1191.00,0.5084
1190.00,0.5075
1189.00,0.5066
1188.00,0.5055
1187.00,0.5044
1186.00,0.5033
1185.00,0.5024
1184.00,0.5015
1183.00,0.5010
1182.00,0.5006
1181.00,0.5005
1180.00,0.5005
1179.00,0.5009
1178.00,0.5017
1177.00,0.5030
1176.00,0.5049
1175.00,0.5078
1174.00,0.5119
1173.00,0.5168
1172.00,0.5220
1171.00,0.5266
1170.00,0.5300
1169.00,0.5317
1168.00,0.5316
1167.00,0.5303
1166.00,0.5287
1165.00,0.5272
1164.00,0.5263
1163.00,0.5263
1162.00,0.5272
1161.00,0.5286
1160.00,0.5304
1159.00,0.5323
1158.00,0.5340
1157.00,0.5353
1156.00,0.5359
1155.00,0.5360
1154.00,0.5354
1153.00,0.5343
1152.00,0.5327
1151.00,0.5309
1150.00,0.5290
1149.00,0.5271
1148.00,0.5253
1147.00,0.5236
1146.00,0.5221
1145.00,0.5210
1144.00,0.5206
1143.00,0.5212
1142.00,0.5230
1141.00,0.5259
1140.00,0.5298
1139.00,0.5350
1138.00,0.5414
1137.00,0.5491
1136.00,0.5580
1135.00,0.5678
1134.00,0.5770
1133.00,0.5837
1132.00,0.5861
1131.00,0.5833
1130.00,0.5766
1129.00,0.5679
1128.00,0.5595
1127.00,0.5526
1126.00,0.5477
1125.00,0.5447
1124.00,0.5430
1123.00,0.5420
1122.00,0.5412
1121.00,0.5405
1120.00,0.5400
1119.00,0.5402
1118.00,0.5415
1117.00,0.5442
1116.00,0.5480
1115.00,0.5520
1114.00,0.5545
1113.00,0.5536
1112.00,0.5484
1111.00,0.5399
1110.00,0.5303
1109.00,0.5213
1108.00,0.5141
1107.00,0.5091
1106.00,0.5059
1105.00,0.5040
1104.00,0.5029
1103.00,0.5022
1102.00,0.5016
1101.00,0.5008
1100.00,0.4998
1099.00,0.4987
1098.00,0.4975
1097.00,0.4962
1096.00,0.4949
1095.00,0.4938
1094.00,0.4932
1093.00,0.4931
1092.00,0.4933
1091.00,0.4940
1090.00,0.4953
1089.00,0.4972
1088.00,0.4997
1087.00,0.5028
1086.00,0.5066
1085.00,0.5112
1084.00,0.5170
1083.00,0.5240
1082.00,0.5321
1081.00,0.5411
1080.00,0.5503
1079.00,0.5592
1078.00,0.5668
1077.00,0.5719
1076.00,0.5738
1075.00,0.5723
1074.00,0.5679
1073.00,0.5616
1072.00,0.5545
1071.00,0.5480
1070.00,0.5428
1069.00,0.5388
1068.00,0.5360
1067.00,0.5340
1066.00,0.5326
1065.00,0.5318
1064.00,0.5316
1063.00,0.5320
1062.00,0.5328
1061.00,0.5336
1060.00,0.5342
1059.00,0.5345
1058.00,0.5341
1057.00,0.5330
1056.00,0.5313
1055.00,0.5295
1054.00,0.5280
1053.00,0.5269
1052.00,0.5265
1051.00,0.5268
1050.00,0.5277
1049.00,0.5290
1048.00,0.5305
1047.00,0.5321
1046.00,0.5336
1045.00,0.5350
1044.00,0.5360
1043.00,0.5366
1042.00,0.5369
1041.00,0.5368
1040.00,0.5364
1039.00,0.5358
1038.00,0.5352
1037.00,0.5344
1036.00,0.5339
1035.00,0.5336
1034.00,0.5338
1033.00,0.5344
1032.00,0.5351
1031.00,0.5359
1030.00,0.5365
1029.00,0.5365
1028.00,0.5354
1027.00,0.5329
1026.00,0.5286
1025.00,0.5227
1024.00,0.5159
1023.00,0.5088
1022.00,0.5021
1021.00,0.4959
1020.00,0.4904
1019.00,0.4857
1018.00,0.4818
1017.00,0.4785
1016.00,0.4757
1015.00,0.4733
1014.00,0.4712
1013.00,0.4696
1012.00,0.4684
1011.00,0.4678
1010.00,0.4677
1009.00,0.4681
1008.00,0.4688
1007.00,0.4700
1006.00,0.4717
1005.00,0.4738
1004.00,0.4764
1003.00,0.4791
1002.00,0.4819
1001.00,0.4842
1000.00,0.4859
999.00,0.4866
998.00,0.4864
997.00,0.4850
996.00,0.4829
995.00,0.4802
994.00,0.4775
993.00,0.4748
992.00,0.4722
991.00,0.4696
990.00,0.4671
989.00,0.4647
988.00,0.4626
987.00,0.4611
986.00,0.4606
985.00,0.4610
984.00,0.4622
983.00,0.4640
982.00,0.4665
981.00,0.4693
980.00,0.4721
979.00,0.4745
978.00,0.4765
977.00,0.4781
976.00,0.4795
975.00,0.4807
974.00,0.4816
973.00,0.4821
972.00,0.4823
971.00,0.4824
970.00,0.4823
969.00,0.4822
968.00,0.4819
967.00,0.4816
966.00,0.4810
965.00,0.4801
964.00,0.4788
963.00,0.4773
962.00,0.4757
961.00,0.4740
960.00,0.4724
959.00,0.4710
958.00,0.4696
957.00,0.4684
956.00,0.4672
955.00,0.4660
954.00,0.4648
953.00,0.4633
952.00,0.4618
951.00,0.4605
950.00,0.4597
949.00,0.4593
948.00,0.4594
947.00,0.4597
946.00,0.4604
945.00,0.4614
944.00,0.4628
943.00,0.4643
942.00,0.4658
941.00,0.4670
940.00,0.4680
939.00,0.4688
938.00,0.4694
937.00,0.4696
936.00,0.4694
935.00,0.4687
934.00,0.4675
933.00,0.4659
932.00,0.4640
931.00,0.4620
930.00,0.4602
929.00,0.4587
928.00,0.4578
927.00,0.4582
926.00,0.4600
925.00,0.4637
924.00,0.4690
923.00,0.4756
922.00,0.4818
921.00,0.4858
920.00,0.4857
919.00,0.4812
918.00,0.4734
917.00,0.4641
916.00,0.4548
915.00,0.4466
914.00,0.4399
913.00,0.4347
912.00,0.4307
911.00,0.4275
910.00,0.4250
909.00,0.4230
908.00,0.4215
907.00,0.4203
906.00,0.4194
905.00,0.4188
904.00,0.4189
903.00,0.4197
902.00,0.4211
901.00,0.4230
900.00,0.4254
899.00,0.4284
898.00,0.4319
897.00,0.4358
896.00,0.4398
895.00,0.4439
894.00,0.4482
893.00,0.4525
892.00,0.4568
891.00,0.4608
890.00,0.4642
889.00,0.4662
888.00,0.4668
887.00,0.4662
886.00,0.4654
885.00,0.4655
884.00,0.4677
883.00,0.4730
882.00,0.4820
881.00,0.4939
880.00,0.5062
879.00,0.5156
878.00,0.5192
877.00,0.5164
876.00,0.5088
875.00,0.4992
874.00,0.4895
873.00,0.4812
872.00,0.4751
871.00,0.4714
870.00,0.4698
869.00,0.4697
868.00,0.4709
867.00,0.4734
866.00,0.4768
865.00,0.4810
864.00,0.4852
863.00,0.4886
862.00,0.4900
861.00,0.4884
860.00,0.4835
859.00,0.4763
858.00,0.4684
857.00,0.4613
856.00,0.4557
855.00,0.4517
854.00,0.4492
853.00,0.4475
852.00,0.4464
851.00,0.4453
850.00,0.4439
849.00,0.4421
848.00,0.4397
847.00,0.4370
846.00,0.4342
845.00,0.4314
844.00,0.4288
843.00,0.4270
842.00,0.4266
841.00,0.4281
840.00,0.4316
839.00,0.4368
838.00,0.4431
837.00,0.4491
836.00,0.4533
835.00,0.4545
834.00,0.4522
833.00,0.4475
832.00,0.4425
831.00,0.4392
830.00,0.4383
829.00,0.4396
828.00,0.4424
827.00,0.4464
826.00,0.4512
825.00,0.4567
824.00,0.4628
823.00,0.4697
822.00,0.4770
821.00,0.4845
820.00,0.4917
819.00,0.4985
818.00,0.5043
817.00,0.5087
816.00,0.5113
815.00,0.5121
814.00,0.5109
813.00,0.5077
812.00,0.5028
811.00,0.4970
810.00,0.4909
809.00,0.4848
808.00,0.4789
807.00,0.4736
806.00,0.4687
805.00,0.4641
804.00,0.4591
803.00,0.4536
802.00,0.4477
801.00,0.4417
800.00,0.4363
799.00,0.4321
798.00,0.4294
797.00,0.4278
796.00,0.4269
795.00,0.4264
794.00,0.4263
793.00,0.4264
792.00,0.4271
791.00,0.4286
790.00,0.4310
789.00,0.4339
788.00,0.4371
787.00,0.4407
786.00,0.4447
785.00,0.4490
784.00,0.4534
783.00,0.4576
782.00,0.4615
781.00,0.4648
780.00,0.4675
779.00,0.4697
778.00,0.4718
777.00,0.4736
776.00,0.4754
775.00,0.4772
774.00,0.4793
773.00,0.4817
772.00,0.4847
771.00,0.4883
770.00,0.4922
769.00,0.4960
768.00,0.4993
767.00,0.5022
766.00,0.5045
765.00,0.5064
764.00,0.5080
763.00,0.5100
762.00,0.5128
761.00,0.5163
760.00,0.5203
759.00,0.5249
758.00,0.5298
757.00,0.5344
756.00,0.5383
755.00,0.5417
754.00,0.5448
753.00,0.5481
752.00,0.5522
751.00,0.5570
750.00,0.5625
749.00,0.5680
748.00,0.5731
747.00,0.5779
746.00,0.5824
745.00,0.5869
744.00,0.5916
743.00,0.5966
742.00,0.6018
741.00,0.6067
740.00,0.6109
739.00,0.6142
738.00,0.6171
737.00,0.6199
736.00,0.6231
735.00,0.6273
734.00,0.6324
733.00,0.6386
732.00,0.6458
731.00,0.6548
730.00,0.6665
729.00,0.6815
728.00,0.7000
727.00,0.7221
726.00,0.7478
725.00,0.7763
724.00,0.8054
723.00,0.8309
722.00,0.8464
721.00,0.8441
720.00,0.8204
719.00,0.7798
718.00,0.7319
717.00,0.6853
716.00,0.6449
715.00,0.6126
714.00,0.5873
713.00,0.5669
712.00,0.5498
711.00,0.5356
710.00,0.5245
709.00,0.5162
708.00,0.5100
707.00,0.5053
706.00,0.5019
705.00,0.4994
704.00,0.4972
703.00,0.4956
702.00,0.4946
701.00,0.4938
700.00,0.4917
699.00,0.4860
698.00,0.4753
697.00,0.4603
696.00,0.4437
695.00,0.4284
694.00,0.4159
693.00,0.4066
692.00,0.3997
691.00,0.3947
690.00,0.3908
689.00,0.3877
688.00,0.3850
687.00,0.3830
686.00,0.3817
685.00,0.3809
684.00,0.3806
683.00,0.3805
682.00,0.3807
681.00,0.3810
680.00,0.3815
679.00,0.3821
678.00,0.3830
677.00,0.3840
676.00,0.3852
675.00,0.3865
674.00,0.3878
673.00,0.3891
672.00,0.3901
671.00,0.3907
670.00,0.3909
669.00,0.3910
668.00,0.3908
667.00,0.3904
666.00,0.3903
665.00,0.3902
664.00,0.3899
663.00,0.3897
662.00,0.3898
661.00,0.3897
660.00,0.3894
659.00,0.3891
658.00,0.3890
657.00,0.3892
656.00,0.3898
655.00,0.3905
654.00,0.3911
653.00,0.3914
652.00,0.3915
651.00,0.3915
650.00,0.3917
649.00,0.3918
648.00,0.3919
647.00,0.3920
646.00,0.3923
645.00,0.3927
644.00,0.3932
643.00,0.3940
642.00,0.3949
641.00,0.3956
640.00,0.3962
639.00,0.3965
638.00,0.3969
637.00,0.3973
636.00,0.3976
635.00,0.3980
634.00,0.3986
633.00,0.3991
632.00,0.3997
631.00,0.4003
630.00,0.4013
629.00,0.4026
628.00,0.4043
627.00,0.4065
626.00,0.4091
625.00,0.4121
624.00,0.4150
623.00,0.4179
622.00,0.4205
621.00,0.4228
620.00,0.4244
619.00,0.4253
618.00,0.4257
617.00,0.4259
616.00,0.4262
615.00,0.4269
614.00,0.4276
613.00,0.4275
612.00,0.4267
611.00,0.4254
610.00,0.4243
609.00,0.4234
608.00,0.4225
607.00,0.4215
606.00,0.4206
605.00,0.4200
604.00,0.4198
603.00,0.4201
602.00,0.4208
601.00,0.4215
600.00,0.4225
599.00,0.4238
598.00,0.4258
597.00,0.4282
596.00,0.4310
595.00,0.4339
594.00,0.4368
593.00,0.4398
592.00,0.4428
591.00,0.4459
590.00,0.4491
589.00,0.4522
588.00,0.4552
587.00,0.4583
586.00,0.4613
585.00,0.4641
584.00,0.4664
583.00,0.4684
582.00,0.4703
581.00,0.4723
580.00,0.4742
579.00,0.4759
578.00,0.4772
577.00,0.4783
576.00,0.4793
575.00,0.4806
574.00,0.4820
573.00,0.4836
572.00,0.4852
571.00,0.4868
570.00,0.4881
569.00,0.4890
568.00,0.4900
567.00,0.4915
566.00,0.4937
565.00,0.4961
564.00,0.4985
563.00,0.5004
562.00,0.5019
561.00,0.5030
560.00,0.5042
559.00,0.5055
558.00,0.5071
557.00,0.5085
556.00,0.5095
555.00,0.5098
554.00,0.5096
553.00,0.5090
552.00,0.5085
551.00,0.5083
550.00,0.5082
