Created as New Dataset,
cm-1,A
4000.00,0.3492
3999.00,0.3489
3998.00,0.3486
3997.00,0.3484
3996.00,0.3481
3995.00,0.3478
3994.00,0.3475
3993.00,0.3472
3992.00,0.3469
3991.00,0.3465
3990.00,0.3462
3989.00,0.3459
3988.00,0.3456
3987.00,0.3452
3986.00,0.3448
3985.00,0.3444
3984.00,0.3440
3983.00,0.3436
3982.00,0.3432
3981.00,0.3429
3980.00,0.3425
3979.00,0.3422
3978.00,0.3418
3977.00,0.3415
3976.00,0.3412
3975.00,0.3409
3974.00,0.3405
3973.00,0.3402
3972.00,0.3399
3971.00,0.3396
3970.00,0.3393
3969.00,0.3390
3968.00,0.3388
3967.00,0.3385
3966.00,0.3382
3965.00,0.3379
3964.00,0.3376
3963.00,0.3373
3962.00,0.3371
3961.00,0.3368
3960.00,0.3366
3959.00,0.3364
3958.00,0.3361
3957.00,0.3359
3956.00,0.3357
3955.00,0.3356
3954.00,0.3355
3953.00,0.3354
3952.00,0.3352
3951.00,0.3350
3950.00,0.3348
3949.00,0.3346
3948.00,0.3345
3947.00,0.3343
3946.00,0.3342
3945.00,0.3341
3944.00,0.3340
3943.00,0.3338
3942.00,0.3337
3941.00,0.3335
3940.00,0.3333
3939.00,0.3332
3938.00,0.3331
3937.00,0.3330
3936.00,0.3329
3935.00,0.3328
3934.00,0.3328
3933.00,0.3327
3932.00,0.3327
3931.00,0.3326
3930.00,0.3326
3929.00,0.3325
3928.00,0.3325
3927.00,0.3325
3926.00,0.3325
3925.00,0.3326
3924.00,0.3325
3923.00,0.3325
3922.00,0.3325
3921.00,0.3326
3920.00,0.3326
3919.00,0.3327
3918.00,0.3327
3917.00,0.3326
3916.00,0.3325
3915.00,0.3324
3914.00,0.3323
3913.00,0.3322
3912.00,0.3321
3911.00,0.3319
3910.00,0.3317
3909.00,0.3316
3908.00,0.3315
3907.00,0.3314
3906.00,0.3314
3905.00,0.3313
3904.00,0.3313
3903.00,0.3312
3902.00,0.3312
3901.00,0.3313
3900.00,0.3313
3899.00,0.3313
3898.00,0.3312
3897.00,0.3311
3896.00,0.3309
3895.00,0.3308
3894.00,0.3307
3893.00,0.3306
3892.00,0.3306
3891.00,0.3304
3890.00,0.3303
3889.00,0.3301
3888.00,0.3301
3887.00,0.3301
3886.00,0.3302
3885.00,0.3300
3884.00,0.3298
3883.00,0.3297
3882.00,0.3298
3881.00,0.3299
3880.00,0.3299
3879.00,0.3298
3878.00,0.3297
3877.00,0.3295
3876.00,0.3294
3875.00,0.3293
3874.00,0.3290
3873.00,0.3287
3872.00,0.3285
3871.00,0.3285
3870.00,0.3284
3869.00,0.3282
3868.00,0.3280
3867.00,0.3279
3866.00,0.3278
3865.00,0.3277
3864.00,0.3276
3863.00,0.3274
3862.00,0.3272
3861.00,0.3271
3860.00,0.3270
3859.00,0.3269
3858.00,0.3266
3857.00,0.3264
3856.00,0.3261
3855.00,0.3261
3854.00,0.3263
3853.00,0.3264
3852.00,0.3264
3851.00,0.3264
3850.00,0.3266
3849.00,0.3267
3848.00,0.3267
3847.00,0.3266
3846.00,0.3265
3845.00,0.3263
3844.00,0.3261
3843.00,0.3260
3842.00,0.3258
3841.00,0.3257
3840.00,0.3257
3839.00,0.3257
3838.00,0.3256
3837.00,0.3255
3836.00,0.3254
3835.00,0.3252
3834.00,0.3252
3833.00,0.3252
3832.00,0.3251
3831.00,0.3249
3830.00,0.3247
3829.00,0.3246
3828.00,0.3245
3827.00,0.3245
3826.00,0.3244
3825.00,0.3242
3824.00,0.3240
3823.00,0.3240
3822.00,0.3241
3821.00,0.3240
3820.00,0.3238
3819.00,0.3236
3818.00,0.3237
3817.00,0.3238
3816.00,0.3237
3815.00,0.3235
3814.00,0.3233
3813.00,0.3231
3812.00,0.3230
3811.00,0.3228
3810.00,0.3225
3809.00,0.3222
3808.00,0.3221
3807.00,0.3218
3806.00,0.3215
3805.00,0.3211
3804.00,0.3209
3803.00,0.3208
3802.00,0.3207
3801.00,0.3205
3800.00,0.3203
3799.00,0.3201
3798.00,0.3200
3797.00,0.3200
3796.00,0.3199
3795.00,0.3197
3794.00,0.3195
3793.00,0.3193
3792.00,0.3192
3791.00,0.3190
3790.00,0.3188
3789.00,0.3187
3788.00,0.3185
3787.00,0.3184
3786.00,0.3183
3785.00,0.3183
3784.00,0.3182
3783.00,0.3180
3782.00,0.3179
3781.00,0.3178
3780.00,0.3178
3779.00,0.3176
3778.00,0.3175
3777.00,0.3174
3776.00,0.3173
3775.00,0.3172
3774.00,0.3170
3773.00,0.3168
3772.00,0.3166
3771.00,0.3164
3770.00,0.3161
3769.00,0.3159
3768.00,0.3158
3767.00,0.3157
3766.00,0.3155
3765.00,0.3153
3764.00,0.3151
3763.00,0.3148
3762.00,0.3146
3761.00,0.3145
3760.00,0.3144
3759.00,0.3142
3758.00,0.3141
3757.00,0.3140
3756.00,0.3138
3755.00,0.3136
3754.00,0.3134
3753.00,0.3132
3752.00,0.3130
3751.00,0.3129
3750.00,0.3129
3749.00,0.3128
3748.00,0.3127
3747.00,0.3127
3746.00,0.3128
3745.00,0.3130
3744.00,0.3130
3743.00,0.3128
3742.00,0.3127
3741.00,0.3126
3740.00,0.3126
3739.00,0.3125
3738.00,0.3123
3737.00,0.3121
3736.00,0.3120
3735.00,0.3119
3734.00,0.3118
3733.00,0.3118
3732.00,0.3116
3731.00,0.3113
3730.00,0.3109
3729.00,0.3106
3728.00,0.3105
3727.00,0.3104
3726.00,0.3102
3725.00,0.3100
3724.00,0.3099
3723.00,0.3097
3722.00,0.3096
3721.00,0.3095
3720.00,0.3094
3719.00,0.3093
3718.00,0.3092
3717.00,0.3090
3716.00,0.3089
3715.00,0.3088
3714.00,0.3088
3713.00,0.3088
3712.00,0.3089
3711.00,0.3091
3710.00,0.3092
3709.00,0.3094
3708.00,0.3095
3707.00,0.3095
3706.00,0.3095
3705.00,0.3094
3704.00,0.3094
3703.00,0.3094
3702.00,0.3094
3701.00,0.3093
3700.00,0.3092
3699.00,0.3091
3698.00,0.3091
3697.00,0.3091
3696.00,0.3091
3695.00,0.3090
3694.00,0.3089
3693.00,0.3088
3692.00,0.3087
3691.00,0.3086
3690.00,0.3086
3689.00,0.3087
3688.00,0.3088
3687.00,0.3088
3686.00,0.3089
3685.00,0.3090
3684.00,0.3090
3683.00,0.3090
3682.00,0.3089
3681.00,0.3089
3680.00,0.3088
3679.00,0.3087
3678.00,0.3086
3677.00,0.3088
3676.00,0.3090
3675.00,0.3091
3674.00,0.3091
3673.00,0.3092
3672.00,0.3095
3671.00,0.3098
3670.00,0.3100
3669.00,0.3102
3668.00,0.3104
3667.00,0.3108
3666.00,0.3112
3665.00,0.3117
3664.00,0.3121
3663.00,0.3126
3662.00,0.3133
3661.00,0.3141
3660.00,0.3152
3659.00,0.3167
3658.00,0.3186
3657.00,0.3210
3656.00,0.3237
3655.00,0.3265
3654.00,0.3291
3653.00,0.3316
3652.00,0.3339
3651.00,0.3358
3650.00,0.3370
3649.00,0.3374
3648.00,0.3369
3647.00,0.3358
3646.00,0.3343
3645.00,0.3325
3644.00,0.3306
3643.00,0.3286
3642.00,0.3267
3641.00,0.3249
3640.00,0.3233
3639.00,0.3220
3638.00,0.3209
3637.00,0.3201
3636.00,0.3193
3635.00,0.3188
3634.00,0.3182
3633.00,0.3177
3632.00,0.3173
3631.00,0.3171
3630.00,0.3169
3629.00,0.3168
3628.00,0.3167
3627.00,0.3167
3626.00,0.3168
3625.00,0.3169
3624.00,0.3169
3623.00,0.3167
3622.00,0.3164
3621.00,0.3160
3620.00,0.3156
3619.00,0.3151
3618.00,0.3147
3617.00,0.3142
3616.00,0.3139
3615.00,0.3137
3614.00,0.3135
3613.00,0.3133
3612.00,0.3132
3611.00,0.3131
3610.00,0.3131
3609.00,0.3131
3608.00,0.3131
3607.00,0.3131
3606.00,0.3129
3605.00,0.3127
3604.00,0.3124
3603.00,0.3120
3602.00,0.3114
3601.00,0.3108
3600.00,0.3100
3599.00,0.3091
3598.00,0.3083
3597.00,0.3074
3596.00,0.3065
3595.00,0.3057
3594.00,0.3048
3593.00,0.3041
3592.00,0.3034
3591.00,0.3028
3590.00,0.3023
3589.00,0.3019
3588.00,0.3016
3587.00,0.3012
3586.00,0.3009
3585.00,0.3006
3584.00,0.3003
3583.00,0.3001
3582.00,0.2999
3581.00,0.2996
3580.00,0.2994
3579.00,0.2991
3578.00,0.2989
3577.00,0.2988
3576.00,0.2987
3575.00,0.2987
3574.00,0.2987
3573.00,0.2987
3572.00,0.2987
3571.00,0.2987
3570.00,0.2986
3569.00,0.2987
3568.00,0.2988
3567.00,0.2990
3566.00,0.2991
3565.00,0.2991
3564.00,0.2991
3563.00,0.2991
3562.00,0.2991
3561.00,0.2991
3560.00,0.2992
3559.00,0.2992
3558.00,0.2993
3557.00,0.2993
3556.00,0.2993
3555.00,0.2994
3554.00,0.2995
3553.00,0.2996
3552.00,0.2998
3551.00,0.3000
3550.00,0.3001
3549.00,0.3004
3548.00,0.3006
3547.00,0.3008
3546.00,0.3010
3545.00,0.3011
3544.00,0.3013
3543.00,0.3015
3542.00,0.3017
3541.00,0.3020
3540.00,0.3022
3539.00,0.3024
3538.00,0.3026
3537.00,0.3028
3536.00,0.3031
3535.00,0.3033
3534.00,0.3035
3533.00,0.3037
3532.00,0.3040
3531.00,0.3042
3530.00,0.3045
3529.00,0.3048
3528.00,0.3051
3527.00,0.3053
3526.00,0.3056
3525.00,0.3059
3524.00,0.3062
3523.00,0.3064
3522.00,0.3067
3521.00,0.3069
3520.00,0.3072
3519.00,0.3075
3518.00,0.3079
3517.00,0.3082
3516.00,0.3085
3515.00,0.3088
3514.00,0.3092
3513.00,0.3095
3512.00,0.3098
3511.00,0.3102
3510.00,0.3105
3509.00,0.3108
3508.00,0.3112
3507.00,0.3116
3506.00,0.3120
3505.00,0.3125
3504.00,0.3130
3503.00,0.3135
3502.00,0.3140
3501.00,0.3145
3500.00,0.3150
3499.00,0.3155
3498.00,0.3160
3497.00,0.3165
3496.00,0.3171
3495.00,0.3177
3494.00,0.3183
3493.00,0.3189
3492.00,0.3195
3491.00,0.3201
3490.00,0.3207
3489.00,0.3213
3488.00,0.3219
3487.00,0.3224
3486.00,0.3230
3485.00,0.3235
3484.00,0.3241
3483.00,0.3247
3482.00,0.3253
3481.00,0.3258
3480.00,0.3262
3479.00,0.3266
3478.00,0.3270
3477.00,0.3274
3476.00,0.3279
3475.00,0.3284
3474.00,0.3289
3473.00,0.3294
3472.00,0.3299
3471.00,0.3304
3470.00,0.3309
3469.00,0.3315
3468.00,0.3321
3467.00,0.3327
3466.00,0.3333
3465.00,0.3338
3464.00,0.3344
3463.00,0.3350
3462.00,0.3356
3461.00,0.3363
3460.00,0.3371
3459.00,0.3378
3458.00,0.3386
3457.00,0.3393
3456.00,0.3400
3455.00,0.3407
3454.00,0.3415
3453.00,0.3422
3452.00,0.3431
3451.00,0.3440
3450.00,0.3450
3449.00,0.3460
3448.00,0.3470
3447.00,0.3482
3446.00,0.3494
3445.00,0.3507
3444.00,0.3520
3443.00,0.3533
3442.00,0.3546
3441.00,0.3558
3440.00,0.3571
3439.00,0.3583
3438.00,0.3594
3437.00,0.3604
3436.00,0.3614
3435.00,0.3622
3434.00,0.3630
3433.00,0.3637
3432.00,0.3644
3431.00,0.3651
3430.00,0.3657
3429.00,0.3664
3428.00,0.3670
3427.00,0.3677
3426.00,0.3684
3425.00,0.3691
3424.00,0.3698
3423.00,0.3705
3422.00,0.3712
3421.00,0.3719
3420.00,0.3727
3419.00,0.3736
3418.00,0.3745
3417.00,0.3755
3416.00,0.3765
3415.00,0.3774
3414.00,0.3783
3413.00,0.3792
3412.00,0.3801
3411.00,0.3811
3410.00,0.3821
3409.00,0.3832
3408.00,0.3843
3407.00,0.3855
3406.00,0.3866
3405.00,0.3878
3404.00,0.3891
3403.00,0.3903
3402.00,0.3915
3401.00,0.3927
3400.00,0.3938
3399.00,0.3950
3398.00,0.3961
3397.00,0.3973
3396.00,0.3985
3395.00,0.3997
3394.00,0.4009
3393.00,0.4021
3392.00,0.4033
3391.00,0.4045
3390.00,0.4058
3389.00,0.4070
3388.00,0.4083
3387.00,0.4095
3386.00,0.4107
3385.00,0.4118
3384.00,0.4130
3383.00,0.4142
3382.00,0.4156
3381.00,0.4170
3380.00,0.4185
3379.00,0.4200
3378.00,0.4214
3377.00,0.4229
3376.00,0.4243
3375.00,0.4258
3374.00,0.4273
3373.00,0.4288
3372.00,0.4304
3371.00,0.4320
3370.00,0.4336
3369.00,0.4353
3368.00,0.4370
3367.00,0.4386
3366.00,0.4404
3365.00,0.4421
3364.00,0.4440
3363.00,0.4459
3362.00,0.4478
3361.00,0.4496
3360.00,0.4514
3359.00,0.4531
3358.00,0.4548
3357.00,0.4566
3356.00,0.4585
3355.00,0.4603
3354.00,0.4621
3353.00,0.4638
3352.00,0.4656
3351.00,0.4673
3350.00,0.4690
3349.00,0.4707
3348.00,0.4724
3347.00,0.4740
3346.00,0.4755
3345.00,0.4770
3344.00,0.4785
3343.00,0.4799
3342.00,0.4812
3341.00,0.4824
3340.00,0.4837
3339.00,0.4848
3338.00,0.4858
3337.00,0.4867
3336.00,0.4875
3335.00,0.4882
3334.00,0.4888
3333.00,0.4893
3332.00,0.4897
3331.00,0.4899
3330.00,0.4902
3329.00,0.4903
3328.00,0.4904
3327.00,0.4903
3326.00,0.4902
3325.00,0.4900
3324.00,0.4897
3323.00,0.4894
3322.00,0.4889
3321.00,0.4882
3320.00,0.4876
3319.00,0.4869
3318.00,0.4862
3317.00,0.4854
3316.00,0.4846
3315.00,0.4837
3314.00,0.4828
3313.00,0.4819
3312.00,0.4810
3311.00,0.4802
3310.00,0.4793
3309.00,0.4784
3308.00,0.4774
3307.00,0.4765
3306.00,0.4755
3305.00,0.4745
3304.00,0.4736
3303.00,0.4727
3302.00,0.4719
3301.00,0.4711
3300.00,0.4704
3299.00,0.4697
3298.00,0.4691
3297.00,0.4685
3296.00,0.4679
3295.00,0.4673
3294.00,0.4668
3293.00,0.4663
3292.00,0.4659
3291.00,0.4655
3290.00,0.4652
3289.00,0.4648
3288.00,0.4645
3287.00,0.4643
3286.00,0.4641
3285.00,0.4639
3284.00,0.4639
3283.00,0.4639
3282.00,0.4639
3281.00,0.4639
3280.00,0.4640
3279.00,0.4640
3278.00,0.4641
3277.00,0.4643
3276.00,0.4645
3275.00,0.4648
3274.00,0.4651
3273.00,0.4655
3272.00,0.4660
3271.00,0.4664
3270.00,0.4668
3269.00,0.4671
3268.00,0.4675
3267.00,0.4679
3266.00,0.4683
3265.00,0.4687
3264.00,0.4692
3263.00,0.4697
3262.00,0.4701
3261.00,0.4705
3260.00,0.4709
3259.00,0.4714
3258.00,0.4718
3257.00,0.4722
3256.00,0.4726
3255.00,0.4730
3254.00,0.4733
3253.00,0.4737
3252.00,0.4740
3251.00,0.4743
3250.00,0.4745
3249.00,0.4747
3248.00,0.4749
3247.00,0.4751
3246.00,0.4752
3245.00,0.4753
3244.00,0.4754
3243.00,0.4755
3242.00,0.4756
3241.00,0.4757
3240.00,0.4758
3239.00,0.4758
3238.00,0.4757
3237.00,0.4756
3236.00,0.4754
3235.00,0.4752
3234.00,0.4751
3233.00,0.4749
3232.00,0.4747
3231.00,0.4744
3230.00,0.4740
3229.00,0.4737
3228.00,0.4734
3227.00,0.4731
3226.00,0.4727
3225.00,0.4724
3224.00,0.4720
3223.00,0.4716
3222.00,0.4712
3221.00,0.4708
3220.00,0.4703
3219.00,0.4698
3218.00,0.4693
3217.00,0.4689
3216.00,0.4685
3215.00,0.4681
3214.00,0.4675
3213.00,0.4670
3212.00,0.4664
3211.00,0.4659
3210.00,0.4654
3209.00,0.4650
3208.00,0.4646
3207.00,0.4641
3206.00,0.4637
3205.00,0.4632
3204.00,0.4629
3203.00,0.4624
3202.00,0.4620
3201.00,0.4615
3200.00,0.4609
3199.00,0.4604
3198.00,0.4599
3197.00,0.4594
3196.00,0.4590
3195.00,0.4584
3194.00,0.4578
3193.00,0.4571
3192.00,0.4565
3191.00,0.4559
3190.00,0.4553
3189.00,0.4547
3188.00,0.4540
3187.00,0.4534
3186.00,0.4527
3185.00,0.4521
3184.00,0.4514
3183.00,0.4506
3182.00,0.4498
3181.00,0.4490
3180.00,0.4482
3179.00,0.4475
3178.00,0.4468
3177.00,0.4461
3176.00,0.4453
3175.00,0.4445
3174.00,0.4437
3173.00,0.4428
3172.00,0.4420
3171.00,0.4411
3170.00,0.4403
3169.00,0.4395
3168.00,0.4388
3167.00,0.4381
3166.00,0.4373
3165.00,0.4365
3164.00,0.4356
3163.00,0.4348
3162.00,0.4341
3161.00,0.4334
3160.00,0.4326
3159.00,0.4319
3158.00,0.4311
3157.00,0.4303
3156.00,0.4295
3155.00,0.4287
3154.00,0.4279
3153.00,0.4272
3152.00,0.4265
3151.00,0.4258
3150.00,0.4252
3149.00,0.4245
3148.00,0.4239
3147.00,0.4233
3146.00,0.4227
3145.00,0.4220
3144.00,0.4214
3143.00,0.4208
3142.00,0.4203
3141.00,0.4199
3140.00,0.4195
3139.00,0.4191
3138.00,0.4188
3137.00,0.4185
3136.00,0.4182
3135.00,0.4179
3134.00,0.4176
3133.00,0.4174
3132.00,0.4171
3131.00,0.4168
3130.00,0.4166
3129.00,0.4164
3128.00,0.4162
3127.00,0.4160
3126.00,0.4159
3125.00,0.4159
3124.00,0.4158
3123.00,0.4158
3122.00,0.4159
3121.00,0.4159
3120.00,0.4160
3119.00,0.4161
3118.00,0.4162
3117.00,0.4164
3116.00,0.4167
3115.00,0.4170
3114.00,0.4174
3113.00,0.4179
3112.00,0.4183
3111.00,0.4188
3110.00,0.4195
3109.00,0.4202
3108.00,0.4211
3107.00,0.4220
3106.00,0.4230
3105.00,0.4240
3104.00,0.4249
3103.00,0.4258
3102.00,0.4268
3101.00,0.4277
3100.00,0.4288
3099.00,0.4298
3098.00,0.4309
3097.00,0.4320
3096.00,0.4330
3095.00,0.4341
3094.00,0.4353
3093.00,0.4366
3092.00,0.4379
3091.00,0.4395
3090.00,0.4411
3089.00,0.4429
3088.00,0.4448
3087.00,0.4468
3086.00,0.4488
3085.00,0.4509
3084.00,0.4532
3083.00,0.4556
3082.00,0.4582
3081.00,0.4610
3080.00,0.4639
3079.00,0.4669
3078.00,0.4701
3077.00,0.4733
3076.00,0.4767
3075.00,0.4801
3074.00,0.4836
3073.00,0.4871
3072.00,0.4908
3071.00,0.4946
3070.00,0.4984
3069.00,0.5022
3068.00,0.5060
3067.00,0.5096
3066.00,0.5132
3065.00,0.5167
3064.00,0.5203
3063.00,0.5237
3062.00,0.5270
3061.00,0.5303
3060.00,0.5334
3059.00,0.5365
3058.00,0.5395
3057.00,0.5426
3056.00,0.5458
3055.00,0.5490
3054.00,0.5522
3053.00,0.5555
3052.00,0.5589
3051.00,0.5623
3050.00,0.5659
3049.00,0.5696
3048.00,0.5735
3047.00,0.5774
3046.00,0.5815
3045.00,0.5857
3044.00,0.5900
3043.00,0.5944
3042.00,0.5988
3041.00,0.6033
3040.00,0.6077
3039.00,0.6123
3038.00,0.6171
3037.00,0.6222
3036.00,0.6276
3035.00,0.6333
3034.00,0.6392
3033.00,0.6455
3032.00,0.6520
3031.00,0.6589
3030.00,0.6661
3029.00,0.6735
3028.00,0.6812
3027.00,0.6890
3026.00,0.6969
3025.00,0.7051
3024.00,0.7136
3023.00,0.7224
3022.00,0.7317
3021.00,0.7412
3020.00,0.7511
3019.00,0.7612
3018.00,0.7715
3017.00,0.7820
3016.00,0.7926
3015.00,0.8036
3014.00,0.8150
3013.00,0.8269
3012.00,0.8395
3011.00,0.8527
3010.00,0.8668
3009.00,0.8817
3008.00,0.8974
3007.00,0.9138
3006.00,0.9308
3005.00,0.9484
3004.00,0.9665
3003.00,0.9855
3002.00,1.0053
3001.00,1.0260
3000.00,1.0476
2999.00,1.0704
2998.00,1.0946
2997.00,1.1208
2996.00,1.1491
2995.00,1.1801
2994.00,1.2144
2993.00,1.2524
2992.00,1.2942
2991.00,1.3400
2990.00,1.3901
2989.00,1.4450
2988.00,1.5057
2987.00,1.5731
2986.00,1.6482
2985.00,1.7313
2984.00,1.8227
2983.00,1.9229
2982.00,2.0329
2981.00,2.1543
2980.00,2.2894
2979.00,2.4413
2978.00,2.6112
2977.00,2.7934
2976.00,2.9766
2975.00,3.1560
2974.00,3.3417
2973.00,3.5406
2972.00,3.7367
2971.00,3.9115
2970.00,4.0312
2969.00,4.0697
2968.00,4.0397
2967.00,3.9789
2966.00,3.9114
2965.00,3.8235
2964.00,3.7503
2963.00,3.7210
2962.00,3.7411
2961.00,3.8026
2960.00,3.8896
2959.00,3.9933
2958.00,4.0619
2957.00,4.0117
2956.00,3.9077
2955.00,3.8612
2954.00,3.8978
2953.00,3.9880
2952.00,4.0763
2951.00,4.1497
2950.00,4.1853
2949.00,4.1505
2948.00,4.1235
2947.00,4.2802
2946.00,4.4725
2945.00,4.3043
2944.00,4.1456
2943.00,4.2013
2942.00,4.6485
2941.00,4.9408
2940.00,4.7071
2939.00,4.4890
2938.00,4.2279
2937.00,4.0240
2936.00,3.8760
2935.00,3.8422
2934.00,3.8594
2933.00,3.8806
2932.00,3.8974
2931.00,3.9043
2930.00,3.9239
2929.00,3.9579
2928.00,4.0004
2927.00,4.0669
2926.00,4.0710
2925.00,3.9656
2924.00,3.8809
2923.00,3.9776
2922.00,4.3166
2921.00,4.5393
2920.00,4.4181
2919.00,4.3272
2918.00,4.4496
2917.00,4.6067
2916.00,4.8263
2915.00,5.3426
2914.00,5.2137
2913.00,4.6104
2912.00,4.2791
2911.00,4.1499
2910.00,4.2694
2909.00,4.7398
2908.00,4.7084
2907.00,4.3464
2906.00,4.1481
2905.00,4.2627
2904.00,4.4680
2903.00,4.2544
2902.00,4.0737
2901.00,3.9273
2900.00,3.8794
2899.00,3.8681
2898.00,3.9631
2897.00,4.1786
2896.00,4.4434
2895.00,4.7788
2894.00,4.5085
2893.00,4.2542
2892.00,4.1280
2891.00,4.1908
2890.00,4.4392
2889.00,4.5937
2888.00,4.4460
2887.00,4.3638
2886.00,4.3983
2885.00,4.3491
2884.00,4.1982
2883.00,4.2016
2882.00,4.3867
2881.00,4.3842
2880.00,4.1867
2879.00,4.0758
2878.00,4.0891
2877.00,4.1324
2876.00,4.1194
2875.00,4.1528
2874.00,4.2689
2873.00,4.4655
2872.00,4.5908
2871.00,4.4120
2870.00,4.3115
2869.00,4.3407
2868.00,4.3661
2867.00,4.1827
2866.00,4.0130
2865.00,3.9803
2864.00,4.0145
2863.00,4.0700
2862.00,4.1488
2861.00,4.3388
2860.00,4.5833
2859.00,4.3849
2858.00,4.0905
2857.00,3.9533
2856.00,3.9683
2855.00,4.0802
2854.00,4.3337
2853.00,4.5891
2852.00,4.2462
2851.00,3.9729
2850.00,3.8416
2849.00,3.7881
2848.00,3.7223
2847.00,3.6694
2846.00,3.6549
2845.00,3.6334
2844.00,3.5995
2843.00,3.5907
2842.00,3.6240
2841.00,3.6610
2840.00,3.6472
2839.00,3.5515
2838.00,3.3774
2837.00,3.1585
2836.00,2.9390
2835.00,2.7387
2834.00,2.5589
2833.00,2.3971
2832.00,2.2514
2831.00,2.1203
2830.00,2.0024
2829.00,1.8962
2828.00,1.8012
2827.00,1.7167
2826.00,1.6414
2825.00,1.5738
2824.00,1.5123
2823.00,1.4562
2822.00,1.4047
2821.00,1.3572
2820.00,1.3135
2819.00,1.2733
2818.00,1.2362
2817.00,1.2019
2816.00,1.1697
2815.00,1.1396
2814.00,1.1112
2813.00,1.0844
2812.00,1.0589
2811.00,1.0348
2810.00,1.0119
2809.00,0.9902
2808.00,0.9694
2807.00,0.9495
2806.00,0.9305
2805.00,0.9123
2804.00,0.8950
2803.00,0.8783
2802.00,0.8624
2801.00,0.8471
2800.00,0.8324
2799.00,0.8185
2798.00,0.8052
2797.00,0.7924
2796.00,0.7801
2795.00,0.7682
2794.00,0.7566
2793.00,0.7454
2792.00,0.7345
2791.00,0.7240
2790.00,0.7136
2789.00,0.7034
2788.00,0.6934
2787.00,0.6837
2786.00,0.6742
2785.00,0.6649
2784.00,0.6558
2783.00,0.6469
2782.00,0.6383
2781.00,0.6300
2780.00,0.6221
2779.00,0.6146
2778.00,0.6074
2777.00,0.6005
2776.00,0.5941
2775.00,0.5880
2774.00,0.5822
2773.00,0.5768
2772.00,0.5718
2771.00,0.5672
2770.00,0.5630
2769.00,0.5592
2768.00,0.5558
2767.00,0.5527
2766.00,0.5500
2765.00,0.5477
2764.00,0.5456
2763.00,0.5438
2762.00,0.5422
2761.00,0.5408
2760.00,0.5396
2759.00,0.5384
2758.00,0.5373
2757.00,0.5362
2756.00,0.5353
2755.00,0.5345
2754.00,0.5339
2753.00,0.5334
2752.00,0.5331
2751.00,0.5330
2750.00,0.5331
2749.00,0.5334
2748.00,0.5339
2747.00,0.5346
2746.00,0.5354
2745.00,0.5364
2744.00,0.5377
2743.00,0.5392
2742.00,0.5411
2741.00,0.5434
2740.00,0.5461
2739.00,0.5492
2738.00,0.5527
2737.00,0.5566
2736.00,0.5610
2735.00,0.5658
2734.00,0.5707
2733.00,0.5754
2732.00,0.5796
2731.00,0.5830
2730.00,0.5852
2729.00,0.5863
2728.00,0.5862
2727.00,0.5852
2726.00,0.5834
2725.00,0.5811
2724.00,0.5786
2723.00,0.5760
2722.00,0.5734
2721.00,0.5705
2720.00,0.5674
2719.00,0.5641
2718.00,0.5606
2717.00,0.5570
2716.00,0.5532
2715.00,0.5493
2714.00,0.5454
2713.00,0.5415
2712.00,0.5378
2711.00,0.5343
2710.00,0.5311
2709.00,0.5284
2708.00,0.5260
2707.00,0.5241
2706.00,0.5224
2705.00,0.5209
2704.00,0.5198
2703.00,0.5189
2702.00,0.5182
2701.00,0.5178
2700.00,0.5177
2699.00,0.5178
2698.00,0.5181
2697.00,0.5187
2696.00,0.5195
2695.00,0.5205
2694.00,0.5216
2693.00,0.5227
2692.00,0.5240
2691.00,0.5253
2690.00,0.5266
2689.00,0.5278
2688.00,0.5290
2687.00,0.5301
2686.00,0.5311
2685.00,0.5319
2684.00,0.5325
2683.00,0.5331
2682.00,0.5335
2681.00,0.5339
2680.00,0.5341
2679.00,0.5344
2678.00,0.5346
2677.00,0.5349
2676.00,0.5352
2675.00,0.5355
2674.00,0.5357
2673.00,0.5357
2672.00,0.5356
2671.00,0.5352
2670.00,0.5346
2669.00,0.5336
2668.00,0.5323
2667.00,0.5306
2666.00,0.5287
2665.00,0.5266
2664.00,0.5244
2663.00,0.5219
2662.00,0.5195
2661.00,0.5170
2660.00,0.5147
2659.00,0.5124
2658.00,0.5101
2657.00,0.5079
2656.00,0.5058
2655.00,0.5037
2654.00,0.5017
2653.00,0.4998
2652.00,0.4981
2651.00,0.4964
2650.00,0.4947
2649.00,0.4931
2648.00,0.4916
2647.00,0.4900
2646.00,0.4885
2645.00,0.4870
2644.00,0.4855
2643.00,0.4841
2642.00,0.4828
2641.00,0.4816
2640.00,0.4804
2639.00,0.4793
2638.00,0.4782
2637.00,0.4771
2636.00,0.4761
2635.00,0.4751
2634.00,0.4741
2633.00,0.4731
2632.00,0.4721
2631.00,0.4711
2630.00,0.4701
2629.00,0.4691
2628.00,0.4682
2627.00,0.4673
2626.00,0.4664
2625.00,0.4655
2624.00,0.4645
2623.00,0.4635
2622.00,0.4625
2621.00,0.4615
2620.00,0.4605
2619.00,0.4594
2618.00,0.4584
2617.00,0.4575
2616.00,0.4565
2615.00,0.4555
2614.00,0.4545
2613.00,0.4535
2612.00,0.4525
2611.00,0.4515
2610.00,0.4504
2609.00,0.4494
2608.00,0.4484
2607.00,0.4474
2606.00,0.4464
2605.00,0.4455
2604.00,0.4445
2603.00,0.4435
2602.00,0.4424
2601.00,0.4411
2600.00,0.4398
2599.00,0.4385
2598.00,0.4370
2597.00,0.4355
2596.00,0.4340
2595.00,0.4324
2594.00,0.4308
2593.00,0.4292
2592.00,0.4276
2591.00,0.4260
2590.00,0.4244
2589.00,0.4228
2588.00,0.4212
2587.00,0.4196
2586.00,0.4181
2585.00,0.4165
2584.00,0.4149
2583.00,0.4133
2582.00,0.4115
2581.00,0.4098
2580.00,0.4080
2579.00,0.4063
2578.00,0.4047
2577.00,0.4030
2576.00,0.4014
2575.00,0.3998
2574.00,0.3983
2573.00,0.3967
2572.00,0.3953
2571.00,0.3939
2570.00,0.3925
2569.00,0.3911
2568.00,0.3897
2567.00,0.3884
2566.00,0.3870
2565.00,0.3857
2564.00,0.3843
2563.00,0.3830
2562.00,0.3817
2561.00,0.3805
2560.00,0.3792
2559.00,0.3780
2558.00,0.3768
2557.00,0.3756
2556.00,0.3744
2555.00,0.3733
2554.00,0.3721
2553.00,0.3710
2552.00,0.3700
2551.00,0.3690
2550.00,0.3681
2549.00,0.3672
2548.00,0.3664
2547.00,0.3655
2546.00,0.3646
2545.00,0.3637
2544.00,0.3628
2543.00,0.3620
2542.00,0.3612
2541.00,0.3605
2540.00,0.3597
2539.00,0.3590
2538.00,0.3583
2537.00,0.3576
2536.00,0.3570
2535.00,0.3565
2534.00,0.3559
2533.00,0.3553
2532.00,0.3546
2531.00,0.3538
2530.00,0.3529
2529.00,0.3519
2528.00,0.3509
2527.00,0.3499
2526.00,0.3488
2525.00,0.3477
2524.00,0.3466
2523.00,0.3455
2522.00,0.3445
2521.00,0.3435
2520.00,0.3426
2519.00,0.3416
2518.00,0.3406
2517.00,0.3397
2516.00,0.3388
2515.00,0.3380
2514.00,0.3372
2513.00,0.3364
2512.00,0.3357
2511.00,0.3349
2510.00,0.3341
2509.00,0.3333
2508.00,0.3327
2507.00,0.3321
2506.00,0.3315
2505.00,0.3311
2504.00,0.3307
2503.00,0.3303
2502.00,0.3300
2501.00,0.3297
2500.00,0.3294
2499.00,0.3291
2498.00,0.3288
2497.00,0.3284
2496.00,0.3281
2495.00,0.3278
2494.00,0.3275
2493.00,0.3272
2492.00,0.3268
2491.00,0.3264
2490.00,0.3259
2489.00,0.3254
2488.00,0.3249
2487.00,0.3244
2486.00,0.3239
2485.00,0.3234
2484.00,0.3228
2483.00,0.3223
2482.00,0.3218
2481.00,0.3212
2480.00,0.3207
2479.00,0.3202
2478.00,0.3197
2477.00,0.3193
2476.00,0.3188
2475.00,0.3183
2474.00,0.3179
2473.00,0.3175
2472.00,0.3172
2471.00,0.3169
2470.00,0.3166
2469.00,0.3163
2468.00,0.3160
2467.00,0.3157
2466.00,0.3155
2465.00,0.3152
2464.00,0.3150
2463.00,0.3147
2462.00,0.3144
2461.00,0.3142
2460.00,0.3140
2459.00,0.3138
2458.00,0.3137
2457.00,0.3136
2456.00,0.3134
2455.00,0.3133
2454.00,0.3131
2453.00,0.3130
2452.00,0.3129
2451.00,0.3128
2450.00,0.3128
2449.00,0.3128
2448.00,0.3128
2447.00,0.3127
2446.00,0.3127
2445.00,0.3127
2444.00,0.3127
2443.00,0.3128
2442.00,0.3129
2441.00,0.3129
2440.00,0.3130
2439.00,0.3130
2438.00,0.3131
2437.00,0.3131
2436.00,0.3131
2435.00,0.3131
2434.00,0.3131
2433.00,0.3132
2432.00,0.3133
2431.00,0.3134
2430.00,0.3135
2429.00,0.3137
2428.00,0.3138
2427.00,0.3140
2426.00,0.3141
2425.00,0.3142
2424.00,0.3144
2423.00,0.3145
2422.00,0.3146
2421.00,0.3147
2420.00,0.3148
2419.00,0.3150
2418.00,0.3151
2417.00,0.3151
2416.00,0.3152
2415.00,0.3153
2414.00,0.3154
2413.00,0.3155
2412.00,0.3156
2411.00,0.3157
2410.00,0.3158
2409.00,0.3158
2408.00,0.3158
2407.00,0.3158
2406.00,0.3158
2405.00,0.3159
2404.00,0.3159
2403.00,0.3158
2402.00,0.3158
2401.00,0.3158
2400.00,0.3158
2399.00,0.3158
2398.00,0.3157
2397.00,0.3157
2396.00,0.3156
2395.00,0.3156
2394.00,0.3155
2393.00,0.3155
2392.00,0.3155
2391.00,0.3155
2390.00,0.3156
2389.00,0.3156
2388.00,0.3157
2387.00,0.3159
2386.00,0.3160
2385.00,0.3162
2384.00,0.3164
2383.00,0.3165
2382.00,0.3166
2381.00,0.3168
2380.00,0.3170
2379.00,0.3171
2378.00,0.3172
2377.00,0.3173
2376.00,0.3173
2375.00,0.3172
2374.00,0.3170
2373.00,0.3168
2372.00,0.3167
2371.00,0.3165
2370.00,0.3164
2369.00,0.3164
2368.00,0.3164
2367.00,0.3164
2366.00,0.3164
2365.00,0.3165
2364.00,0.3164
2363.00,0.3163
2362.00,0.3161
2361.00,0.3161
2360.00,0.3161
2359.00,0.3160
2358.00,0.3160
2357.00,0.3159
2356.00,0.3157
2355.00,0.3156
2354.00,0.3155
2353.00,0.3156
2352.00,0.3156
2351.00,0.3154
2350.00,0.3152
2349.00,0.3150
2348.00,0.3150
2347.00,0.3151
2346.00,0.3152
2345.00,0.3153
2344.00,0.3151
2343.00,0.3148
2342.00,0.3146
2341.00,0.3144
2340.00,0.3143
2339.00,0.3143
2338.00,0.3142
2337.00,0.3141
2336.00,0.3140
2335.00,0.3137
2334.00,0.3135
2333.00,0.3132
2332.00,0.3129
2331.00,0.3125
2330.00,0.3121
2329.00,0.3116
2328.00,0.3112
2327.00,0.3109
2326.00,0.3105
2325.00,0.3103
2324.00,0.3102
2323.00,0.3101
2322.00,0.3099
2321.00,0.3097
2320.00,0.3094
2319.00,0.3091
2318.00,0.3088
2317.00,0.3085
2316.00,0.3083
2315.00,0.3080
2314.00,0.3078
2313.00,0.3076
2312.00,0.3074
2311.00,0.3071
2310.00,0.3067
2309.00,0.3063
2308.00,0.3059
2307.00,0.3055
2306.00,0.3052
2305.00,0.3049
2304.00,0.3046
2303.00,0.3044
2302.00,0.3041
2301.00,0.3039
2300.00,0.3036
2299.00,0.3033
2298.00,0.3030
2297.00,0.3028
2296.00,0.3025
2295.00,0.3022
2294.00,0.3018
2293.00,0.3015
2292.00,0.3011
2291.00,0.3008
2290.00,0.3004
2289.00,0.3001
2288.00,0.2997
2287.00,0.2994
2286.00,0.2991
2285.00,0.2987
2284.00,0.2984
2283.00,0.2980
2282.00,0.2977
2281.00,0.2974
2280.00,0.2971
2279.00,0.2968
2278.00,0.2964
2277.00,0.2961
2276.00,0.2958
2275.00,0.2955
2274.00,0.2952
2273.00,0.2950
2272.00,0.2948
2271.00,0.2946
2270.00,0.2944
2269.00,0.2942
2268.00,0.2941
2267.00,0.2939
2266.00,0.2938
2265.00,0.2937
2264.00,0.2935
2263.00,0.2933
2262.00,0.2930
2261.00,0.2928
2260.00,0.2925
2259.00,0.2922
2258.00,0.2919
2257.00,0.2916
2256.00,0.2913
2255.00,0.2910
2254.00,0.2907
2253.00,0.2905
2252.00,0.2903
2251.00,0.2901
2250.00,0.2899
2249.00,0.2896
2248.00,0.2894
2247.00,0.2892
2246.00,0.2890
2245.00,0.2889
2244.00,0.2887
2243.00,0.2885
2242.00,0.2883
2241.00,0.2881
2240.00,0.2879
2239.00,0.2876
2238.00,0.2874
2237.00,0.2872
2236.00,0.2871
2235.00,0.2869
2234.00,0.2867
2233.00,0.2866
2232.00,0.2865
2231.00,0.2864
2230.00,0.2863
2229.00,0.2862
2228.00,0.2860
2227.00,0.2859
2226.00,0.2856
2225.00,0.2854
2224.00,0.2852
2223.00,0.2851
2222.00,0.2850
2221.00,0.2850
2220.00,0.2850
2219.00,0.2850
2218.00,0.2849
2217.00,0.2849
2216.00,0.2848
2215.00,0.2848
2214.00,0.2847
2213.00,0.2847
2212.00,0.2847
2211.00,0.2848
2210.00,0.2848
2209.00,0.2848
2208.00,0.2848
2207.00,0.2847
2206.00,0.2847
2205.00,0.2847
2204.00,0.2848
2203.00,0.2847
2202.00,0.2847
2201.00,0.2847
2200.00,0.2847
2199.00,0.2847
2198.00,0.2848
2197.00,0.2848
2196.00,0.2848
2195.00,0.2848
2194.00,0.2849
2193.00,0.2850
2192.00,0.2852
2191.00,0.2852
2190.00,0.2853
2189.00,0.2854
2188.00,0.2854
2187.00,0.2854
2186.00,0.2855
2185.00,0.2855
2184.00,0.2856
2183.00,0.2856
2182.00,0.2856
2181.00,0.2856
2180.00,0.2855
2179.00,0.2855
2178.00,0.2855
2177.00,0.2854
2176.00,0.2853
2175.00,0.2852
2174.00,0.2851
2173.00,0.2850
2172.00,0.2850
2171.00,0.2850
2170.00,0.2849
2169.00,0.2848
2168.00,0.2848
2167.00,0.2846
2166.00,0.2845
2165.00,0.2844
2164.00,0.2843
2163.00,0.2842
2162.00,0.2840
2161.00,0.2839
2160.00,0.2838
2159.00,0.2837
2158.00,0.2836
2157.00,0.2834
2156.00,0.2833
2155.00,0.2832
2154.00,0.2831
2153.00,0.2831
2152.00,0.2830
2151.00,0.2828
2150.00,0.2826
2149.00,0.2824
2148.00,0.2821
2147.00,0.2818
2146.00,0.2814
2145.00,0.2809
2144.00,0.2804
2143.00,0.2798
2142.00,0.2792
2141.00,0.2786
2140.00,0.2781
2139.00,0.2777
2138.00,0.2773
2137.00,0.2769
2136.00,0.2766
2135.00,0.2762
2134.00,0.2759
2133.00,0.2756
2132.00,0.2753
2131.00,0.2751
2130.00,0.2748
2129.00,0.2745
2128.00,0.2743
2127.00,0.2741
2126.00,0.2739
2125.00,0.2738
2124.00,0.2737
2123.00,0.2736
2122.00,0.2735
2121.00,0.2734
2120.00,0.2734
2119.00,0.2734
2118.00,0.2733
2117.00,0.2733
2116.00,0.2733
2115.00,0.2733
2114.00,0.2732
2113.00,0.2732
2112.00,0.2731
2111.00,0.2731
2110.00,0.2730
2109.00,0.2728
2108.00,0.2727
2107.00,0.2726
2106.00,0.2724
2105.00,0.2724
2104.00,0.2723
2103.00,0.2722
2102.00,0.2721
2101.00,0.2721
2100.00,0.2720
2099.00,0.2718
2098.00,0.2717
2097.00,0.2716
2096.00,0.2715
2095.00,0.2714
2094.00,0.2714
2093.00,0.2713
2092.00,0.2713
2091.00,0.2713
2090.00,0.2712
2089.00,0.2712
2088.00,0.2711
2087.00,0.2711
2086.00,0.2710
2085.00,0.2711
2084.00,0.2712
2083.00,0.2713
2082.00,0.2714
2081.00,0.2715
2080.00,0.2715
2079.00,0.2715
2078.00,0.2715
2077.00,0.2716
2076.00,0.2716
2075.00,0.2717
2074.00,0.2717
2073.00,0.2718
2072.00,0.2719
2071.00,0.2720
2070.00,0.2721
2069.00,0.2721
2068.00,0.2722
2067.00,0.2722
2066.00,0.2723
2065.00,0.2724
2064.00,0.2726
2063.00,0.2727
2062.00,0.2729
2061.00,0.2730
2060.00,0.2732
2059.00,0.2733
2058.00,0.2734
2057.00,0.2736
2056.00,0.2738
2055.00,0.2739
2054.00,0.2740
2053.00,0.2741
2052.00,0.2743
2051.00,0.2746
2050.00,0.2749
2049.00,0.2752
2048.00,0.2755
2047.00,0.2757
2046.00,0.2760
2045.00,0.2763
2044.00,0.2766
2043.00,0.2768
2042.00,0.2771
2041.00,0.2773
2040.00,0.2775
2039.00,0.2777
2038.00,0.2778
2037.00,0.2779
2036.00,0.2780
2035.00,0.2781
2034.00,0.2782
2033.00,0.2784
2032.00,0.2785
2031.00,0.2785
2030.00,0.2785
2029.00,0.2785
2028.00,0.2784
2027.00,0.2784
2026.00,0.2784
2025.00,0.2784
2024.00,0.2783
2023.00,0.2780
2022.00,0.2777
2021.00,0.2772
2020.00,0.2767
2019.00,0.2760
2018.00,0.2753
2017.00,0.2745
2016.00,0.2737
2015.00,0.2730
2014.00,0.2723
2013.00,0.2716
2012.00,0.2709
2011.00,0.2702
2010.00,0.2695
2009.00,0.2690
2008.00,0.2685
2007.00,0.2681
2006.00,0.2678
2005.00,0.2675
2004.00,0.2672
2003.00,0.2670
2002.00,0.2667
2001.00,0.2665
2000.00,0.2664
1999.00,0.2663
1998.00,0.2663
1997.00,0.2662
1996.00,0.2661
1995.00,0.2659
1994.00,0.2658
1993.00,0.2656
1992.00,0.2655
1991.00,0.2655
1990.00,0.2654
1989.00,0.2654
1988.00,0.2653
1987.00,0.2651
1986.00,0.2650
1985.00,0.2649
1984.00,0.2649
1983.00,0.2648
1982.00,0.2647
1981.00,0.2647
1980.00,0.2646
1979.00,0.2646
1978.00,0.2645
1977.00,0.2644
1976.00,0.2643
1975.00,0.2643
1974.00,0.2642
1973.00,0.2643
1972.00,0.2644
1971.00,0.2644
1970.00,0.2643
1969.00,0.2643
1968.00,0.2643
1967.00,0.2644
1966.00,0.2645
1965.00,0.2647
1964.00,0.2648
1963.00,0.2649
1962.00,0.2650
1961.00,0.2651
1960.00,0.2652
1959.00,0.2654
1958.00,0.2656
1957.00,0.2657
1956.00,0.2659
1955.00,0.2660
1954.00,0.2661
1953.00,0.2663
1952.00,0.2664
1951.00,0.2664
1950.00,0.2664
1949.00,0.2664
1948.00,0.2665
1947.00,0.2665
1946.00,0.2666
1945.00,0.2668
1944.00,0.2670
1943.00,0.2672
1942.00,0.2675
1941.00,0.2679
1940.00,0.2684
1939.00,0.2688
1938.00,0.2690
1937.00,0.2692
1936.00,0.2693
1935.00,0.2694
1934.00,0.2695
1933.00,0.2696
1932.00,0.2697
1931.00,0.2697
1930.00,0.2697
1929.00,0.2698
1928.00,0.2699
1927.00,0.2699
1926.00,0.2699
1925.00,0.2699
1924.00,0.2700
1923.00,0.2701
1922.00,0.2703
1921.00,0.2706
1920.00,0.2709
1919.00,0.2712
1918.00,0.2714
1917.00,0.2718
1916.00,0.2721
1915.00,0.2722
1914.00,0.2722
1913.00,0.2722
1912.00,0.2722
1911.00,0.2721
1910.00,0.2720
1909.00,0.2720
1908.00,0.2720
1907.00,0.2721
1906.00,0.2721
1905.00,0.2721
1904.00,0.2722
1903.00,0.2722
1902.00,0.2722
1901.00,0.2722
1900.00,0.2723
1899.00,0.2724
1898.00,0.2724
1897.00,0.2726
1896.00,0.2727
1895.00,0.2728
1894.00,0.2729
1893.00,0.2731
1892.00,0.2732
1891.00,0.2733
1890.00,0.2734
1889.00,0.2736
1888.00,0.2739
1887.00,0.2742
1886.00,0.2744
1885.00,0.2744
1884.00,0.2745
1883.00,0.2746
1882.00,0.2746
1881.00,0.2746
1880.00,0.2745
1879.00,0.2744
1878.00,0.2742
1877.00,0.2741
1876.00,0.2739
1875.00,0.2736
1874.00,0.2734
1873.00,0.2731
1872.00,0.2728
1871.00,0.2724
1870.00,0.2719
1869.00,0.2715
1868.00,0.2713
1867.00,0.2711
1866.00,0.2710
1865.00,0.2708
1864.00,0.2706
1863.00,0.2704
1862.00,0.2701
1861.00,0.2699
1860.00,0.2698
1859.00,0.2696
1858.00,0.2694
1857.00,0.2692
1856.00,0.2690
1855.00,0.2688
1854.00,0.2686
1853.00,0.2685
1852.00,0.2684
1851.00,0.2683
1850.00,0.2682
1849.00,0.2681
1848.00,0.2680
1847.00,0.2679
1846.00,0.2678
1845.00,0.2677
1844.00,0.2677
1843.00,0.2675
1842.00,0.2674
1841.00,0.2673
1840.00,0.2672
1839.00,0.2670
1838.00,0.2669
1837.00,0.2668
1836.00,0.2668
1835.00,0.2667
1834.00,0.2666
1833.00,0.2666
1832.00,0.2666
1831.00,0.2665
1830.00,0.2665
1829.00,0.2665
1828.00,0.2659
1827.00,0.2661
1826.00,0.2662
1825.00,0.2663
1824.00,0.2665
1823.00,0.2668
1822.00,0.2670
1821.00,0.2672
1820.00,0.2673
1819.00,0.2674
1818.00,0.2675
1817.00,0.2677
1816.00,0.2678
1815.00,0.2680
1814.00,0.2681
1813.00,0.2682
1812.00,0.2683
1811.00,0.2684
1810.00,0.2686
1809.00,0.2690
1808.00,0.2695
1807.00,0.2700
1806.00,0.2706
1805.00,0.2712
1804.00,0.2718
1803.00,0.2724
1802.00,0.2730
1801.00,0.2735
1800.00,0.2740
1799.00,0.2745
1798.00,0.2750
1797.00,0.2755
1796.00,0.2760
1795.00,0.2763
1794.00,0.2766
1793.00,0.2770
1792.00,0.2776
1791.00,0.2783
1790.00,0.2790
1789.00,0.2795
1788.00,0.2799
1787.00,0.2802
1786.00,0.2805
1785.00,0.2810
1784.00,0.2815
1783.00,0.2819
1782.00,0.2821
1781.00,0.2824
1780.00,0.2827
1779.00,0.2832
1778.00,0.2838
1777.00,0.2842
1776.00,0.2846
1775.00,0.2848
1774.00,0.2851
1773.00,0.2857
1772.00,0.2866
1771.00,0.2873
1770.00,0.2879
1769.00,0.2884
1768.00,0.2891
1767.00,0.2898
1766.00,0.2905
1765.00,0.2910
1764.00,0.2914
1763.00,0.2919
1762.00,0.2926
1761.00,0.2937
1760.00,0.2950
1759.00,0.2960
1758.00,0.2970
1757.00,0.2982
1756.00,0.2997
1755.00,0.3015
1754.00,0.3034
1753.00,0.3058
1752.00,0.3089
1751.00,0.3129
1750.00,0.3175
1749.00,0.3226
1748.00,0.3284
1747.00,0.3350
1746.00,0.3422
1745.00,0.3497
1744.00,0.3570
1743.00,0.3632
1742.00,0.3678
1741.00,0.3705
1740.00,0.3712
1739.00,0.3697
1738.00,0.3668
1737.00,0.3629
1736.00,0.3581
1735.00,0.3524
1734.00,0.3463
1733.00,0.3413
1732.00,0.3374
1731.00,0.3335
1730.00,0.3297
1729.00,0.3268
1728.00,0.3252
1727.00,0.3244
1726.00,0.3239
1725.00,0.3239
1724.00,0.3242
1723.00,0.3246
1722.00,0.3252
1721.00,0.3258
1720.00,0.3263
1719.00,0.3271
1718.00,0.3286
1717.00,0.3308
1716.00,0.3332
1715.00,0.3349
1714.00,0.3361
1713.00,0.3374
1712.00,0.3390
1711.00,0.3407
1710.00,0.3424
1709.00,0.3439
1708.00,0.3450
1707.00,0.3456
1706.00,0.3456
1705.00,0.3453
1704.00,0.3447
1703.00,0.3435
1702.00,0.3419
1701.00,0.3398
1700.00,0.3375
1699.00,0.3358
1698.00,0.3346
1697.00,0.3333
1696.00,0.3320
1695.00,0.3313
1694.00,0.3309
1693.00,0.3300
1692.00,0.3285
1691.00,0.3272
1690.00,0.3265
1689.00,0.3264
1688.00,0.3263
1687.00,0.3263
1686.00,0.3266
1685.00,0.3271
1684.00,0.3275
1683.00,0.3275
1682.00,0.3274
1681.00,0.3270
1680.00,0.3266
1679.00,0.3265
1678.00,0.3267
1677.00,0.3272
1676.00,0.3279
1675.00,0.3288
1674.00,0.3298
1673.00,0.3309
1672.00,0.3315
1671.00,0.3319
1670.00,0.3326
1669.00,0.3339
1668.00,0.3358
1667.00,0.3376
1666.00,0.3391
1665.00,0.3405
1664.00,0.3421
1663.00,0.3440
1662.00,0.3463
1661.00,0.3489
1660.00,0.3517
1659.00,0.3542
1658.00,0.3566
1657.00,0.3589
1656.00,0.3612
1655.00,0.3640
1654.00,0.3682
1653.00,0.3739
1652.00,0.3800
1651.00,0.3846
1650.00,0.3861
1649.00,0.3862
1648.00,0.3875
1647.00,0.3907
1646.00,0.3955
1645.00,0.4009
1644.00,0.4057
1643.00,0.4094
1642.00,0.4125
1641.00,0.4158
1640.00,0.4193
1639.00,0.4226
1638.00,0.4256
1637.00,0.4293
1636.00,0.4339
1635.00,0.4390
1634.00,0.4439
1633.00,0.4483
1632.00,0.4519
1631.00,0.4553
1630.00,0.4590
1629.00,0.4635
1628.00,0.4686
1627.00,0.4738
1626.00,0.4791
1625.00,0.4852
1624.00,0.4921
1623.00,0.4998
1622.00,0.5081
1621.00,0.5169
1620.00,0.5259
1619.00,0.5355
1618.00,0.5472
1617.00,0.5625
1616.00,0.5801
1615.00,0.5977
1614.00,0.6149
1613.00,0.6333
1612.00,0.6545
1611.00,0.6780
1610.00,0.7023
1609.00,0.7263
1608.00,0.7487
1607.00,0.7680
1606.00,0.7843
1605.00,0.8000
1604.00,0.8173
1603.00,0.8368
1602.00,0.8600
1601.00,0.8887
1600.00,0.9242
1599.00,0.9664
1598.00,1.0164
1597.00,1.0780
1596.00,1.1551
1595.00,1.2494
1594.00,1.3624
1593.00,1.5005
1592.00,1.6724
1591.00,1.8798
1590.00,2.1189
1589.00,2.4047
1588.00,2.7931
1587.00,3.3269
1586.00,3.6978
1585.00,3.9452
1584.00,3.8454
1583.00,3.6546
1582.00,3.9187
1581.00,3.9686
1580.00,4.3403
1579.00,3.5409
1578.00,2.8203
1577.00,2.4081
1576.00,2.1210
1575.00,1.9044
1574.00,1.7460
1573.00,1.6354
1572.00,1.5595
1571.00,1.5108
1570.00,1.4922
1569.00,1.5118
1568.00,1.5715
1567.00,1.6669
1566.00,1.7984
1565.00,1.9783
1564.00,2.2176
1563.00,2.4882
1562.00,2.6903
1561.00,2.7405
1560.00,2.5637
1559.00,2.2088
1558.00,1.9017
1557.00,1.6859
1556.00,1.5144
1555.00,1.3593
1554.00,1.2259
1553.00,1.1238
1552.00,1.0497
1551.00,0.9940
1550.00,0.9517
1549.00,0.9230
1548.00,0.9073
1547.00,0.9015
1546.00,0.9030
1545.00,0.9111
1544.00,0.9244
1543.00,0.9394
1542.00,0.9526
1541.00,0.9603
1540.00,0.9582
1539.00,0.9447
1538.00,0.9245
1537.00,0.9017
1536.00,0.8765
1535.00,0.8476
1534.00,0.8158
1533.00,0.7863
1532.00,0.7628
1531.00,0.7451
1530.00,0.7313
1529.00,0.7204
1528.00,0.7117
1527.00,0.7041
1526.00,0.6974
1525.00,0.6926
1524.00,0.6899
1523.00,0.6896
1522.00,0.6929
1521.00,0.7008
1520.00,0.7115
1519.00,0.7220
1518.00,0.7310
1517.00,0.7385
1516.00,0.7424
1515.00,0.7396
1514.00,0.7294
1513.00,0.7131
1512.00,0.6932
1511.00,0.6724
1510.00,0.6535
1509.00,0.6380
1508.00,0.6260
1507.00,0.6174
1506.00,0.6130
1505.00,0.6131
1504.00,0.6154
1503.00,0.6176
1502.00,0.6200
1501.00,0.6239
1500.00,0.6294
1499.00,0.6361
1498.00,0.6443
1497.00,0.6552
1496.00,0.6687
1495.00,0.6828
1494.00,0.6965
1493.00,0.7107
1492.00,0.7269
1491.00,0.7446
1490.00,0.7626
1489.00,0.7800
1488.00,0.7971
1487.00,0.8148
1486.00,0.8353
1485.00,0.8599
1484.00,0.8889
1483.00,0.9218
1482.00,0.9602
1481.00,1.0055
1480.00,1.0578
1479.00,1.1169
1478.00,1.1860
1477.00,1.2699
1476.00,1.3706
1475.00,1.4888
1474.00,1.6336
1473.00,1.8248
1472.00,2.0772
1471.00,2.3848
1470.00,2.7352
1469.00,3.1606
1468.00,3.7886
1467.00,4.3750
1466.00,4.0615
1465.00,3.8930
1464.00,3.7573
1463.00,3.7587
1462.00,3.8907
1461.00,4.1233
1460.00,4.1264
1459.00,3.8301
1458.00,3.7457
1457.00,3.8721
1456.00,4.0370
1455.00,4.3510
1454.00,4.0862
1453.00,3.9322
1452.00,3.9520
1451.00,3.8155
1450.00,3.7776
1449.00,4.0742
1448.00,4.6447
1447.00,4.0594
1446.00,3.7991
1445.00,3.9140
1444.00,4.1340
1443.00,3.7966
1442.00,3.4915
1441.00,3.3126
1440.00,3.1192
1439.00,2.8862
1438.00,2.6606
1437.00,2.4522
1436.00,2.2577
1435.00,2.0864
1434.00,1.9400
1433.00,1.8081
1432.00,1.6826
1431.00,1.5648
1430.00,1.4599
1429.00,1.3707
1428.00,1.2973
1427.00,1.2380
1426.00,1.1901
1425.00,1.1512
1424.00,1.1201
1423.00,1.0968
1422.00,1.0799
1421.00,1.0679
1420.00,1.0598
1419.00,1.0562
1418.00,1.0582
1417.00,1.0659
1416.00,1.0790
1415.00,1.0968
1414.00,1.1179
1413.00,1.1396
1412.00,1.1581
1411.00,1.1696
1410.00,1.1716
1409.00,1.1639
1408.00,1.1470
1407.00,1.1216
1406.00,1.0883
1405.00,1.0493
1404.00,1.0079
1403.00,0.9679
1402.00,0.9313
1401.00,0.8981
1400.00,0.8687
1399.00,0.8441
1398.00,0.8255
1397.00,0.8121
1396.00,0.8026
1395.00,0.7958
1394.00,0.7914
1393.00,0.7901
1392.00,0.7936
1391.00,0.8038
1390.00,0.8228
1389.00,0.8541
1388.00,0.9014
1387.00,0.9663
1386.00,1.0452
1385.00,1.1336
1384.00,1.2306
1383.00,1.3397
1382.00,1.4653
1381.00,1.6113
1380.00,1.7773
1379.00,1.9460
1378.00,2.0695
1377.00,2.0979
1376.00,2.0308
1375.00,1.9046
1374.00,1.7599
1373.00,1.6278
1372.00,1.5212
1371.00,1.4401
1370.00,1.3817
1369.00,1.3444
1368.00,1.3239
1367.00,1.3100
1366.00,1.2888
1365.00,1.2499
1364.00,1.1930
1363.00,1.1272
1362.00,1.0642
1361.00,1.0118
1360.00,0.9714
1359.00,0.9411
1358.00,0.9187
1357.00,0.9032
1356.00,0.8939
1355.00,0.8900
1354.00,0.8900
1353.00,0.8927
1352.00,0.8969
1351.00,0.9024
1350.00,0.9100
1349.00,0.9214
1348.00,0.9383
1347.00,0.9606
1346.00,0.9848
1345.00,1.0036
1344.00,1.0088
1343.00,0.9968
1342.00,0.9707
1341.00,0.9373
1340.00,0.9024
1339.00,0.8695
1338.00,0.8395
1337.00,0.8123
1336.00,0.7879
1335.00,0.7664
1334.00,0.7479
1333.00,0.7325
1332.00,0.7202
1331.00,0.7112
1330.00,0.7052
1329.00,0.7021
1328.00,0.7017
1327.00,0.7034
1326.00,0.7059
1325.00,0.7085
1324.00,0.7109
1323.00,0.7131
1322.00,0.7153
1321.00,0.7178
1320.00,0.7209
1319.00,0.7246
1318.00,0.7291
1317.00,0.7340
1316.00,0.7395
1315.00,0.7457
1314.00,0.7525
1313.00,0.7600
1312.00,0.7681
1311.00,0.7763
1310.00,0.7844
1309.00,0.7918
1308.00,0.7977
1307.00,0.8013
1306.00,0.8021
1305.00,0.8002
1304.00,0.7966
1303.00,0.7925
1302.00,0.7889
1301.00,0.7863
1300.00,0.7843
1299.00,0.7820
1298.00,0.7785
1297.00,0.7736
1296.00,0.7675
1295.00,0.7608
1294.00,0.7540
1293.00,0.7469
1292.00,0.7390
1291.00,0.7297
1290.00,0.7188
1289.00,0.7072
1288.00,0.6960
1287.00,0.6860
1286.00,0.6777
1285.00,0.6711
1284.00,0.6665
1283.00,0.6646
1282.00,0.6661
1281.00,0.6712
1280.00,0.6789
1279.00,0.6863
1278.00,0.6896
1277.00,0.6861
1276.00,0.6760
1275.00,0.6621
1274.00,0.6478
1273.00,0.6356
1272.00,0.6261
1271.00,0.6194
1270.00,0.6147
1269.00,0.6111
1268.00,0.6076
1267.00,0.6038
1266.00,0.5995
1265.00,0.5951
1264.00,0.5912
1263.00,0.5881
1262.00,0.5859
1261.00,0.5843
1260.00,0.5837
1259.00,0.5841
1258.00,0.5855
1257.00,0.5875
1256.00,0.5900
1255.00,0.5927
1254.00,0.5957
1253.00,0.5985
1252.00,0.6005
1251.00,0.6013
1250.00,0.6006
1249.00,0.5985
1248.00,0.5956
1247.00,0.5920
1246.00,0.5882
1245.00,0.5843
1244.00,0.5807
1243.00,0.5774
1242.00,0.5746
1241.00,0.5718
1240.00,0.5688
1239.00,0.5661
1238.00,0.5643
1237.00,0.5646
1236.00,0.5673
1235.00,0.5723
1234.00,0.5790
1233.00,0.5862
1232.00,0.5928
1231.00,0.5976
1230.00,0.5992
1229.00,0.5969
1228.00,0.5906
1227.00,0.5811
1226.00,0.5696
1225.00,0.5577
1224.00,0.5465
1223.00,0.5367
1222.00,0.5286
1221.00,0.5220
1220.00,0.5169
1219.00,0.5133
1218.00,0.5111
1217.00,0.5101
1216.00,0.5101
1215.00,0.5110
1214.00,0.5121
1213.00,0.5130
1212.00,0.5133
1211.00,0.5129
1210.00,0.5116
1209.00,0.5094
1208.00,0.5062
1207.00,0.5028
1206.00,0.4999
1205.00,0.4982
1204.00,0.4985
1203.00,0.5013
1202.00,0.5066
1201.00,0.5135
1200.00,0.5200
1199.00,0.5243
1198.00,0.5254
1197.00,0.5244
1196.00,0.5234
1195.00,0.5241
1194.00,0.5272
1193.00,0.5321
1192.00,0.5380
1191.00,0.5434
1190.00,0.5468
1189.00,0.5470
1188.00,0.5442
1187.00,0.5394
1186.00,0.5337
1185.00,0.5281
1184.00,0.5229
1183.00,0.5183
1182.00,0.5144
1181.00,0.5109
1180.00,0.5079
1179.00,0.5055
1178.00,0.5040
1177.00,0.5034
1176.00,0.5038
1175.00,0.5053
1174.00,0.5079
1173.00,0.5113
1172.00,0.5152
1171.00,0.5191
1170.00,0.5227
1169.00,0.5256
1168.00,0.5275
1167.00,0.5289
1166.00,0.5300
1165.00,0.5312
1164.00,0.5330
1163.00,0.5352
1162.00,0.5377
1161.00,0.5398
1160.00,0.5411
1159.00,0.5415
1158.00,0.5411
1157.00,0.5401
1156.00,0.5391
1155.00,0.5384
1154.00,0.5378
1153.00,0.5370
1152.00,0.5358
1151.00,0.5343
1150.00,0.5326
1149.00,0.5308
1148.00,0.5290
1147.00,0.5272
1146.00,0.5254
1145.00,0.5239
1144.00,0.5227
1143.00,0.5223
1142.00,0.5229
1141.00,0.5248
1140.00,0.5280
1139.00,0.5326
1138.00,0.5383
1137.00,0.5452
1136.00,0.5530
1135.00,0.5610
1134.00,0.5674
1133.00,0.5701
1132.00,0.5679
1131.00,0.5616
1130.00,0.5534
1129.00,0.5461
1128.00,0.5418
1127.00,0.5410
1126.00,0.5424
1125.00,0.5436
1124.00,0.5426
1123.00,0.5390
1122.00,0.5337
1121.00,0.5283
1120.00,0.5243
1119.00,0.5226
1118.00,0.5231
1117.00,0.5253
1116.00,0.5282
1115.00,0.5303
1114.00,0.5300
1113.00,0.5261
1112.00,0.5191
1111.00,0.5102
1110.00,0.5009
1109.00,0.4928
1108.00,0.4865
1107.00,0.4827
1106.00,0.4815
1105.00,0.4828
1104.00,0.4863
1103.00,0.4916
1102.00,0.4979
1101.00,0.5044
1100.00,0.5098
1099.00,0.5125
1098.00,0.5117
1097.00,0.5078
1096.00,0.5025
1095.00,0.4974
1094.00,0.4933
1093.00,0.4902
1092.00,0.4877
1091.00,0.4855
1090.00,0.4835
1089.00,0.4818
1088.00,0.4809
1087.00,0.4812
1086.00,0.4830
1085.00,0.4862
1084.00,0.4907
1083.00,0.4967
1082.00,0.5039
1081.00,0.5115
1080.00,0.5189
1079.00,0.5249
1078.00,0.5286
1077.00,0.5293
1076.00,0.5268
1075.00,0.5215
1074.00,0.5142
1073.00,0.5060
1072.00,0.4981
1071.00,0.4911
1070.00,0.4853
1069.00,0.4804
1068.00,0.4761
1067.00,0.4724
1066.00,0.4692
1065.00,0.4666
1064.00,0.4645
1063.00,0.4629
1062.00,0.4616
1061.00,0.4603
1060.00,0.4587
1059.00,0.4569
1058.00,0.4547
1057.00,0.4522
1056.00,0.4496
1055.00,0.4468
1054.00,0.4441
1053.00,0.4414
1052.00,0.4390
1051.00,0.4370
1050.00,0.4355
1049.00,0.4345
1048.00,0.4340
1047.00,0.4339
1046.00,0.4340
1045.00,0.4340
1044.00,0.4340
1043.00,0.4339
1042.00,0.4339
1041.00,0.4341
1040.00,0.4346
1039.00,0.4354
1038.00,0.4364
1037.00,0.4378
1036.00,0.4394
1035.00,0.4415
1034.00,0.4444
1033.00,0.4481
1032.00,0.4528
1031.00,0.4582
1030.00,0.4637
1029.00,0.4683
1028.00,0.4711
1027.00,0.4716
1026.00,0.4694
1025.00,0.4648
1024.00,0.4585
1023.00,0.4517
1022.00,0.4451
1021.00,0.4395
1020.00,0.4350
1019.00,0.4318
1018.00,0.4295
1017.00,0.4280
1016.00,0.4271
1015.00,0.4267
1014.00,0.4265
1013.00,0.4260
1012.00,0.4251
1011.00,0.4242
1010.00,0.4240
1009.00,0.4246
1008.00,0.4257
1007.00,0.4270
1006.00,0.4279
1005.00,0.4285
1004.00,0.4289
1003.00,0.4296
1002.00,0.4304
1001.00,0.4314
1000.00,0.4321
999.00,0.4325
998.00,0.4323
997.00,0.4315
996.00,0.4304
995.00,0.4291
994.00,0.4279
993.00,0.4269
992.00,0.4260
991.00,0.4253
990.00,0.4247
989.00,0.4239
988.00,0.4228
987.00,0.4212
986.00,0.4196
985.00,0.4185
984.00,0.4187
983.00,0.4204
982.00,0.4235
981.00,0.4278
980.00,0.4331
979.00,0.4397
978.00,0.4484
977.00,0.4604
976.00,0.4773
975.00,0.5009
974.00,0.5332
973.00,0.5759
972.00,0.6304
971.00,0.6958
970.00,0.7667
969.00,0.8299
968.00,0.8661
967.00,0.8604
966.00,0.8156
965.00,0.7498
964.00,0.6812
963.00,0.6204
962.00,0.5722
961.00,0.5382
960.00,0.5181
959.00,0.5104
958.00,0.5112
957.00,0.5156
956.00,0.5187
955.00,0.5172
954.00,0.5102
953.00,0.4988
952.00,0.4855
951.00,0.4725
950.00,0.4616
949.00,0.4535
948.00,0.4483
947.00,0.4460
946.00,0.4462
945.00,0.4485
944.00,0.4522
943.00,0.4567
942.00,0.4612
941.00,0.4652
940.00,0.4681
939.00,0.4697
938.00,0.4700
937.00,0.4689
936.00,0.4669
935.00,0.4642
934.00,0.4609
933.00,0.4571
932.00,0.4527
931.00,0.4482
930.00,0.4437
929.00,0.4395
928.00,0.4360
927.00,0.4337
926.00,0.4331
925.00,0.4347
924.00,0.4382
923.00,0.4432
922.00,0.4482
921.00,0.4512
920.00,0.4506
919.00,0.4460
918.00,0.4382
917.00,0.4292
916.00,0.4204
915.00,0.4129
914.00,0.4068
913.00,0.4023
912.00,0.3990
911.00,0.3970
910.00,0.3961
909.00,0.3963
908.00,0.3978
907.00,0.4012
906.00,0.4063
905.00,0.4122
904.00,0.4171
903.00,0.4193
902.00,0.4183
901.00,0.4150
900.00,0.4116
899.00,0.4095
898.00,0.4091
897.00,0.4101
896.00,0.4120
895.00,0.4149
894.00,0.4187
893.00,0.4231
892.00,0.4279
891.00,0.4327
890.00,0.4365
889.00,0.4387
888.00,0.4386
887.00,0.4362
886.00,0.4322
885.00,0.4277
884.00,0.4235
883.00,0.4201
882.00,0.4178
881.00,0.4165
880.00,0.4160
879.00,0.4159
878.00,0.4159
877.00,0.4159
876.00,0.4161
875.00,0.4167
874.00,0.4174
873.00,0.4180
872.00,0.4184
871.00,0.4187
870.00,0.4192
869.00,0.4198
868.00,0.4209
867.00,0.4230
866.00,0.4262
865.00,0.4307
864.00,0.4356
863.00,0.4399
862.00,0.4419
861.00,0.4405
860.00,0.4356
859.00,0.4282
858.00,0.4202
857.00,0.4129
856.00,0.4071
855.00,0.4030
854.00,0.4002
853.00,0.3983
852.00,0.3970
851.00,0.3962
850.00,0.3955
849.00,0.3947
848.00,0.3937
847.00,0.3927
846.00,0.3918
845.00,0.3912
844.00,0.3914
843.00,0.3925
842.00,0.3949
841.00,0.3994
840.00,0.4063
839.00,0.4158
838.00,0.4263
837.00,0.4353
836.00,0.4402
835.00,0.4399
834.00,0.4351
833.00,0.4285
832.00,0.4226
831.00,0.4195
830.00,0.4198
829.00,0.4230
828.00,0.4282
827.00,0.4344
826.00,0.4412
825.00,0.4484
824.00,0.4562
823.00,0.4640
822.00,0.4704
821.00,0.4741
820.00,0.4745
819.00,0.4720
818.00,0.4675
817.00,0.4622
816.00,0.4569
815.00,0.4522
814.00,0.4481
813.00,0.4442
812.00,0.4401
811.00,0.4360
810.00,0.4319
809.00,0.4282
808.00,0.4247
807.00,0.4214
806.00,0.4179
805.00,0.4141
804.00,0.4102
803.00,0.4064
802.00,0.4030
801.00,0.4002
800.00,0.3981
799.00,0.3966
798.00,0.3955
797.00,0.3945
796.00,0.3935
795.00,0.3929
794.00,0.3928
793.00,0.3934
792.00,0.3946
791.00,0.3961
790.00,0.3978
789.00,0.3994
788.00,0.4009
787.00,0.4029
786.00,0.4056
785.00,0.4096
784.00,0.4149
783.00,0.4219
782.00,0.4308
781.00,0.4415
780.00,0.4535
779.00,0.4649
778.00,0.4733
777.00,0.4762
776.00,0.4733
775.00,0.4667
774.00,0.4593
773.00,0.4538
772.00,0.4511
771.00,0.4510
770.00,0.4525
769.00,0.4546
768.00,0.4568
767.00,0.4587
766.00,0.4604
765.00,0.4617
764.00,0.4631
763.00,0.4651
762.00,0.4684
761.00,0.4726
760.00,0.4771
759.00,0.4809
758.00,0.4835
757.00,0.4851
756.00,0.4864
755.00,0.4883
754.00,0.4912
753.00,0.4949
752.00,0.4993
751.00,0.5039
750.00,0.5090
749.00,0.5143
748.00,0.5200
747.00,0.5261
746.00,0.5326
745.00,0.5399
744.00,0.5478
743.00,0.5566
742.00,0.5660
741.00,0.5762
740.00,0.5871
739.00,0.5987
738.00,0.6109
737.00,0.6235
736.00,0.6365
735.00,0.6500
734.00,0.6640
733.00,0.6786
732.00,0.6942
731.00,0.7117
730.00,0.7328
729.00,0.7585
728.00,0.7898
727.00,0.8281
726.00,0.8751
725.00,0.9307
724.00,0.9909
723.00,1.0450
722.00,1.0766
721.00,1.0716
720.00,1.0307
719.00,0.9693
718.00,0.9044
717.00,0.8458
716.00,0.7974
715.00,0.7593
714.00,0.7298
713.00,0.7064
712.00,0.6867
711.00,0.6688
710.00,0.6517
709.00,0.6344
708.00,0.6169
707.00,0.5995
706.00,0.5828
705.00,0.5669
704.00,0.5521
703.00,0.5383
702.00,0.5258
701.00,0.5142
700.00,0.5029
699.00,0.4914
698.00,0.4791
697.00,0.4662
696.00,0.4536
695.00,0.4425
694.00,0.4335
693.00,0.4261
692.00,0.4201
691.00,0.4153
690.00,0.4117
689.00,0.4089
688.00,0.4063
687.00,0.4034
686.00,0.4001
685.00,0.3964
684.00,0.3928
683.00,0.3899
682.00,0.3878
681.00,0.3864
680.00,0.3854
679.00,0.3848
678.00,0.3845
677.00,0.3842
676.00,0.3840
675.00,0.3837
674.00,0.3834
673.00,0.3834
672.00,0.3834
671.00,0.3834
670.00,0.3833
669.00,0.3836
668.00,0.3845
667.00,0.3856
666.00,0.3872
665.00,0.3889
664.00,0.3901
663.00,0.3911
662.00,0.3922
661.00,0.3933
660.00,0.3943
659.00,0.3951
658.00,0.3959
657.00,0.3966
656.00,0.3974
655.00,0.3983
654.00,0.3992
653.00,0.4000
652.00,0.4008
651.00,0.4016
650.00,0.4025
649.00,0.4033
648.00,0.4043
647.00,0.4055
646.00,0.4073
645.00,0.4094
644.00,0.4116
643.00,0.4137
642.00,0.4158
641.00,0.4177
640.00,0.4197
639.00,0.4216
638.00,0.4234
637.00,0.4247
636.00,0.4257
635.00,0.4267
634.00,0.4278
633.00,0.4293
632.00,0.4310
631.00,0.4328
630.00,0.4345
629.00,0.4363
628.00,0.4383
627.00,0.4407
626.00,0.4433
625.00,0.4461
624.00,0.4491
623.00,0.4520
622.00,0.4549
621.00,0.4574
620.00,0.4593
619.00,0.4606
618.00,0.4615
617.00,0.4619
616.00,0.4619
615.00,0.4618
614.00,0.4615
613.00,0.4610
612.00,0.4604
611.00,0.4596
610.00,0.4586
609.00,0.4577
608.00,0.4572
607.00,0.4573
606.00,0.4579
605.00,0.4583
604.00,0.4582
603.00,0.4575
602.00,0.4565
601.00,0.4555
600.00,0.4546
599.00,0.4539
598.00,0.4533
597.00,0.4527
596.00,0.4521
595.00,0.4519
594.00,0.4520
593.00,0.4525
592.00,0.4533
591.00,0.4543
590.00,0.4555
589.00,0.4569
588.00,0.4586
587.00,0.4609
586.00,0.4638
585.00,0.4671
584.00,0.4706
583.00,0.4742
582.00,0.4775
581.00,0.4803
580.00,0.4824
579.00,0.4840
578.00,0.4853
577.00,0.4865
576.00,0.4880
575.00,0.4901
574.00,0.4928
573.00,0.4960
572.00,0.4992
571.00,0.5021
570.00,0.5045
569.00,0.5070
568.00,0.5097
567.00,0.5127
566.00,0.5157
565.00,0.5185
564.00,0.5215
563.00,0.5249
562.00,0.5284
561.00,0.5316
560.00,0.5346
559.00,0.5378
558.00,0.5416
557.00,0.5461
556.00,0.5508
555.00,0.5553
554.00,0.5593
553.00,0.5632
552.00,0.5677
551.00,0.5732
550.00,0.5786
