Created as New Dataset,
cm-1,A
4000.00,0.3959
3999.00,0.3955
3998.00,0.3952
3997.00,0.3949
3996.00,0.3945
3995.00,0.3942
3994.00,0.3938
3993.00,0.3935
3992.00,0.3931
3991.00,0.3927
3990.00,0.3923
3989.00,0.3919
3988.00,0.3915
3987.00,0.3911
3986.00,0.3907
3985.00,0.3903
3984.00,0.3900
3983.00,0.3896
3982.00,0.3892
3981.00,0.3888
3980.00,0.3884
3979.00,0.3881
3978.00,0.3878
3977.00,0.3875
3976.00,0.3873
3975.00,0.3871
3974.00,0.3870
3973.00,0.3868
3972.00,0.3865
3971.00,0.3863
3970.00,0.3861
3969.00,0.3859
3968.00,0.3857
3967.00,0.3856
3966.00,0.3854
3965.00,0.3852
3964.00,0.3849
3963.00,0.3847
3962.00,0.3845
3961.00,0.3843
3960.00,0.3841
3959.00,0.3839
3958.00,0.3837
3957.00,0.3835
3956.00,0.3833
3955.00,0.3831
3954.00,0.3830
3953.00,0.3828
3952.00,0.3826
3951.00,0.3824
3950.00,0.3823
3949.00,0.3821
3948.00,0.3820
3947.00,0.3819
3946.00,0.3818
3945.00,0.3816
3944.00,0.3815
3943.00,0.3813
3942.00,0.3813
3941.00,0.3812
3940.00,0.3812
3939.00,0.3811
3938.00,0.3810
3937.00,0.3809
3936.00,0.3808
3935.00,0.3807
3934.00,0.3808
3933.00,0.3808
3932.00,0.3808
3931.00,0.3808
3930.00,0.3807
3929.00,0.3807
3928.00,0.3806
3927.00,0.3806
3926.00,0.3805
3925.00,0.3805
3924.00,0.3804
3923.00,0.3803
3922.00,0.3802
3921.00,0.3801
3920.00,0.3801
3919.00,0.3802
3918.00,0.3801
3917.00,0.3801
3916.00,0.3800
3915.00,0.3799
3914.00,0.3798
3913.00,0.3798
3912.00,0.3798
3911.00,0.3798
3910.00,0.3797
3909.00,0.3797
3908.00,0.3796
3907.00,0.3796
3906.00,0.3795
3905.00,0.3796
3904.00,0.3796
3903.00,0.3797
3902.00,0.3797
3901.00,0.3798
3900.00,0.3798
3899.00,0.3798
3898.00,0.3797
3897.00,0.3796
3896.00,0.3795
3895.00,0.3793
3894.00,0.3792
3893.00,0.3791
3892.00,0.3790
3891.00,0.3789
3890.00,0.3788
3889.00,0.3786
3888.00,0.3784
3887.00,0.3783
3886.00,0.3783
3885.00,0.3784
3884.00,0.3784
3883.00,0.3782
3882.00,0.3780
3881.00,0.3779
3880.00,0.3778
3879.00,0.3777
3878.00,0.3776
3877.00,0.3775
3876.00,0.3775
3875.00,0.3775
3874.00,0.3775
3873.00,0.3774
3872.00,0.3772
3871.00,0.3771
3870.00,0.3771
3869.00,0.3770
3868.00,0.3769
3867.00,0.3767
3866.00,0.3766
3865.00,0.3766
3864.00,0.3766
3863.00,0.3766
3862.00,0.3764
3861.00,0.3762
3860.00,0.3761
3859.00,0.3761
3858.00,0.3761
3857.00,0.3760
3856.00,0.3758
3855.00,0.3756
3854.00,0.3756
3853.00,0.3756
3852.00,0.3755
3851.00,0.3753
3850.00,0.3750
3849.00,0.3748
3848.00,0.3747
3847.00,0.3746
3846.00,0.3745
3845.00,0.3744
3844.00,0.3744
3843.00,0.3745
3842.00,0.3746
3841.00,0.3747
3840.00,0.3747
3839.00,0.3747
3838.00,0.3746
3837.00,0.3746
3836.00,0.3745
3835.00,0.3744
3834.00,0.3743
3833.00,0.3742
3832.00,0.3742
3831.00,0.3740
3830.00,0.3739
3829.00,0.3737
3828.00,0.3735
3827.00,0.3735
3826.00,0.3735
3825.00,0.3735
3824.00,0.3734
3823.00,0.3732
3822.00,0.3731
3821.00,0.3731
3820.00,0.3730
3819.00,0.3728
3818.00,0.3725
3817.00,0.3722
3816.00,0.3720
3815.00,0.3718
3814.00,0.3715
3813.00,0.3711
3812.00,0.3709
3811.00,0.3707
3810.00,0.3706
3809.00,0.3704
3808.00,0.3703
3807.00,0.3703
3806.00,0.3703
3805.00,0.3703
3804.00,0.3701
3803.00,0.3700
3802.00,0.3699
3801.00,0.3698
3800.00,0.3697
3799.00,0.3695
3798.00,0.3692
3797.00,0.3690
3796.00,0.3688
3795.00,0.3685
3794.00,0.3683
3793.00,0.3680
3792.00,0.3678
3791.00,0.3676
3790.00,0.3674
3789.00,0.3672
3788.00,0.3670
3787.00,0.3669
3786.00,0.3667
3785.00,0.3666
3784.00,0.3664
3783.00,0.3662
3782.00,0.3660
3781.00,0.3657
3780.00,0.3655
3779.00,0.3654
3778.00,0.3652
3777.00,0.3650
3776.00,0.3648
3775.00,0.3646
3774.00,0.3644
3773.00,0.3642
3772.00,0.3640
3771.00,0.3638
3770.00,0.3636
3769.00,0.3636
3768.00,0.3635
3767.00,0.3635
3766.00,0.3634
3765.00,0.3634
3764.00,0.3634
3763.00,0.3633
3762.00,0.3632
3761.00,0.3630
3760.00,0.3629
3759.00,0.3628
3758.00,0.3627
3757.00,0.3626
3756.00,0.3625
3755.00,0.3624
3754.00,0.3623
3753.00,0.3622
3752.00,0.3620
3751.00,0.3618
3750.00,0.3617
3749.00,0.3615
3748.00,0.3614
3747.00,0.3611
3746.00,0.3608
3745.00,0.3606
3744.00,0.3605
3743.00,0.3603
3742.00,0.3600
3741.00,0.3598
3740.00,0.3597
3739.00,0.3596
3738.00,0.3596
3737.00,0.3595
3736.00,0.3594
3735.00,0.3593
3734.00,0.3592
3733.00,0.3591
3732.00,0.3590
3731.00,0.3589
3730.00,0.3588
3729.00,0.3586
3728.00,0.3584
3727.00,0.3583
3726.00,0.3582
3725.00,0.3580
3724.00,0.3578
3723.00,0.3576
3722.00,0.3575
3721.00,0.3574
3720.00,0.3572
3719.00,0.3570
3718.00,0.3569
3717.00,0.3567
3716.00,0.3566
3715.00,0.3565
3714.00,0.3563
3713.00,0.3562
3712.00,0.3561
3711.00,0.3560
3710.00,0.3559
3709.00,0.3558
3708.00,0.3558
3707.00,0.3558
3706.00,0.3558
3705.00,0.3558
3704.00,0.3557
3703.00,0.3557
3702.00,0.3557
3701.00,0.3558
3700.00,0.3558
3699.00,0.3558
3698.00,0.3558
3697.00,0.3559
3696.00,0.3560
3695.00,0.3561
3694.00,0.3563
3693.00,0.3564
3692.00,0.3566
3691.00,0.3567
3690.00,0.3567
3689.00,0.3568
3688.00,0.3569
3687.00,0.3568
3686.00,0.3567
3685.00,0.3566
3684.00,0.3565
3683.00,0.3564
3682.00,0.3562
3681.00,0.3561
3680.00,0.3561
3679.00,0.3561
3678.00,0.3561
3677.00,0.3560
3676.00,0.3559
3675.00,0.3559
3674.00,0.3559
3673.00,0.3557
3672.00,0.3556
3671.00,0.3555
3670.00,0.3555
3669.00,0.3556
3668.00,0.3555
3667.00,0.3555
3666.00,0.3555
3665.00,0.3556
3664.00,0.3558
3663.00,0.3559
3662.00,0.3560
3661.00,0.3562
3660.00,0.3563
3659.00,0.3565
3658.00,0.3567
3657.00,0.3570
3656.00,0.3574
3655.00,0.3577
3654.00,0.3580
3653.00,0.3583
3652.00,0.3586
3651.00,0.3589
3650.00,0.3592
3649.00,0.3595
3648.00,0.3597
3647.00,0.3598
3646.00,0.3598
3645.00,0.3597
3644.00,0.3596
3643.00,0.3596
3642.00,0.3596
3641.00,0.3597
3640.00,0.3598
3639.00,0.3599
3638.00,0.3601
3637.00,0.3602
3636.00,0.3604
3635.00,0.3607
3634.00,0.3609
3633.00,0.3612
3632.00,0.3614
3631.00,0.3617
3630.00,0.3621
3629.00,0.3626
3628.00,0.3632
3627.00,0.3637
3626.00,0.3640
3625.00,0.3643
3624.00,0.3647
3623.00,0.3649
3622.00,0.3650
3621.00,0.3650
3620.00,0.3649
3619.00,0.3648
3618.00,0.3648
3617.00,0.3647
3616.00,0.3646
3615.00,0.3645
3614.00,0.3644
3613.00,0.3644
3612.00,0.3644
3611.00,0.3644
3610.00,0.3645
3609.00,0.3646
3608.00,0.3646
3607.00,0.3646
3606.00,0.3645
3605.00,0.3643
3604.00,0.3641
3603.00,0.3639
3602.00,0.3636
3601.00,0.3633
3600.00,0.3629
3599.00,0.3625
3598.00,0.3620
3597.00,0.3615
3596.00,0.3611
3595.00,0.3607
3594.00,0.3603
3593.00,0.3599
3592.00,0.3596
3591.00,0.3594
3590.00,0.3592
3589.00,0.3591
3588.00,0.3591
3587.00,0.3591
3586.00,0.3592
3585.00,0.3592
3584.00,0.3593
3583.00,0.3593
3582.00,0.3595
3581.00,0.3596
3580.00,0.3598
3579.00,0.3599
3578.00,0.3600
3577.00,0.3600
3576.00,0.3601
3575.00,0.3603
3574.00,0.3604
3573.00,0.3606
3572.00,0.3608
3571.00,0.3610
3570.00,0.3613
3569.00,0.3615
3568.00,0.3618
3567.00,0.3621
3566.00,0.3624
3565.00,0.3627
3564.00,0.3629
3563.00,0.3632
3562.00,0.3636
3561.00,0.3639
3560.00,0.3642
3559.00,0.3645
3558.00,0.3649
3557.00,0.3653
3556.00,0.3657
3555.00,0.3662
3554.00,0.3666
3553.00,0.3671
3552.00,0.3676
3551.00,0.3681
3550.00,0.3687
3549.00,0.3692
3548.00,0.3697
3547.00,0.3702
3546.00,0.3707
3545.00,0.3712
3544.00,0.3717
3543.00,0.3721
3542.00,0.3726
3541.00,0.3731
3540.00,0.3735
3539.00,0.3739
3538.00,0.3744
3537.00,0.3747
3536.00,0.3751
3535.00,0.3755
3534.00,0.3758
3533.00,0.3762
3532.00,0.3766
3531.00,0.3770
3530.00,0.3775
3529.00,0.3779
3528.00,0.3783
3527.00,0.3788
3526.00,0.3792
3525.00,0.3797
3524.00,0.3801
3523.00,0.3805
3522.00,0.3809
3521.00,0.3814
3520.00,0.3820
3519.00,0.3826
3518.00,0.3831
3517.00,0.3837
3516.00,0.3843
3515.00,0.3849
3514.00,0.3855
3513.00,0.3861
3512.00,0.3867
3511.00,0.3873
3510.00,0.3879
3509.00,0.3884
3508.00,0.3890
3507.00,0.3896
3506.00,0.3902
3505.00,0.3908
3504.00,0.3914
3503.00,0.3921
3502.00,0.3928
3501.00,0.3935
3500.00,0.3942
3499.00,0.3948
3498.00,0.3955
3497.00,0.3962
3496.00,0.3969
3495.00,0.3976
3494.00,0.3983
3493.00,0.3990
3492.00,0.3998
3491.00,0.4006
3490.00,0.4015
3489.00,0.4024
3488.00,0.4032
3487.00,0.4041
3486.00,0.4049
3485.00,0.4056
3484.00,0.4064
3483.00,0.4071
3482.00,0.4077
3481.00,0.4084
3480.00,0.4090
3479.00,0.4096
3478.00,0.4102
3477.00,0.4108
3476.00,0.4113
3475.00,0.4118
3474.00,0.4123
3473.00,0.4130
3472.00,0.4137
3471.00,0.4144
3470.00,0.4151
3469.00,0.4158
3468.00,0.4164
3467.00,0.4170
3466.00,0.4176
3465.00,0.4181
3464.00,0.4187
3463.00,0.4193
3462.00,0.4200
3461.00,0.4207
3460.00,0.4214
3459.00,0.4221
3458.00,0.4228
3457.00,0.4235
3456.00,0.4241
3455.00,0.4248
3454.00,0.4255
3453.00,0.4263
3452.00,0.4271
3451.00,0.4279
3450.00,0.4289
3449.00,0.4298
3448.00,0.4307
3447.00,0.4315
3446.00,0.4323
3445.00,0.4331
3444.00,0.4340
3443.00,0.4349
3442.00,0.4358
3441.00,0.4367
3440.00,0.4375
3439.00,0.4383
3438.00,0.4391
3437.00,0.4399
3436.00,0.4408
3435.00,0.4417
3434.00,0.4426
3433.00,0.4435
3432.00,0.4443
3431.00,0.4452
3430.00,0.4460
3429.00,0.4469
3428.00,0.4477
3427.00,0.4486
3426.00,0.4495
3425.00,0.4504
3424.00,0.4513
3423.00,0.4522
3422.00,0.4531
3421.00,0.4541
3420.00,0.4551
3419.00,0.4562
3418.00,0.4572
3417.00,0.4584
3416.00,0.4596
3415.00,0.4607
3414.00,0.4618
3413.00,0.4628
3412.00,0.4639
3411.00,0.4650
3410.00,0.4660
3409.00,0.4670
3408.00,0.4680
3407.00,0.4690
3406.00,0.4702
3405.00,0.4714
3404.00,0.4726
3403.00,0.4737
3402.00,0.4748
3401.00,0.4760
3400.00,0.4772
3399.00,0.4784
3398.00,0.4796
3397.00,0.4808
3396.00,0.4821
3395.00,0.4834
3394.00,0.4846
3393.00,0.4858
3392.00,0.4870
3391.00,0.4882
3390.00,0.4894
3389.00,0.4907
3388.00,0.4920
3387.00,0.4933
3386.00,0.4947
3385.00,0.4960
3384.00,0.4974
3383.00,0.4987
3382.00,0.5000
3381.00,0.5014
3380.00,0.5029
3379.00,0.5043
3378.00,0.5058
3377.00,0.5072
3376.00,0.5087
3375.00,0.5102
3374.00,0.5116
3373.00,0.5130
3372.00,0.5146
3371.00,0.5162
3370.00,0.5179
3369.00,0.5196
3368.00,0.5212
3367.00,0.5228
3366.00,0.5244
3365.00,0.5261
3364.00,0.5278
3363.00,0.5295
3362.00,0.5313
3361.00,0.5330
3360.00,0.5348
3359.00,0.5367
3358.00,0.5385
3357.00,0.5403
3356.00,0.5420
3355.00,0.5437
3354.00,0.5455
3353.00,0.5473
3352.00,0.5492
3351.00,0.5510
3350.00,0.5528
3349.00,0.5544
3348.00,0.5560
3347.00,0.5576
3346.00,0.5592
3345.00,0.5608
3344.00,0.5624
3343.00,0.5640
3342.00,0.5654
3341.00,0.5667
3340.00,0.5680
3339.00,0.5692
3338.00,0.5703
3337.00,0.5714
3336.00,0.5723
3335.00,0.5730
3334.00,0.5737
3333.00,0.5743
3332.00,0.5749
3331.00,0.5755
3330.00,0.5759
3329.00,0.5763
3328.00,0.5765
3327.00,0.5766
3326.00,0.5766
3325.00,0.5766
3324.00,0.5765
3323.00,0.5763
3322.00,0.5759
3321.00,0.5754
3320.00,0.5748
3319.00,0.5741
3318.00,0.5734
3317.00,0.5728
3316.00,0.5722
3315.00,0.5714
3314.00,0.5706
3313.00,0.5697
3312.00,0.5687
3311.00,0.5678
3310.00,0.5669
3309.00,0.5661
3308.00,0.5651
3307.00,0.5641
3306.00,0.5631
3305.00,0.5620
3304.00,0.5609
3303.00,0.5599
3302.00,0.5590
3301.00,0.5583
3300.00,0.5575
3299.00,0.5567
3298.00,0.5560
3297.00,0.5553
3296.00,0.5547
3295.00,0.5541
3294.00,0.5534
3293.00,0.5528
3292.00,0.5523
3291.00,0.5518
3290.00,0.5515
3289.00,0.5511
3288.00,0.5509
3287.00,0.5506
3286.00,0.5504
3285.00,0.5502
3284.00,0.5500
3283.00,0.5498
3282.00,0.5496
3281.00,0.5496
3280.00,0.5497
3279.00,0.5498
3278.00,0.5500
3277.00,0.5502
3276.00,0.5503
3275.00,0.5505
3274.00,0.5506
3273.00,0.5508
3272.00,0.5511
3271.00,0.5514
3270.00,0.5519
3269.00,0.5523
3268.00,0.5528
3267.00,0.5532
3266.00,0.5536
3265.00,0.5540
3264.00,0.5544
3263.00,0.5549
3262.00,0.5554
3261.00,0.5559
3260.00,0.5564
3259.00,0.5569
3258.00,0.5575
3257.00,0.5581
3256.00,0.5587
3255.00,0.5592
3254.00,0.5597
3253.00,0.5601
3252.00,0.5604
3251.00,0.5608
3250.00,0.5612
3249.00,0.5616
3248.00,0.5620
3247.00,0.5624
3246.00,0.5628
3245.00,0.5630
3244.00,0.5632
3243.00,0.5633
3242.00,0.5635
3241.00,0.5636
3240.00,0.5639
3239.00,0.5641
3238.00,0.5642
3237.00,0.5643
3236.00,0.5643
3235.00,0.5642
3234.00,0.5642
3233.00,0.5641
3232.00,0.5640
3231.00,0.5639
3230.00,0.5637
3229.00,0.5635
3228.00,0.5632
3227.00,0.5630
3226.00,0.5628
3225.00,0.5626
3224.00,0.5624
3223.00,0.5621
3222.00,0.5618
3221.00,0.5614
3220.00,0.5610
3219.00,0.5606
3218.00,0.5603
3217.00,0.5599
3216.00,0.5595
3215.00,0.5590
3214.00,0.5586
3213.00,0.5582
3212.00,0.5577
3211.00,0.5572
3210.00,0.5567
3209.00,0.5562
3208.00,0.5558
3207.00,0.5554
3206.00,0.5551
3205.00,0.5546
3204.00,0.5541
3203.00,0.5535
3202.00,0.5529
3201.00,0.5523
3200.00,0.5517
3199.00,0.5510
3198.00,0.5504
3197.00,0.5498
3196.00,0.5493
3195.00,0.5487
3194.00,0.5481
3193.00,0.5475
3192.00,0.5468
3191.00,0.5461
3190.00,0.5454
3189.00,0.5446
3188.00,0.5439
3187.00,0.5431
3186.00,0.5424
3185.00,0.5417
3184.00,0.5409
3183.00,0.5401
3182.00,0.5393
3181.00,0.5383
3180.00,0.5374
3179.00,0.5365
3178.00,0.5356
3177.00,0.5347
3176.00,0.5338
3175.00,0.5328
3174.00,0.5317
3173.00,0.5307
3172.00,0.5296
3171.00,0.5285
3170.00,0.5274
3169.00,0.5264
3168.00,0.5255
3167.00,0.5245
3166.00,0.5235
3165.00,0.5225
3164.00,0.5214
3163.00,0.5203
3162.00,0.5193
3161.00,0.5182
3160.00,0.5172
3159.00,0.5162
3158.00,0.5152
3157.00,0.5142
3156.00,0.5131
3155.00,0.5121
3154.00,0.5111
3153.00,0.5102
3152.00,0.5092
3151.00,0.5082
3150.00,0.5072
3149.00,0.5062
3148.00,0.5054
3147.00,0.5045
3146.00,0.5036
3145.00,0.5028
3144.00,0.5019
3143.00,0.5011
3142.00,0.5003
3141.00,0.4995
3140.00,0.4988
3139.00,0.4980
3138.00,0.4973
3137.00,0.4967
3136.00,0.4960
3135.00,0.4953
3134.00,0.4947
3133.00,0.4942
3132.00,0.4937
3131.00,0.4934
3130.00,0.4930
3129.00,0.4926
3128.00,0.4923
3127.00,0.4921
3126.00,0.4920
3125.00,0.4919
3124.00,0.4918
3123.00,0.4917
3122.00,0.4916
3121.00,0.4916
3120.00,0.4917
3119.00,0.4919
3118.00,0.4920
3117.00,0.4920
3116.00,0.4921
3115.00,0.4923
3114.00,0.4925
3113.00,0.4928
3112.00,0.4932
3111.00,0.4935
3110.00,0.4939
3109.00,0.4943
3108.00,0.4949
3107.00,0.4955
3106.00,0.4961
3105.00,0.4968
3104.00,0.4975
3103.00,0.4982
3102.00,0.4990
3101.00,0.4997
3100.00,0.5005
3099.00,0.5014
3098.00,0.5023
3097.00,0.5033
3096.00,0.5044
3095.00,0.5057
3094.00,0.5071
3093.00,0.5087
3092.00,0.5104
3091.00,0.5123
3090.00,0.5145
3089.00,0.5169
3088.00,0.5194
3087.00,0.5219
3086.00,0.5245
3085.00,0.5271
3084.00,0.5299
3083.00,0.5328
3082.00,0.5359
3081.00,0.5392
3080.00,0.5426
3079.00,0.5463
3078.00,0.5500
3077.00,0.5540
3076.00,0.5581
3075.00,0.5623
3074.00,0.5666
3073.00,0.5708
3072.00,0.5751
3071.00,0.5795
3070.00,0.5839
3069.00,0.5883
3068.00,0.5927
3067.00,0.5970
3066.00,0.6012
3065.00,0.6053
3064.00,0.6092
3063.00,0.6127
3062.00,0.6160
3061.00,0.6191
3060.00,0.6219
3059.00,0.6245
3058.00,0.6270
3057.00,0.6297
3056.00,0.6325
3055.00,0.6356
3054.00,0.6388
3053.00,0.6422
3052.00,0.6458
3051.00,0.6495
3050.00,0.6535
3049.00,0.6577
3048.00,0.6620
3047.00,0.6665
3046.00,0.6711
3045.00,0.6759
3044.00,0.6806
3043.00,0.6854
3042.00,0.6901
3041.00,0.6947
3040.00,0.6994
3039.00,0.7042
3038.00,0.7092
3037.00,0.7144
3036.00,0.7200
3035.00,0.7259
3034.00,0.7323
3033.00,0.7392
3032.00,0.7465
3031.00,0.7544
3030.00,0.7627
3029.00,0.7714
3028.00,0.7804
3027.00,0.7897
3026.00,0.7994
3025.00,0.8095
3024.00,0.8199
3023.00,0.8306
3022.00,0.8417
3021.00,0.8531
3020.00,0.8649
3019.00,0.8769
3018.00,0.8891
3017.00,0.9013
3016.00,0.9134
3015.00,0.9254
3014.00,0.9377
3013.00,0.9503
3012.00,0.9633
3011.00,0.9768
3010.00,0.9908
3009.00,1.0054
3008.00,1.0207
3007.00,1.0367
3006.00,1.0535
3005.00,1.0707
3004.00,1.0886
3003.00,1.1072
3002.00,1.1265
3001.00,1.1467
3000.00,1.1676
2999.00,1.1895
2998.00,1.2128
2997.00,1.2382
2996.00,1.2664
2995.00,1.2983
2994.00,1.3340
2993.00,1.3738
2992.00,1.4179
2991.00,1.4669
2990.00,1.5216
2989.00,1.5825
2988.00,1.6502
2987.00,1.7255
2986.00,1.8090
2985.00,1.9009
2984.00,2.0019
2983.00,2.1141
2982.00,2.2405
2981.00,2.3820
2980.00,2.5366
2979.00,2.7006
2978.00,2.8710
2977.00,3.0448
2976.00,3.2229
2975.00,3.4192
2974.00,3.6477
2973.00,3.8436
2972.00,3.9046
2971.00,3.8764
2970.00,3.9510
2969.00,4.2452
2968.00,4.1812
2967.00,3.9918
2966.00,3.8450
2965.00,3.8985
2964.00,3.9153
2963.00,3.8262
2962.00,3.7624
2961.00,3.7814
2960.00,3.8952
2959.00,4.0454
2958.00,4.1305
2957.00,4.1864
2956.00,4.3328
2955.00,4.5685
2954.00,4.5562
2953.00,4.3823
2952.00,4.2625
2951.00,4.3223
2950.00,4.5401
2949.00,4.3548
2948.00,4.1963
2947.00,4.1337
2946.00,4.2219
2945.00,4.1660
2944.00,4.0849
2943.00,4.0604
2942.00,4.0123
2941.00,3.9106
2940.00,3.8541
2939.00,3.9155
2938.00,4.1235
2937.00,4.2933
2936.00,4.1465
2935.00,3.9747
2934.00,3.8742
2933.00,3.8466
2932.00,3.8519
2931.00,3.8836
2930.00,3.8442
2929.00,3.7625
2928.00,3.7505
2927.00,3.8651
2926.00,4.1339
2925.00,4.4225
2924.00,4.2139
2923.00,4.0566
2922.00,4.0636
2921.00,4.2209
2920.00,4.1451
2919.00,4.0554
2918.00,4.1390
2917.00,4.5683
2916.00,4.7025
2915.00,4.3695
2914.00,4.1005
2913.00,4.0615
2912.00,4.0645
2911.00,4.1139
2910.00,4.3159
2909.00,4.3915
2908.00,4.0928
2907.00,3.8839
2906.00,3.8293
2905.00,3.9204
2904.00,4.0528
2903.00,4.1193
2902.00,3.9683
2901.00,3.7928
2900.00,3.7213
2899.00,3.7741
2898.00,3.9628
2897.00,4.3534
2896.00,4.1733
2895.00,3.9863
2894.00,3.8692
2893.00,3.9296
2892.00,3.9279
2891.00,3.9555
2890.00,4.1028
2889.00,4.2057
2888.00,4.1366
2887.00,4.0634
2886.00,4.1177
2885.00,4.2826
2884.00,4.2211
2883.00,4.0671
2882.00,4.0321
2881.00,4.1519
2880.00,4.2475
2879.00,4.3308
2878.00,4.3383
2877.00,4.2516
2876.00,4.1327
2875.00,4.1563
2874.00,4.2703
2873.00,4.0761
2872.00,3.8783
2871.00,3.7825
2870.00,3.8162
2869.00,3.9410
2868.00,4.1229
2867.00,4.1979
2866.00,4.1271
2865.00,4.0990
2864.00,4.2001
2863.00,4.3398
2862.00,4.2973
2861.00,4.0964
2860.00,3.9295
2859.00,3.8669
2858.00,3.8942
2857.00,3.9759
2856.00,4.0623
2855.00,4.1007
2854.00,4.0614
2853.00,3.9836
2852.00,3.9398
2851.00,3.9041
2850.00,3.7916
2849.00,3.6963
2848.00,3.6735
2847.00,3.7028
2846.00,3.7198
2845.00,3.7588
2844.00,3.9120
2843.00,4.2209
2842.00,4.4440
2841.00,4.6073
2840.00,4.4959
2839.00,3.9439
2838.00,3.5185
2837.00,3.2155
2836.00,2.9920
2835.00,2.8051
2834.00,2.6401
2833.00,2.4829
2832.00,2.3331
2831.00,2.1954
2830.00,2.0716
2829.00,1.9612
2828.00,1.8630
2827.00,1.7759
2826.00,1.6981
2825.00,1.6276
2824.00,1.5632
2823.00,1.5045
2822.00,1.4511
2821.00,1.4022
2820.00,1.3570
2819.00,1.3152
2818.00,1.2765
2817.00,1.2407
2816.00,1.2072
2815.00,1.1757
2814.00,1.1459
2813.00,1.1176
2812.00,1.0910
2811.00,1.0661
2810.00,1.0426
2809.00,1.0204
2808.00,0.9993
2807.00,0.9793
2806.00,0.9603
2805.00,0.9423
2804.00,0.9251
2803.00,0.9086
2802.00,0.8930
2801.00,0.8780
2800.00,0.8637
2799.00,0.8500
2798.00,0.8371
2797.00,0.8247
2796.00,0.8128
2795.00,0.8012
2794.00,0.7899
2793.00,0.7788
2792.00,0.7681
2791.00,0.7576
2790.00,0.7474
2789.00,0.7374
2788.00,0.7277
2787.00,0.7182
2786.00,0.7090
2785.00,0.7000
2784.00,0.6913
2783.00,0.6828
2782.00,0.6746
2781.00,0.6666
2780.00,0.6591
2779.00,0.6519
2778.00,0.6451
2777.00,0.6387
2776.00,0.6326
2775.00,0.6269
2774.00,0.6214
2773.00,0.6163
2772.00,0.6115
2771.00,0.6071
2770.00,0.6032
2769.00,0.5995
2768.00,0.5962
2767.00,0.5933
2766.00,0.5906
2765.00,0.5883
2764.00,0.5864
2763.00,0.5847
2762.00,0.5831
2761.00,0.5817
2760.00,0.5804
2759.00,0.5792
2758.00,0.5781
2757.00,0.5769
2756.00,0.5758
2755.00,0.5747
2754.00,0.5737
2753.00,0.5730
2752.00,0.5724
2751.00,0.5721
2750.00,0.5719
2749.00,0.5720
2748.00,0.5723
2747.00,0.5728
2746.00,0.5736
2745.00,0.5747
2744.00,0.5760
2743.00,0.5776
2742.00,0.5796
2741.00,0.5820
2740.00,0.5848
2739.00,0.5882
2738.00,0.5921
2737.00,0.5965
2736.00,0.6014
2735.00,0.6067
2734.00,0.6122
2733.00,0.6175
2732.00,0.6223
2731.00,0.6264
2730.00,0.6294
2729.00,0.6313
2728.00,0.6321
2727.00,0.6319
2726.00,0.6309
2725.00,0.6292
2724.00,0.6271
2723.00,0.6247
2722.00,0.6220
2721.00,0.6190
2720.00,0.6157
2719.00,0.6120
2718.00,0.6081
2717.00,0.6038
2716.00,0.5993
2715.00,0.5945
2714.00,0.5897
2713.00,0.5851
2712.00,0.5808
2711.00,0.5769
2710.00,0.5734
2709.00,0.5702
2708.00,0.5674
2707.00,0.5651
2706.00,0.5631
2705.00,0.5615
2704.00,0.5603
2703.00,0.5592
2702.00,0.5584
2701.00,0.5578
2700.00,0.5575
2699.00,0.5575
2698.00,0.5577
2697.00,0.5580
2696.00,0.5585
2695.00,0.5592
2694.00,0.5601
2693.00,0.5609
2692.00,0.5618
2691.00,0.5626
2690.00,0.5634
2689.00,0.5642
2688.00,0.5649
2687.00,0.5656
2686.00,0.5662
2685.00,0.5666
2684.00,0.5670
2683.00,0.5673
2682.00,0.5676
2681.00,0.5679
2680.00,0.5682
2679.00,0.5685
2678.00,0.5688
2677.00,0.5693
2676.00,0.5698
2675.00,0.5702
2674.00,0.5705
2673.00,0.5707
2672.00,0.5708
2671.00,0.5707
2670.00,0.5704
2669.00,0.5699
2668.00,0.5690
2667.00,0.5678
2666.00,0.5664
2665.00,0.5648
2664.00,0.5631
2663.00,0.5612
2662.00,0.5593
2661.00,0.5572
2660.00,0.5551
2659.00,0.5529
2658.00,0.5507
2657.00,0.5487
2656.00,0.5466
2655.00,0.5446
2654.00,0.5427
2653.00,0.5408
2652.00,0.5391
2651.00,0.5374
2650.00,0.5359
2649.00,0.5344
2648.00,0.5330
2647.00,0.5317
2646.00,0.5304
2645.00,0.5291
2644.00,0.5280
2643.00,0.5268
2642.00,0.5258
2641.00,0.5248
2640.00,0.5238
2639.00,0.5228
2638.00,0.5219
2637.00,0.5210
2636.00,0.5202
2635.00,0.5193
2634.00,0.5185
2633.00,0.5177
2632.00,0.5169
2631.00,0.5160
2630.00,0.5151
2629.00,0.5142
2628.00,0.5133
2627.00,0.5126
2626.00,0.5118
2625.00,0.5110
2624.00,0.5102
2623.00,0.5093
2622.00,0.5083
2621.00,0.5074
2620.00,0.5065
2619.00,0.5056
2618.00,0.5047
2617.00,0.5038
2616.00,0.5029
2615.00,0.5020
2614.00,0.5010
2613.00,0.5001
2612.00,0.4991
2611.00,0.4982
2610.00,0.4973
2609.00,0.4963
2608.00,0.4954
2607.00,0.4944
2606.00,0.4935
2605.00,0.4925
2604.00,0.4915
2603.00,0.4904
2602.00,0.4893
2601.00,0.4881
2600.00,0.4870
2599.00,0.4857
2598.00,0.4844
2597.00,0.4831
2596.00,0.4816
2595.00,0.4801
2594.00,0.4787
2593.00,0.4772
2592.00,0.4756
2591.00,0.4741
2590.00,0.4724
2589.00,0.4708
2588.00,0.4692
2587.00,0.4676
2586.00,0.4659
2585.00,0.4641
2584.00,0.4623
2583.00,0.4605
2582.00,0.4588
2581.00,0.4571
2580.00,0.4553
2579.00,0.4535
2578.00,0.4517
2577.00,0.4500
2576.00,0.4483
2575.00,0.4466
2574.00,0.4450
2573.00,0.4434
2572.00,0.4418
2571.00,0.4403
2570.00,0.4388
2569.00,0.4373
2568.00,0.4358
2567.00,0.4345
2566.00,0.4331
2565.00,0.4316
2564.00,0.4302
2563.00,0.4288
2562.00,0.4275
2561.00,0.4262
2560.00,0.4249
2559.00,0.4237
2558.00,0.4225
2557.00,0.4213
2556.00,0.4201
2555.00,0.4189
2554.00,0.4178
2553.00,0.4167
2552.00,0.4156
2551.00,0.4144
2550.00,0.4134
2549.00,0.4124
2548.00,0.4114
2547.00,0.4105
2546.00,0.4097
2545.00,0.4088
2544.00,0.4079
2543.00,0.4070
2542.00,0.4061
2541.00,0.4053
2540.00,0.4046
2539.00,0.4039
2538.00,0.4033
2537.00,0.4027
2536.00,0.4021
2535.00,0.4015
2534.00,0.4009
2533.00,0.4004
2532.00,0.3998
2531.00,0.3991
2530.00,0.3984
2529.00,0.3976
2528.00,0.3967
2527.00,0.3958
2526.00,0.3949
2525.00,0.3940
2524.00,0.3930
2523.00,0.3920
2522.00,0.3911
2521.00,0.3903
2520.00,0.3894
2519.00,0.3886
2518.00,0.3878
2517.00,0.3870
2516.00,0.3862
2515.00,0.3854
2514.00,0.3847
2513.00,0.3839
2512.00,0.3832
2511.00,0.3825
2510.00,0.3818
2509.00,0.3811
2508.00,0.3804
2507.00,0.3797
2506.00,0.3791
2505.00,0.3784
2504.00,0.3778
2503.00,0.3772
2502.00,0.3765
2501.00,0.3759
2500.00,0.3754
2499.00,0.3749
2498.00,0.3744
2497.00,0.3739
2496.00,0.3733
2495.00,0.3728
2494.00,0.3723
2493.00,0.3718
2492.00,0.3714
2491.00,0.3709
2490.00,0.3704
2489.00,0.3699
2488.00,0.3695
2487.00,0.3691
2486.00,0.3686
2485.00,0.3682
2484.00,0.3678
2483.00,0.3674
2482.00,0.3670
2481.00,0.3667
2480.00,0.3663
2479.00,0.3660
2478.00,0.3656
2477.00,0.3652
2476.00,0.3648
2475.00,0.3644
2474.00,0.3641
2473.00,0.3639
2472.00,0.3637
2471.00,0.3634
2470.00,0.3632
2469.00,0.3628
2468.00,0.3625
2467.00,0.3622
2466.00,0.3620
2465.00,0.3618
2464.00,0.3615
2463.00,0.3612
2462.00,0.3610
2461.00,0.3607
2460.00,0.3605
2459.00,0.3602
2458.00,0.3600
2457.00,0.3598
2456.00,0.3596
2455.00,0.3595
2454.00,0.3593
2453.00,0.3591
2452.00,0.3589
2451.00,0.3588
2450.00,0.3587
2449.00,0.3586
2448.00,0.3586
2447.00,0.3585
2446.00,0.3585
2445.00,0.3585
2444.00,0.3585
2443.00,0.3585
2442.00,0.3585
2441.00,0.3585
2440.00,0.3586
2439.00,0.3587
2438.00,0.3588
2437.00,0.3589
2436.00,0.3589
2435.00,0.3589
2434.00,0.3590
2433.00,0.3590
2432.00,0.3591
2431.00,0.3591
2430.00,0.3592
2429.00,0.3592
2428.00,0.3593
2427.00,0.3593
2426.00,0.3594
2425.00,0.3594
2424.00,0.3594
2423.00,0.3594
2422.00,0.3594
2421.00,0.3595
2420.00,0.3596
2419.00,0.3597
2418.00,0.3598
2417.00,0.3599
2416.00,0.3599
2415.00,0.3599
2414.00,0.3600
2413.00,0.3600
2412.00,0.3601
2411.00,0.3602
2410.00,0.3603
2409.00,0.3603
2408.00,0.3602
2407.00,0.3601
2406.00,0.3600
2405.00,0.3600
2404.00,0.3599
2403.00,0.3598
2402.00,0.3597
2401.00,0.3596
2400.00,0.3595
2399.00,0.3594
2398.00,0.3593
2397.00,0.3592
2396.00,0.3590
2395.00,0.3588
2394.00,0.3586
2393.00,0.3585
2392.00,0.3583
2391.00,0.3582
2390.00,0.3581
2389.00,0.3580
2388.00,0.3578
2387.00,0.3576
2386.00,0.3574
2385.00,0.3573
2384.00,0.3573
2383.00,0.3573
2382.00,0.3574
2381.00,0.3574
2380.00,0.3574
2379.00,0.3574
2378.00,0.3574
2377.00,0.3574
2376.00,0.3573
2375.00,0.3573
2374.00,0.3572
2373.00,0.3571
2372.00,0.3569
2371.00,0.3567
2370.00,0.3565
2369.00,0.3564
2368.00,0.3564
2367.00,0.3564
2366.00,0.3564
2365.00,0.3565
2364.00,0.3565
2363.00,0.3564
2362.00,0.3562
2361.00,0.3562
2360.00,0.3562
2359.00,0.3562
2358.00,0.3561
2357.00,0.3561
2356.00,0.3559
2355.00,0.3558
2354.00,0.3556
2353.00,0.3556
2352.00,0.3556
2351.00,0.3555
2350.00,0.3554
2349.00,0.3552
2348.00,0.3551
2347.00,0.3549
2346.00,0.3549
2345.00,0.3548
2344.00,0.3547
2343.00,0.3545
2342.00,0.3544
2341.00,0.3542
2340.00,0.3542
2339.00,0.3541
2338.00,0.3540
2337.00,0.3539
2336.00,0.3538
2335.00,0.3537
2334.00,0.3536
2333.00,0.3535
2332.00,0.3534
2331.00,0.3531
2330.00,0.3528
2329.00,0.3526
2328.00,0.3523
2327.00,0.3520
2326.00,0.3518
2325.00,0.3515
2324.00,0.3513
2323.00,0.3511
2322.00,0.3510
2321.00,0.3508
2320.00,0.3507
2319.00,0.3504
2318.00,0.3501
2317.00,0.3498
2316.00,0.3496
2315.00,0.3493
2314.00,0.3491
2313.00,0.3489
2312.00,0.3486
2311.00,0.3484
2310.00,0.3480
2309.00,0.3477
2308.00,0.3473
2307.00,0.3470
2306.00,0.3466
2305.00,0.3463
2304.00,0.3460
2303.00,0.3457
2302.00,0.3454
2301.00,0.3451
2300.00,0.3448
2299.00,0.3445
2298.00,0.3441
2297.00,0.3439
2296.00,0.3436
2295.00,0.3434
2294.00,0.3431
2293.00,0.3429
2292.00,0.3426
2291.00,0.3422
2290.00,0.3419
2289.00,0.3416
2288.00,0.3413
2287.00,0.3410
2286.00,0.3407
2285.00,0.3404
2284.00,0.3401
2283.00,0.3398
2282.00,0.3395
2281.00,0.3391
2280.00,0.3388
2279.00,0.3385
2278.00,0.3382
2277.00,0.3379
2276.00,0.3376
2275.00,0.3373
2274.00,0.3369
2273.00,0.3366
2272.00,0.3364
2271.00,0.3361
2270.00,0.3359
2269.00,0.3357
2268.00,0.3355
2267.00,0.3353
2266.00,0.3351
2265.00,0.3349
2264.00,0.3347
2263.00,0.3345
2262.00,0.3343
2261.00,0.3341
2260.00,0.3339
2259.00,0.3336
2258.00,0.3334
2257.00,0.3331
2256.00,0.3327
2255.00,0.3324
2254.00,0.3320
2253.00,0.3318
2252.00,0.3315
2251.00,0.3313
2250.00,0.3311
2249.00,0.3309
2248.00,0.3307
2247.00,0.3304
2246.00,0.3302
2245.00,0.3300
2244.00,0.3298
2243.00,0.3296
2242.00,0.3294
2241.00,0.3292
2240.00,0.3290
2239.00,0.3289
2238.00,0.3287
2237.00,0.3286
2236.00,0.3285
2235.00,0.3283
2234.00,0.3282
2233.00,0.3281
2232.00,0.3280
2231.00,0.3279
2230.00,0.3278
2229.00,0.3277
2228.00,0.3276
2227.00,0.3274
2226.00,0.3273
2225.00,0.3271
2224.00,0.3269
2223.00,0.3268
2222.00,0.3266
2221.00,0.3265
2220.00,0.3264
2219.00,0.3262
2218.00,0.3261
2217.00,0.3260
2216.00,0.3260
2215.00,0.3259
2214.00,0.3258
2213.00,0.3258
2212.00,0.3257
2211.00,0.3257
2210.00,0.3256
2209.00,0.3256
2208.00,0.3256
2207.00,0.3256
2206.00,0.3256
2205.00,0.3256
2204.00,0.3257
2203.00,0.3257
2202.00,0.3257
2201.00,0.3257
2200.00,0.3257
2199.00,0.3257
2198.00,0.3257
2197.00,0.3257
2196.00,0.3257
2195.00,0.3256
2194.00,0.3256
2193.00,0.3256
2192.00,0.3256
2191.00,0.3255
2190.00,0.3255
2189.00,0.3255
2188.00,0.3255
2187.00,0.3254
2186.00,0.3253
2185.00,0.3251
2184.00,0.3250
2183.00,0.3249
2182.00,0.3248
2181.00,0.3247
2180.00,0.3246
2179.00,0.3245
2178.00,0.3244
2177.00,0.3243
2176.00,0.3243
2175.00,0.3242
2174.00,0.3241
2173.00,0.3240
2172.00,0.3239
2171.00,0.3238
2170.00,0.3237
2169.00,0.3236
2168.00,0.3235
2167.00,0.3234
2166.00,0.3233
2165.00,0.3231
2164.00,0.3230
2163.00,0.3228
2162.00,0.3225
2161.00,0.3224
2160.00,0.3222
2159.00,0.3221
2158.00,0.3219
2157.00,0.3217
2156.00,0.3214
2155.00,0.3212
2154.00,0.3210
2153.00,0.3209
2152.00,0.3207
2151.00,0.3204
2150.00,0.3202
2149.00,0.3199
2148.00,0.3196
2147.00,0.3192
2146.00,0.3188
2145.00,0.3184
2144.00,0.3180
2143.00,0.3176
2142.00,0.3172
2141.00,0.3168
2140.00,0.3164
2139.00,0.3161
2138.00,0.3158
2137.00,0.3156
2136.00,0.3154
2135.00,0.3152
2134.00,0.3150
2133.00,0.3148
2132.00,0.3147
2131.00,0.3145
2130.00,0.3143
2129.00,0.3141
2128.00,0.3139
2127.00,0.3138
2126.00,0.3136
2125.00,0.3134
2124.00,0.3132
2123.00,0.3130
2122.00,0.3128
2121.00,0.3127
2120.00,0.3125
2119.00,0.3124
2118.00,0.3122
2117.00,0.3121
2116.00,0.3119
2115.00,0.3118
2114.00,0.3116
2113.00,0.3115
2112.00,0.3114
2111.00,0.3113
2110.00,0.3112
2109.00,0.3110
2108.00,0.3110
2107.00,0.3109
2106.00,0.3108
2105.00,0.3108
2104.00,0.3108
2103.00,0.3108
2102.00,0.3108
2101.00,0.3108
2100.00,0.3108
2099.00,0.3107
2098.00,0.3107
2097.00,0.3107
2096.00,0.3106
2095.00,0.3106
2094.00,0.3105
2093.00,0.3104
2092.00,0.3103
2091.00,0.3103
2090.00,0.3102
2089.00,0.3102
2088.00,0.3102
2087.00,0.3102
2086.00,0.3101
2085.00,0.3100
2084.00,0.3100
2083.00,0.3100
2082.00,0.3099
2081.00,0.3098
2080.00,0.3098
2079.00,0.3097
2078.00,0.3097
2077.00,0.3097
2076.00,0.3098
2075.00,0.3099
2074.00,0.3099
2073.00,0.3099
2072.00,0.3100
2071.00,0.3100
2070.00,0.3101
2069.00,0.3101
2068.00,0.3102
2067.00,0.3103
2066.00,0.3104
2065.00,0.3106
2064.00,0.3107
2063.00,0.3109
2062.00,0.3110
2061.00,0.3112
2060.00,0.3114
2059.00,0.3115
2058.00,0.3115
2057.00,0.3116
2056.00,0.3117
2055.00,0.3117
2054.00,0.3118
2053.00,0.3119
2052.00,0.3121
2051.00,0.3122
2050.00,0.3124
2049.00,0.3125
2048.00,0.3126
2047.00,0.3127
2046.00,0.3127
2045.00,0.3128
2044.00,0.3128
2043.00,0.3130
2042.00,0.3131
2041.00,0.3133
2040.00,0.3135
2039.00,0.3137
2038.00,0.3138
2037.00,0.3138
2036.00,0.3139
2035.00,0.3139
2034.00,0.3140
2033.00,0.3141
2032.00,0.3142
2031.00,0.3142
2030.00,0.3141
2029.00,0.3141
2028.00,0.3142
2027.00,0.3141
2026.00,0.3141
2025.00,0.3139
2024.00,0.3138
2023.00,0.3135
2022.00,0.3131
2021.00,0.3127
2020.00,0.3122
2019.00,0.3117
2018.00,0.3112
2017.00,0.3107
2016.00,0.3102
2015.00,0.3097
2014.00,0.3091
2013.00,0.3086
2012.00,0.3080
2011.00,0.3075
2010.00,0.3069
2009.00,0.3065
2008.00,0.3061
2007.00,0.3057
2006.00,0.3054
2005.00,0.3051
2004.00,0.3048
2003.00,0.3045
2002.00,0.3043
2001.00,0.3041
2000.00,0.3040
1999.00,0.3038
1998.00,0.3037
1997.00,0.3034
1996.00,0.3031
1995.00,0.3028
1994.00,0.3027
1993.00,0.3026
1992.00,0.3027
1991.00,0.3028
1990.00,0.3028
1989.00,0.3029
1988.00,0.3030
1987.00,0.3030
1986.00,0.3030
1985.00,0.3030
1984.00,0.3030
1983.00,0.3030
1982.00,0.3029
1981.00,0.3029
1980.00,0.3028
1979.00,0.3027
1978.00,0.3027
1977.00,0.3026
1976.00,0.3026
1975.00,0.3025
1974.00,0.3025
1973.00,0.3025
1972.00,0.3025
1971.00,0.3024
1970.00,0.3025
1969.00,0.3021
1968.00,0.3016
1967.00,0.3020
1966.00,0.3021
1965.00,0.3024
1964.00,0.3024
1963.00,0.3025
1962.00,0.3025
1961.00,0.3027
1960.00,0.3028
1959.00,0.3029
1958.00,0.3031
1957.00,0.3032
1956.00,0.3034
1955.00,0.3036
1954.00,0.3038
1953.00,0.3040
1952.00,0.3042
1951.00,0.3042
1950.00,0.3042
1949.00,0.3041
1948.00,0.3040
1947.00,0.3038
1946.00,0.3038
1945.00,0.3040
1944.00,0.3044
1943.00,0.3051
1942.00,0.3060
1941.00,0.3068
1940.00,0.3074
1939.00,0.3078
1938.00,0.3079
1937.00,0.3080
1936.00,0.3078
1935.00,0.3076
1934.00,0.3074
1933.00,0.3072
1932.00,0.3071
1931.00,0.3071
1930.00,0.3072
1929.00,0.3072
1928.00,0.3072
1927.00,0.3070
1926.00,0.3068
1925.00,0.3066
1924.00,0.3067
1923.00,0.3072
1922.00,0.3078
1921.00,0.3084
1920.00,0.3091
1919.00,0.3096
1918.00,0.3101
1917.00,0.3105
1916.00,0.3109
1915.00,0.3111
1914.00,0.3111
1913.00,0.3109
1912.00,0.3106
1911.00,0.3105
1910.00,0.3106
1909.00,0.3109
1908.00,0.3113
1907.00,0.3115
1906.00,0.3116
1905.00,0.3117
1904.00,0.3117
1903.00,0.3116
1902.00,0.3115
1901.00,0.3115
1900.00,0.3114
1899.00,0.3113
1898.00,0.3111
1897.00,0.3111
1896.00,0.3113
1895.00,0.3115
1894.00,0.3116
1893.00,0.3116
1892.00,0.3115
1891.00,0.3116
1890.00,0.3118
1889.00,0.3122
1888.00,0.3126
1887.00,0.3128
1886.00,0.3129
1885.00,0.3130
1884.00,0.3131
1883.00,0.3133
1882.00,0.3134
1881.00,0.3134
1880.00,0.3133
1879.00,0.3132
1878.00,0.3131
1877.00,0.3129
1876.00,0.3128
1875.00,0.3127
1874.00,0.3125
1873.00,0.3124
1872.00,0.3122
1871.00,0.3120
1870.00,0.3118
1869.00,0.3116
1868.00,0.3114
1867.00,0.3112
1866.00,0.3109
1865.00,0.3106
1864.00,0.3103
1863.00,0.3100
1862.00,0.3097
1861.00,0.3094
1860.00,0.3092
1859.00,0.3089
1858.00,0.3086
1857.00,0.3083
1856.00,0.3081
1855.00,0.3079
1854.00,0.3077
1853.00,0.3076
1852.00,0.3074
1851.00,0.3073
1850.00,0.3072
1849.00,0.3071
1848.00,0.3070
1847.00,0.3070
1846.00,0.3069
1845.00,0.3069
1844.00,0.3068
1843.00,0.3066
1842.00,0.3064
1841.00,0.3063
1840.00,0.3062
1839.00,0.3060
1838.00,0.3058
1837.00,0.3057
1836.00,0.3056
1835.00,0.3054
1834.00,0.3053
1833.00,0.3052
1832.00,0.3052
1831.00,0.3051
1830.00,0.3050
1829.00,0.3049
1828.00,0.3049
1827.00,0.3047
1826.00,0.3048
1825.00,0.3043
1824.00,0.3035
1823.00,0.3039
1822.00,0.3039
1821.00,0.3040
1820.00,0.3041
1819.00,0.3041
1818.00,0.3042
1817.00,0.3042
1816.00,0.3042
1815.00,0.3040
1814.00,0.3037
1813.00,0.3036
1812.00,0.3037
1811.00,0.3040
1810.00,0.3046
1809.00,0.3053
1808.00,0.3059
1807.00,0.3064
1806.00,0.3067
1805.00,0.3070
1804.00,0.3074
1803.00,0.3077
1802.00,0.3083
1801.00,0.3092
1800.00,0.3101
1799.00,0.3109
1798.00,0.3113
1797.00,0.3116
1796.00,0.3119
1795.00,0.3121
1794.00,0.3123
1793.00,0.3127
1792.00,0.3133
1791.00,0.3140
1790.00,0.3145
1789.00,0.3152
1788.00,0.3160
1787.00,0.3160
1786.00,0.3162
1785.00,0.3164
1784.00,0.3167
1783.00,0.3168
1782.00,0.3170
1781.00,0.3172
1780.00,0.3174
1779.00,0.3176
1778.00,0.3178
1777.00,0.3181
1776.00,0.3185
1775.00,0.3188
1774.00,0.3191
1773.00,0.3197
1772.00,0.3203
1771.00,0.3208
1770.00,0.3213
1769.00,0.3218
1768.00,0.3225
1767.00,0.3229
1766.00,0.3236
1765.00,0.3238
1764.00,0.3233
1763.00,0.3241
1762.00,0.3246
1761.00,0.3254
1760.00,0.3263
1759.00,0.3275
1758.00,0.3288
1757.00,0.3300
1756.00,0.3311
1755.00,0.3321
1754.00,0.3331
1753.00,0.3340
1752.00,0.3348
1751.00,0.3356
1750.00,0.3372
1749.00,0.3397
1748.00,0.3424
1747.00,0.3451
1746.00,0.3475
1745.00,0.3498
1744.00,0.3521
1743.00,0.3542
1742.00,0.3562
1741.00,0.3579
1740.00,0.3591
1739.00,0.3596
1738.00,0.3599
1737.00,0.3604
1736.00,0.3605
1735.00,0.3599
1734.00,0.3593
1733.00,0.3591
1732.00,0.3597
1731.00,0.3605
1730.00,0.3612
1729.00,0.3616
1728.00,0.3617
1727.00,0.3616
1726.00,0.3615
1725.00,0.3618
1724.00,0.3624
1723.00,0.3631
1722.00,0.3639
1721.00,0.3646
1720.00,0.3651
1719.00,0.3659
1718.00,0.3686
1717.00,0.3733
1716.00,0.3790
1715.00,0.3849
1714.00,0.3904
1713.00,0.3957
1712.00,0.4006
1711.00,0.4050
1710.00,0.4088
1709.00,0.4118
1708.00,0.4138
1707.00,0.4150
1706.00,0.4152
1705.00,0.4147
1704.00,0.4140
1703.00,0.4133
1702.00,0.4111
1701.00,0.4059
1700.00,0.3991
1699.00,0.3938
1698.00,0.3913
1697.00,0.3906
1696.00,0.3895
1695.00,0.3874
1694.00,0.3853
1693.00,0.3837
1692.00,0.3819
1691.00,0.3797
1690.00,0.3774
1689.00,0.3751
1688.00,0.3731
1687.00,0.3711
1686.00,0.3691
1685.00,0.3680
1684.00,0.3681
1683.00,0.3681
1682.00,0.3683
1681.00,0.3685
1680.00,0.3688
1679.00,0.3690
1678.00,0.3693
1677.00,0.3697
1676.00,0.3693
1675.00,0.3687
1674.00,0.3675
1673.00,0.3683
1672.00,0.3734
1671.00,0.3735
1670.00,0.3745
1669.00,0.3753
1668.00,0.3763
1667.00,0.3772
1666.00,0.3781
1665.00,0.3791
1664.00,0.3804
1663.00,0.3818
1662.00,0.3832
1661.00,0.3847
1660.00,0.3861
1659.00,0.3878
1658.00,0.3889
1657.00,0.3910
1656.00,0.3912
1655.00,0.3861
1654.00,0.3892
1653.00,0.3922
1652.00,0.3950
1651.00,0.3959
1650.00,0.3988
1649.00,0.4079
1648.00,0.4096
1647.00,0.4129
1646.00,0.4156
1645.00,0.4189
1644.00,0.4217
1643.00,0.4248
1642.00,0.4273
1641.00,0.4280
1640.00,0.4302
1639.00,0.4319
1638.00,0.4340
1637.00,0.4378
1636.00,0.4433
1635.00,0.4485
1634.00,0.4524
1633.00,0.4558
1632.00,0.4587
1631.00,0.4611
1630.00,0.4633
1629.00,0.4658
1628.00,0.4686
1627.00,0.4715
1626.00,0.4742
1625.00,0.4775
1624.00,0.4815
1623.00,0.4862
1622.00,0.4911
1621.00,0.4963
1620.00,0.5017
1619.00,0.5077
1618.00,0.5156
1617.00,0.5265
1616.00,0.5394
1615.00,0.5517
1614.00,0.5629
1613.00,0.5738
1612.00,0.5849
1611.00,0.5960
1610.00,0.6070
1609.00,0.6183
1608.00,0.6293
1607.00,0.6390
1606.00,0.6470
1605.00,0.6541
1604.00,0.6609
1603.00,0.6671
1602.00,0.6730
1601.00,0.6793
1600.00,0.6863
1599.00,0.6935
1598.00,0.7014
1597.00,0.7117
1596.00,0.7255
1595.00,0.7431
1594.00,0.7651
1593.00,0.7933
1592.00,0.8293
1591.00,0.8740
1590.00,0.9291
1589.00,0.9975
1588.00,1.0820
1587.00,1.1834
1586.00,1.3029
1585.00,1.4448
1584.00,1.6139
1583.00,1.8035
1582.00,1.9893
1581.00,2.1421
1580.00,2.2312
1579.00,2.2184
1578.00,2.1145
1577.00,1.9864
1576.00,1.8698
1575.00,1.7678
1574.00,1.6837
1573.00,1.6203
1572.00,1.5710
1571.00,1.5258
1570.00,1.4840
1569.00,1.4543
1568.00,1.4398
1567.00,1.4347
1566.00,1.4361
1565.00,1.4476
1564.00,1.4690
1563.00,1.4889
1562.00,1.4943
1561.00,1.4738
1560.00,1.4111
1559.00,1.3039
1558.00,1.1906
1557.00,1.1014
1556.00,1.0300
1555.00,0.9639
1554.00,0.9019
1553.00,0.8497
1552.00,0.8084
1551.00,0.7741
1550.00,0.7438
1549.00,0.7180
1548.00,0.6970
1547.00,0.6788
1546.00,0.6612
1545.00,0.6446
1544.00,0.6298
1543.00,0.6163
1542.00,0.6033
1541.00,0.5922
1540.00,0.5831
1539.00,0.5740
1538.00,0.5657
1537.00,0.5591
1536.00,0.5535
1535.00,0.5480
1534.00,0.5428
1533.00,0.5393
1532.00,0.5376
1531.00,0.5370
1530.00,0.5370
1529.00,0.5379
1528.00,0.5395
1527.00,0.5411
1526.00,0.5423
1525.00,0.5432
1524.00,0.5444
1523.00,0.5462
1522.00,0.5496
1521.00,0.5543
1520.00,0.5594
1519.00,0.5646
1518.00,0.5705
1517.00,0.5777
1516.00,0.5849
1515.00,0.5905
1514.00,0.5942
1513.00,0.5965
1512.00,0.5981
1511.00,0.5993
1510.00,0.6008
1509.00,0.6039
1508.00,0.6120
1507.00,0.6268
1506.00,0.6434
1505.00,0.6583
1504.00,0.6711
1503.00,0.6820
1502.00,0.6918
1501.00,0.7010
1500.00,0.7094
1499.00,0.7172
1498.00,0.7257
1497.00,0.7366
1496.00,0.7493
1495.00,0.7620
1494.00,0.7743
1493.00,0.7871
1492.00,0.8010
1491.00,0.8167
1490.00,0.8358
1489.00,0.8586
1488.00,0.8837
1487.00,0.9105
1486.00,0.9398
1485.00,0.9730
1484.00,1.0106
1483.00,1.0535
1482.00,1.1038
1481.00,1.1632
1480.00,1.2301
1479.00,1.3032
1478.00,1.3856
1477.00,1.4830
1476.00,1.5978
1475.00,1.7308
1474.00,1.8918
1473.00,2.0995
1472.00,2.3603
1471.00,2.6523
1470.00,2.9646
1469.00,3.3632
1468.00,4.0679
1467.00,4.6300
1466.00,4.1962
1465.00,3.8729
1464.00,3.7683
1463.00,3.8694
1462.00,3.8861
1461.00,3.8520
1460.00,3.8814
1459.00,4.1984
1458.00,4.1685
1457.00,3.9899
1456.00,3.8400
1455.00,3.6242
1454.00,3.6103
1453.00,3.8042
1452.00,3.9242
1451.00,3.7624
1450.00,3.6968
1449.00,3.8435
1448.00,3.8221
1447.00,3.4957
1446.00,3.2849
1445.00,3.1848
1444.00,3.0779
1443.00,2.9314
1442.00,2.7944
1441.00,2.6790
1440.00,2.5630
1439.00,2.4400
1438.00,2.3190
1437.00,2.2002
1436.00,2.0817
1435.00,1.9712
1434.00,1.8727
1433.00,1.7795
1432.00,1.6852
1431.00,1.5919
1430.00,1.5063
1429.00,1.4318
1428.00,1.3684
1427.00,1.3149
1426.00,1.2688
1425.00,1.2277
1424.00,1.1911
1423.00,1.1600
1422.00,1.1338
1421.00,1.1093
1420.00,1.0842
1419.00,1.0596
1418.00,1.0381
1417.00,1.0206
1416.00,1.0060
1415.00,0.9934
1414.00,0.9827
1413.00,0.9741
1412.00,0.9680
1411.00,0.9642
1410.00,0.9614
1409.00,0.9574
1408.00,0.9497
1407.00,0.9368
1406.00,0.9187
1405.00,0.8969
1404.00,0.8744
1403.00,0.8538
1402.00,0.8359
1401.00,0.8199
1400.00,0.8056
1399.00,0.7935
1398.00,0.7845
1397.00,0.7787
1396.00,0.7767
1395.00,0.7790
1394.00,0.7857
1393.00,0.7969
1392.00,0.8141
1391.00,0.8392
1390.00,0.8750
1389.00,0.9251
1388.00,0.9935
1387.00,1.0814
1386.00,1.1834
1385.00,1.2924
1384.00,1.4059
1383.00,1.5265
1382.00,1.6581
1381.00,1.8052
1380.00,1.9697
1379.00,2.1392
1378.00,2.2732
1377.00,2.3212
1376.00,2.2645
1375.00,2.1263
1374.00,1.9544
1373.00,1.7921
1372.00,1.6579
1371.00,1.5540
1370.00,1.4787
1369.00,1.4306
1368.00,1.4043
1367.00,1.3874
1366.00,1.3626
1365.00,1.3173
1364.00,1.2512
1363.00,1.1754
1362.00,1.1034
1361.00,1.0433
1360.00,0.9968
1359.00,0.9621
1358.00,0.9366
1357.00,0.9185
1356.00,0.9062
1355.00,0.8984
1354.00,0.8938
1353.00,0.8911
1352.00,0.8892
1351.00,0.8872
1350.00,0.8847
1349.00,0.8817
1348.00,0.8785
1347.00,0.8755
1346.00,0.8730
1345.00,0.8707
1344.00,0.8683
1343.00,0.8655
1342.00,0.8617
1341.00,0.8564
1340.00,0.8494
1339.00,0.8410
1338.00,0.8313
1337.00,0.8205
1336.00,0.8086
1335.00,0.7957
1334.00,0.7821
1333.00,0.7685
1332.00,0.7557
1331.00,0.7444
1330.00,0.7350
1329.00,0.7277
1328.00,0.7223
1327.00,0.7190
1326.00,0.7175
1325.00,0.7176
1324.00,0.7188
1323.00,0.7207
1322.00,0.7227
1321.00,0.7243
1320.00,0.7255
1319.00,0.7266
1318.00,0.7279
1317.00,0.7295
1316.00,0.7315
1315.00,0.7341
1314.00,0.7373
1313.00,0.7412
1312.00,0.7455
1311.00,0.7499
1310.00,0.7542
1309.00,0.7583
1308.00,0.7619
1307.00,0.7648
1306.00,0.7667
1305.00,0.7668
1304.00,0.7649
1303.00,0.7610
1302.00,0.7555
1301.00,0.7492
1300.00,0.7425
1299.00,0.7357
1298.00,0.7290
1297.00,0.7223
1296.00,0.7159
1295.00,0.7101
1294.00,0.7051
1293.00,0.7006
1292.00,0.6964
1291.00,0.6923
1290.00,0.6881
1289.00,0.6839
1288.00,0.6797
1287.00,0.6758
1286.00,0.6720
1285.00,0.6680
1284.00,0.6638
1283.00,0.6593
1282.00,0.6550
1281.00,0.6512
1280.00,0.6481
1279.00,0.6455
1278.00,0.6432
1277.00,0.6408
1276.00,0.6383
1275.00,0.6358
1274.00,0.6334
1273.00,0.6313
1272.00,0.6298
1271.00,0.6290
1270.00,0.6288
1269.00,0.6287
1268.00,0.6280
1267.00,0.6258
1266.00,0.6221
1265.00,0.6173
1264.00,0.6124
1263.00,0.6082
1262.00,0.6048
1261.00,0.6023
1260.00,0.6005
1259.00,0.5991
1258.00,0.5978
1257.00,0.5962
1256.00,0.5940
1255.00,0.5917
1254.00,0.5895
1253.00,0.5876
1252.00,0.5862
1251.00,0.5850
1250.00,0.5840
1249.00,0.5826
1248.00,0.5807
1247.00,0.5783
1246.00,0.5754
1245.00,0.5720
1244.00,0.5683
1243.00,0.5645
1242.00,0.5606
1241.00,0.5567
1240.00,0.5531
1239.00,0.5500
1238.00,0.5474
1237.00,0.5452
1236.00,0.5435
1235.00,0.5426
1234.00,0.5422
1233.00,0.5422
1232.00,0.5426
1231.00,0.5435
1230.00,0.5448
1229.00,0.5458
1228.00,0.5458
1227.00,0.5445
1226.00,0.5416
1225.00,0.5377
1224.00,0.5335
1223.00,0.5297
1222.00,0.5268
1221.00,0.5245
1220.00,0.5228
1219.00,0.5218
1218.00,0.5213
1217.00,0.5215
1216.00,0.5222
1215.00,0.5233
1214.00,0.5246
1213.00,0.5254
1212.00,0.5253
1211.00,0.5245
1210.00,0.5232
1209.00,0.5217
1208.00,0.5201
1207.00,0.5184
1206.00,0.5166
1205.00,0.5146
1204.00,0.5125
1203.00,0.5106
1202.00,0.5090
1201.00,0.5076
1200.00,0.5066
1199.00,0.5062
1198.00,0.5061
1197.00,0.5061
1196.00,0.5058
1195.00,0.5053
1194.00,0.5045
1193.00,0.5034
1192.00,0.5023
1191.00,0.5012
1190.00,0.5002
1189.00,0.4992
1188.00,0.4982
1187.00,0.4973
1186.00,0.4964
1185.00,0.4955
1184.00,0.4947
1183.00,0.4941
1182.00,0.4937
1181.00,0.4937
1180.00,0.4939
1179.00,0.4944
1178.00,0.4952
1177.00,0.4963
1176.00,0.4981
1175.00,0.5010
1174.00,0.5050
1173.00,0.5098
1172.00,0.5150
1171.00,0.5196
1170.00,0.5230
1169.00,0.5248
1168.00,0.5248
1167.00,0.5238
1166.00,0.5223
1165.00,0.5208
1164.00,0.5199
1163.00,0.5198
1162.00,0.5204
1161.00,0.5217
1160.00,0.5233
1159.00,0.5251
1158.00,0.5269
1157.00,0.5285
1156.00,0.5295
1155.00,0.5298
1154.00,0.5293
1153.00,0.5279
1152.00,0.5261
1151.00,0.5240
1150.00,0.5219
1149.00,0.5199
1148.00,0.5181
1147.00,0.5165
1146.00,0.5151
1145.00,0.5141
1144.00,0.5137
1143.00,0.5142
1142.00,0.5157
1141.00,0.5184
1140.00,0.5222
1139.00,0.5272
1138.00,0.5333
1137.00,0.5405
1136.00,0.5490
1135.00,0.5584
1134.00,0.5675
1133.00,0.5744
1132.00,0.5769
1131.00,0.5745
1130.00,0.5679
1129.00,0.5591
1128.00,0.5506
1127.00,0.5439
1126.00,0.5394
1125.00,0.5367
1124.00,0.5351
1123.00,0.5339
1122.00,0.5328
1121.00,0.5317
1120.00,0.5309
1119.00,0.5309
1118.00,0.5321
1117.00,0.5348
1116.00,0.5388
1115.00,0.5430
1114.00,0.5456
1113.00,0.5448
1112.00,0.5397
1111.00,0.5315
1110.00,0.5220
1109.00,0.5131
1108.00,0.5061
1107.00,0.5011
1106.00,0.4980
1105.00,0.4961
1104.00,0.4951
1103.00,0.4944
1102.00,0.4939
1101.00,0.4932
1100.00,0.4922
1099.00,0.4911
1098.00,0.4897
1097.00,0.4882
1096.00,0.4869
1095.00,0.4860
1094.00,0.4855
1093.00,0.4855
1092.00,0.4857
1091.00,0.4863
1090.00,0.4874
1089.00,0.4889
1088.00,0.4911
1087.00,0.4941
1086.00,0.4980
1085.00,0.5029
1084.00,0.5089
1083.00,0.5159
1082.00,0.5240
1081.00,0.5328
1080.00,0.5420
1079.00,0.5507
1078.00,0.5580
1077.00,0.5628
1076.00,0.5644
1075.00,0.5628
1074.00,0.5583
1073.00,0.5520
1072.00,0.5452
1071.00,0.5392
1070.00,0.5343
1069.00,0.5306
1068.00,0.5278
1067.00,0.5258
1066.00,0.5244
1065.00,0.5235
1064.00,0.5232
1063.00,0.5235
1062.00,0.5243
1061.00,0.5253
1060.00,0.5261
1059.00,0.5264
1058.00,0.5261
1057.00,0.5252
1056.00,0.5237
1055.00,0.5221
1054.00,0.5205
1053.00,0.5193
1052.00,0.5187
1051.00,0.5189
1050.00,0.5197
1049.00,0.5209
1048.00,0.5223
1047.00,0.5241
1046.00,0.5259
1045.00,0.5273
1044.00,0.5282
1043.00,0.5286
1042.00,0.5286
1041.00,0.5285
1040.00,0.5284
1039.00,0.5281
1038.00,0.5277
1037.00,0.5270
1036.00,0.5262
1035.00,0.5257
1034.00,0.5259
1033.00,0.5265
1032.00,0.5275
1031.00,0.5285
1030.00,0.5291
1029.00,0.5290
1028.00,0.5277
1027.00,0.5249
1026.00,0.5204
1025.00,0.5146
1024.00,0.5079
1023.00,0.5012
1022.00,0.4947
1021.00,0.4887
1020.00,0.4835
1019.00,0.4790
1018.00,0.4752
1017.00,0.4718
1016.00,0.4687
1015.00,0.4661
1014.00,0.4640
1013.00,0.4625
1012.00,0.4616
1011.00,0.4611
1010.00,0.4611
1009.00,0.4613
1008.00,0.4619
1007.00,0.4629
1006.00,0.4644
1005.00,0.4664
1004.00,0.4687
1003.00,0.4713
1002.00,0.4740
1001.00,0.4763
1000.00,0.4780
999.00,0.4789
998.00,0.4787
997.00,0.4775
996.00,0.4754
995.00,0.4729
994.00,0.4702
993.00,0.4676
992.00,0.4650
991.00,0.4626
990.00,0.4603
989.00,0.4580
988.00,0.4558
987.00,0.4542
986.00,0.4535
985.00,0.4538
984.00,0.4550
983.00,0.4568
982.00,0.4592
981.00,0.4617
980.00,0.4642
979.00,0.4666
978.00,0.4688
977.00,0.4707
976.00,0.4723
975.00,0.4735
974.00,0.4743
973.00,0.4748
972.00,0.4750
971.00,0.4751
970.00,0.4751
969.00,0.4749
968.00,0.4746
967.00,0.4743
966.00,0.4737
965.00,0.4728
964.00,0.4716
963.00,0.4701
962.00,0.4685
961.00,0.4669
960.00,0.4654
959.00,0.4640
958.00,0.4629
957.00,0.4619
956.00,0.4607
955.00,0.4595
954.00,0.4582
953.00,0.4567
952.00,0.4552
951.00,0.4540
950.00,0.4531
949.00,0.4527
948.00,0.4525
947.00,0.4529
946.00,0.4536
945.00,0.4548
944.00,0.4560
943.00,0.4574
942.00,0.4588
941.00,0.4602
940.00,0.4614
939.00,0.4622
938.00,0.4625
937.00,0.4624
936.00,0.4620
935.00,0.4613
934.00,0.4602
933.00,0.4587
932.00,0.4569
931.00,0.4551
930.00,0.4534
929.00,0.4520
928.00,0.4514
927.00,0.4519
926.00,0.4538
925.00,0.4574
924.00,0.4626
923.00,0.4689
922.00,0.4750
921.00,0.4789
920.00,0.4790
919.00,0.4747
918.00,0.4670
917.00,0.4576
916.00,0.4481
915.00,0.4397
914.00,0.4330
913.00,0.4278
912.00,0.4239
911.00,0.4209
910.00,0.4184
909.00,0.4163
908.00,0.4147
907.00,0.4135
906.00,0.4128
905.00,0.4126
904.00,0.4128
903.00,0.4137
902.00,0.4151
901.00,0.4171
900.00,0.4195
899.00,0.4224
898.00,0.4257
897.00,0.4293
896.00,0.4332
895.00,0.4372
894.00,0.4414
893.00,0.4457
892.00,0.4499
891.00,0.4539
890.00,0.4573
889.00,0.4595
888.00,0.4601
887.00,0.4597
886.00,0.4589
885.00,0.4591
884.00,0.4612
883.00,0.4664
882.00,0.4752
881.00,0.4868
880.00,0.4987
879.00,0.5076
878.00,0.5108
877.00,0.5079
876.00,0.5006
875.00,0.4914
874.00,0.4823
873.00,0.4746
872.00,0.4689
871.00,0.4654
870.00,0.4640
869.00,0.4640
868.00,0.4651
867.00,0.4673
866.00,0.4705
865.00,0.4745
864.00,0.4785
863.00,0.4819
862.00,0.4834
861.00,0.4818
860.00,0.4769
859.00,0.4697
858.00,0.4620
857.00,0.4550
856.00,0.4497
855.00,0.4460
854.00,0.4437
853.00,0.4421
852.00,0.4407
851.00,0.4394
850.00,0.4380
849.00,0.4363
848.00,0.4341
847.00,0.4314
846.00,0.4284
845.00,0.4255
844.00,0.4231
843.00,0.4215
842.00,0.4211
841.00,0.4222
840.00,0.4252
839.00,0.4302
838.00,0.4365
837.00,0.4427
836.00,0.4471
835.00,0.4482
834.00,0.4459
833.00,0.4413
832.00,0.4364
831.00,0.4331
830.00,0.4321
829.00,0.4334
828.00,0.4363
827.00,0.4404
826.00,0.4454
825.00,0.4510
824.00,0.4573
823.00,0.4640
822.00,0.4712
821.00,0.4783
820.00,0.4854
819.00,0.4921
818.00,0.4981
817.00,0.5027
816.00,0.5054
815.00,0.5059
814.00,0.5042
813.00,0.5007
812.00,0.4959
811.00,0.4904
810.00,0.4845
809.00,0.4785
808.00,0.4728
807.00,0.4678
806.00,0.4633
805.00,0.4588
804.00,0.4538
803.00,0.4480
802.00,0.4418
801.00,0.4355
800.00,0.4301
799.00,0.4261
798.00,0.4236
797.00,0.4220
796.00,0.4211
795.00,0.4206
794.00,0.4205
793.00,0.4208
792.00,0.4216
791.00,0.4231
790.00,0.4253
789.00,0.4280
788.00,0.4311
787.00,0.4346
786.00,0.4385
785.00,0.4427
784.00,0.4472
783.00,0.4516
782.00,0.4556
781.00,0.4589
780.00,0.4614
779.00,0.4633
778.00,0.4650
777.00,0.4668
776.00,0.4689
775.00,0.4713
774.00,0.4741
773.00,0.4770
772.00,0.4799
771.00,0.4830
770.00,0.4864
769.00,0.4900
768.00,0.4935
767.00,0.4967
766.00,0.4992
765.00,0.5010
764.00,0.5026
763.00,0.5044
762.00,0.5069
761.00,0.5102
760.00,0.5143
759.00,0.5190
758.00,0.5240
757.00,0.5284
756.00,0.5319
755.00,0.5349
754.00,0.5379
753.00,0.5415
752.00,0.5459
751.00,0.5511
750.00,0.5566
749.00,0.5618
748.00,0.5666
747.00,0.5709
746.00,0.5752
745.00,0.5798
744.00,0.5847
743.00,0.5900
742.00,0.5956
741.00,0.6007
740.00,0.6048
739.00,0.6079
738.00,0.6104
737.00,0.6129
736.00,0.6160
735.00,0.6199
734.00,0.6248
733.00,0.6308
732.00,0.6384
731.00,0.6482
730.00,0.6607
729.00,0.6758
728.00,0.6939
727.00,0.7157
726.00,0.7412
725.00,0.7695
724.00,0.7979
723.00,0.8224
722.00,0.8369
721.00,0.8342
720.00,0.8110
719.00,0.7713
718.00,0.7242
717.00,0.6780
716.00,0.6377
715.00,0.6054
714.00,0.5803
713.00,0.5603
712.00,0.5435
711.00,0.5293
710.00,0.5177
709.00,0.5089
708.00,0.5027
707.00,0.4985
706.00,0.4954
705.00,0.4927
704.00,0.4901
703.00,0.4880
702.00,0.4869
701.00,0.4863
700.00,0.4846
699.00,0.4793
698.00,0.4691
697.00,0.4545
696.00,0.4380
695.00,0.4227
694.00,0.4102
693.00,0.4005
692.00,0.3931
691.00,0.3877
690.00,0.3838
689.00,0.3809
688.00,0.3786
687.00,0.3769
686.00,0.3757
685.00,0.3750
684.00,0.3747
683.00,0.3745
682.00,0.3747
681.00,0.3751
680.00,0.3755
679.00,0.3761
678.00,0.3768
677.00,0.3778
676.00,0.3789
675.00,0.3800
674.00,0.3811
673.00,0.3820
672.00,0.3829
671.00,0.3837
670.00,0.3842
669.00,0.3845
668.00,0.3843
667.00,0.3838
666.00,0.3837
665.00,0.3838
664.00,0.3838
663.00,0.3837
662.00,0.3837
661.00,0.3837
660.00,0.3835
659.00,0.3836
658.00,0.3839
657.00,0.3843
656.00,0.3845
655.00,0.3846
654.00,0.3846
653.00,0.3847
652.00,0.3847
651.00,0.3846
650.00,0.3848
649.00,0.3850
648.00,0.3854
647.00,0.3858
646.00,0.3864
645.00,0.3872
644.00,0.3880
643.00,0.3888
642.00,0.3895
641.00,0.3900
640.00,0.3905
639.00,0.3910
638.00,0.3916
637.00,0.3922
636.00,0.3923
635.00,0.3919
634.00,0.3915
633.00,0.3917
632.00,0.3929
631.00,0.3949
630.00,0.3970
629.00,0.3988
628.00,0.4004
627.00,0.4024
626.00,0.4047
625.00,0.4070
624.00,0.4093
623.00,0.4117
622.00,0.4141
621.00,0.4162
620.00,0.4179
619.00,0.4193
618.00,0.4201
617.00,0.4205
616.00,0.4207
615.00,0.4210
614.00,0.4211
613.00,0.4207
612.00,0.4197
611.00,0.4186
610.00,0.4177
609.00,0.4170
608.00,0.4163
607.00,0.4157
606.00,0.4154
605.00,0.4153
604.00,0.4153
603.00,0.4154
602.00,0.4159
601.00,0.4165
600.00,0.4175
599.00,0.4190
598.00,0.4212
597.00,0.4238
596.00,0.4267
595.00,0.4294
594.00,0.4320
593.00,0.4345
592.00,0.4370
591.00,0.4397
590.00,0.4427
589.00,0.4459
588.00,0.4491
587.00,0.4523
586.00,0.4553
585.00,0.4581
584.00,0.4606
583.00,0.4630
582.00,0.4650
581.00,0.4664
580.00,0.4677
579.00,0.4689
578.00,0.4703
577.00,0.4716
576.00,0.4728
575.00,0.4738
574.00,0.4751
573.00,0.4767
572.00,0.4787
571.00,0.4807
570.00,0.4825
569.00,0.4838
568.00,0.4850
567.00,0.4861
566.00,0.4873
565.00,0.4884
564.00,0.4897
563.00,0.4917
562.00,0.4943
561.00,0.4972
560.00,0.4997
559.00,0.5014
558.00,0.5023
557.00,0.5027
556.00,0.5028
555.00,0.5030
554.00,0.5033
553.00,0.5036
552.00,0.5039
551.00,0.5039
550.00,0.5037
