Created as New Dataset,
cm-1,A
4000.00,0.3790
3999.00,0.3788
3998.00,0.3785
3997.00,0.3783
3996.00,0.3782
3995.00,0.3780
3994.00,0.3777
3993.00,0.3775
3992.00,0.3771
3991.00,0.3768
3990.00,0.3764
3989.00,0.3761
3988.00,0.3757
3987.00,0.3753
3986.00,0.3748
3985.00,0.3743
3984.00,0.3738
3983.00,0.3734
3982.00,0.3729
3981.00,0.3725
3980.00,0.3721
3979.00,0.3717
3978.00,0.3713
3977.00,0.3709
3976.00,0.3706
3975.00,0.3704
3974.00,0.3701
3973.00,0.3698
3972.00,0.3695
3971.00,0.3692
3970.00,0.3690
3969.00,0.3687
3968.00,0.3684
3967.00,0.3682
3966.00,0.3679
3965.00,0.3677
3964.00,0.3675
3963.00,0.3673
3962.00,0.3671
3961.00,0.3669
3960.00,0.3667
3959.00,0.3665
3958.00,0.3664
3957.00,0.3662
3956.00,0.3661
3955.00,0.3660
3954.00,0.3658
3953.00,0.3656
3952.00,0.3655
3951.00,0.3653
3950.00,0.3651
3949.00,0.3649
3948.00,0.3647
3947.00,0.3644
3946.00,0.3642
3945.00,0.3640
3944.00,0.3638
3943.00,0.3636
3942.00,0.3635
3941.00,0.3634
3940.00,0.3632
3939.00,0.3631
3938.00,0.3630
3937.00,0.3628
3936.00,0.3627
3935.00,0.3626
3934.00,0.3626
3933.00,0.3626
3932.00,0.3626
3931.00,0.3626
3930.00,0.3626
3929.00,0.3627
3928.00,0.3627
3927.00,0.3628
3926.00,0.3628
3925.00,0.3628
3924.00,0.3628
3923.00,0.3628
3922.00,0.3627
3921.00,0.3627
3920.00,0.3627
3919.00,0.3626
3918.00,0.3626
3917.00,0.3625
3916.00,0.3624
3915.00,0.3623
3914.00,0.3623
3913.00,0.3621
3912.00,0.3619
3911.00,0.3618
3910.00,0.3616
3909.00,0.3615
3908.00,0.3614
3907.00,0.3613
3906.00,0.3612
3905.00,0.3611
3904.00,0.3611
3903.00,0.3611
3902.00,0.3611
3901.00,0.3612
3900.00,0.3612
3899.00,0.3611
3898.00,0.3611
3897.00,0.3610
3896.00,0.3609
3895.00,0.3608
3894.00,0.3607
3893.00,0.3606
3892.00,0.3605
3891.00,0.3604
3890.00,0.3603
3889.00,0.3603
3888.00,0.3604
3887.00,0.3604
3886.00,0.3603
3885.00,0.3601
3884.00,0.3600
3883.00,0.3599
3882.00,0.3598
3881.00,0.3596
3880.00,0.3594
3879.00,0.3592
3878.00,0.3592
3877.00,0.3591
3876.00,0.3591
3875.00,0.3590
3874.00,0.3589
3873.00,0.3588
3872.00,0.3587
3871.00,0.3587
3870.00,0.3585
3869.00,0.3584
3868.00,0.3582
3867.00,0.3582
3866.00,0.3580
3865.00,0.3579
3864.00,0.3577
3863.00,0.3576
3862.00,0.3575
3861.00,0.3573
3860.00,0.3572
3859.00,0.3571
3858.00,0.3570
3857.00,0.3569
3856.00,0.3568
3855.00,0.3568
3854.00,0.3567
3853.00,0.3567
3852.00,0.3567
3851.00,0.3567
3850.00,0.3567
3849.00,0.3567
3848.00,0.3565
3847.00,0.3563
3846.00,0.3561
3845.00,0.3560
3844.00,0.3558
3843.00,0.3556
3842.00,0.3555
3841.00,0.3554
3840.00,0.3553
3839.00,0.3553
3838.00,0.3552
3837.00,0.3552
3836.00,0.3552
3835.00,0.3551
3834.00,0.3551
3833.00,0.3550
3832.00,0.3549
3831.00,0.3548
3830.00,0.3547
3829.00,0.3547
3828.00,0.3547
3827.00,0.3546
3826.00,0.3544
3825.00,0.3543
3824.00,0.3543
3823.00,0.3543
3822.00,0.3543
3821.00,0.3541
3820.00,0.3539
3819.00,0.3537
3818.00,0.3536
3817.00,0.3534
3816.00,0.3533
3815.00,0.3531
3814.00,0.3529
3813.00,0.3527
3812.00,0.3524
3811.00,0.3521
3810.00,0.3519
3809.00,0.3517
3808.00,0.3515
3807.00,0.3512
3806.00,0.3510
3805.00,0.3509
3804.00,0.3509
3803.00,0.3509
3802.00,0.3508
3801.00,0.3506
3800.00,0.3505
3799.00,0.3505
3798.00,0.3503
3797.00,0.3502
3796.00,0.3499
3795.00,0.3497
3794.00,0.3495
3793.00,0.3493
3792.00,0.3491
3791.00,0.3489
3790.00,0.3488
3789.00,0.3486
3788.00,0.3485
3787.00,0.3483
3786.00,0.3482
3785.00,0.3480
3784.00,0.3479
3783.00,0.3478
3782.00,0.3477
3781.00,0.3475
3780.00,0.3474
3779.00,0.3472
3778.00,0.3469
3777.00,0.3467
3776.00,0.3465
3775.00,0.3463
3774.00,0.3461
3773.00,0.3460
3772.00,0.3459
3771.00,0.3457
3770.00,0.3456
3769.00,0.3454
3768.00,0.3453
3767.00,0.3453
3766.00,0.3452
3765.00,0.3451
3764.00,0.3450
3763.00,0.3449
3762.00,0.3448
3761.00,0.3447
3760.00,0.3446
3759.00,0.3445
3758.00,0.3444
3757.00,0.3443
3756.00,0.3442
3755.00,0.3441
3754.00,0.3439
3753.00,0.3438
3752.00,0.3437
3751.00,0.3436
3750.00,0.3435
3749.00,0.3433
3748.00,0.3432
3747.00,0.3431
3746.00,0.3429
3745.00,0.3427
3744.00,0.3424
3743.00,0.3422
3742.00,0.3421
3741.00,0.3419
3740.00,0.3417
3739.00,0.3415
3738.00,0.3413
3737.00,0.3412
3736.00,0.3411
3735.00,0.3410
3734.00,0.3409
3733.00,0.3409
3732.00,0.3407
3731.00,0.3406
3730.00,0.3404
3729.00,0.3402
3728.00,0.3401
3727.00,0.3399
3726.00,0.3398
3725.00,0.3397
3724.00,0.3396
3723.00,0.3395
3722.00,0.3394
3721.00,0.3393
3720.00,0.3393
3719.00,0.3392
3718.00,0.3391
3717.00,0.3389
3716.00,0.3387
3715.00,0.3386
3714.00,0.3386
3713.00,0.3386
3712.00,0.3386
3711.00,0.3385
3710.00,0.3384
3709.00,0.3384
3708.00,0.3383
3707.00,0.3383
3706.00,0.3382
3705.00,0.3381
3704.00,0.3381
3703.00,0.3380
3702.00,0.3378
3701.00,0.3377
3700.00,0.3376
3699.00,0.3376
3698.00,0.3376
3697.00,0.3377
3696.00,0.3378
3695.00,0.3379
3694.00,0.3379
3693.00,0.3380
3692.00,0.3381
3691.00,0.3382
3690.00,0.3384
3689.00,0.3385
3688.00,0.3386
3687.00,0.3387
3686.00,0.3388
3685.00,0.3388
3684.00,0.3387
3683.00,0.3385
3682.00,0.3384
3681.00,0.3382
3680.00,0.3381
3679.00,0.3381
3678.00,0.3381
3677.00,0.3382
3676.00,0.3381
3675.00,0.3381
3674.00,0.3380
3673.00,0.3380
3672.00,0.3380
3671.00,0.3380
3670.00,0.3381
3669.00,0.3382
3668.00,0.3384
3667.00,0.3386
3666.00,0.3388
3665.00,0.3390
3664.00,0.3393
3663.00,0.3396
3662.00,0.3401
3661.00,0.3408
3660.00,0.3417
3659.00,0.3428
3658.00,0.3442
3657.00,0.3459
3656.00,0.3479
3655.00,0.3499
3654.00,0.3519
3653.00,0.3537
3652.00,0.3555
3651.00,0.3570
3650.00,0.3581
3649.00,0.3585
3648.00,0.3583
3647.00,0.3575
3646.00,0.3564
3645.00,0.3552
3644.00,0.3538
3643.00,0.3524
3642.00,0.3510
3641.00,0.3498
3640.00,0.3487
3639.00,0.3478
3638.00,0.3471
3637.00,0.3465
3636.00,0.3459
3635.00,0.3455
3634.00,0.3451
3633.00,0.3448
3632.00,0.3446
3631.00,0.3445
3630.00,0.3444
3629.00,0.3443
3628.00,0.3443
3627.00,0.3443
3626.00,0.3444
3625.00,0.3444
3624.00,0.3444
3623.00,0.3443
3622.00,0.3442
3621.00,0.3440
3620.00,0.3437
3619.00,0.3433
3618.00,0.3430
3617.00,0.3428
3616.00,0.3426
3615.00,0.3425
3614.00,0.3423
3613.00,0.3422
3612.00,0.3422
3611.00,0.3423
3610.00,0.3424
3609.00,0.3424
3608.00,0.3423
3607.00,0.3421
3606.00,0.3419
3605.00,0.3415
3604.00,0.3412
3603.00,0.3407
3602.00,0.3401
3601.00,0.3394
3600.00,0.3387
3599.00,0.3379
3598.00,0.3371
3597.00,0.3363
3596.00,0.3354
3595.00,0.3345
3594.00,0.3337
3593.00,0.3329
3592.00,0.3323
3591.00,0.3319
3590.00,0.3316
3589.00,0.3312
3588.00,0.3309
3587.00,0.3306
3586.00,0.3304
3585.00,0.3302
3584.00,0.3300
3583.00,0.3299
3582.00,0.3298
3581.00,0.3296
3580.00,0.3295
3579.00,0.3294
3578.00,0.3293
3577.00,0.3292
3576.00,0.3291
3575.00,0.3290
3574.00,0.3289
3573.00,0.3289
3572.00,0.3288
3571.00,0.3289
3570.00,0.3289
3569.00,0.3290
3568.00,0.3291
3567.00,0.3292
3566.00,0.3292
3565.00,0.3291
3564.00,0.3291
3563.00,0.3292
3562.00,0.3292
3561.00,0.3293
3560.00,0.3293
3559.00,0.3294
3558.00,0.3294
3557.00,0.3295
3556.00,0.3296
3555.00,0.3297
3554.00,0.3299
3553.00,0.3302
3552.00,0.3304
3551.00,0.3307
3550.00,0.3310
3549.00,0.3313
3548.00,0.3316
3547.00,0.3319
3546.00,0.3321
3545.00,0.3324
3544.00,0.3327
3543.00,0.3330
3542.00,0.3332
3541.00,0.3334
3540.00,0.3336
3539.00,0.3339
3538.00,0.3342
3537.00,0.3344
3536.00,0.3347
3535.00,0.3349
3534.00,0.3350
3533.00,0.3352
3532.00,0.3355
3531.00,0.3358
3530.00,0.3360
3529.00,0.3363
3528.00,0.3366
3527.00,0.3368
3526.00,0.3371
3525.00,0.3374
3524.00,0.3377
3523.00,0.3380
3522.00,0.3383
3521.00,0.3386
3520.00,0.3389
3519.00,0.3392
3518.00,0.3396
3517.00,0.3400
3516.00,0.3404
3515.00,0.3409
3514.00,0.3413
3513.00,0.3417
3512.00,0.3421
3511.00,0.3425
3510.00,0.3430
3509.00,0.3434
3508.00,0.3438
3507.00,0.3443
3506.00,0.3447
3505.00,0.3452
3504.00,0.3456
3503.00,0.3461
3502.00,0.3467
3501.00,0.3472
3500.00,0.3477
3499.00,0.3481
3498.00,0.3486
3497.00,0.3490
3496.00,0.3495
3495.00,0.3500
3494.00,0.3505
3493.00,0.3511
3492.00,0.3517
3491.00,0.3523
3490.00,0.3530
3489.00,0.3536
3488.00,0.3542
3487.00,0.3548
3486.00,0.3554
3485.00,0.3560
3484.00,0.3566
3483.00,0.3573
3482.00,0.3579
3481.00,0.3585
3480.00,0.3590
3479.00,0.3596
3478.00,0.3601
3477.00,0.3607
3476.00,0.3613
3475.00,0.3619
3474.00,0.3625
3473.00,0.3632
3472.00,0.3638
3471.00,0.3645
3470.00,0.3652
3469.00,0.3659
3468.00,0.3666
3467.00,0.3672
3466.00,0.3678
3465.00,0.3685
3464.00,0.3692
3463.00,0.3698
3462.00,0.3706
3461.00,0.3713
3460.00,0.3721
3459.00,0.3729
3458.00,0.3737
3457.00,0.3745
3456.00,0.3752
3455.00,0.3760
3454.00,0.3768
3453.00,0.3777
3452.00,0.3786
3451.00,0.3795
3450.00,0.3805
3449.00,0.3814
3448.00,0.3824
3447.00,0.3834
3446.00,0.3844
3445.00,0.3854
3444.00,0.3865
3443.00,0.3876
3442.00,0.3887
3441.00,0.3899
3440.00,0.3910
3439.00,0.3920
3438.00,0.3930
3437.00,0.3939
3436.00,0.3948
3435.00,0.3956
3434.00,0.3964
3433.00,0.3971
3432.00,0.3977
3431.00,0.3984
3430.00,0.3992
3429.00,0.4000
3428.00,0.4008
3427.00,0.4016
3426.00,0.4023
3425.00,0.4031
3424.00,0.4038
3423.00,0.4047
3422.00,0.4055
3421.00,0.4065
3420.00,0.4074
3419.00,0.4084
3418.00,0.4094
3417.00,0.4105
3416.00,0.4116
3415.00,0.4127
3414.00,0.4139
3413.00,0.4151
3412.00,0.4162
3411.00,0.4174
3410.00,0.4186
3409.00,0.4198
3408.00,0.4211
3407.00,0.4224
3406.00,0.4238
3405.00,0.4252
3404.00,0.4266
3403.00,0.4280
3402.00,0.4293
3401.00,0.4307
3400.00,0.4321
3399.00,0.4335
3398.00,0.4349
3397.00,0.4363
3396.00,0.4376
3395.00,0.4390
3394.00,0.4403
3393.00,0.4417
3392.00,0.4431
3391.00,0.4444
3390.00,0.4457
3389.00,0.4470
3388.00,0.4483
3387.00,0.4496
3386.00,0.4509
3385.00,0.4523
3384.00,0.4537
3383.00,0.4551
3382.00,0.4565
3381.00,0.4580
3380.00,0.4595
3379.00,0.4610
3378.00,0.4626
3377.00,0.4641
3376.00,0.4656
3375.00,0.4672
3374.00,0.4687
3373.00,0.4704
3372.00,0.4721
3371.00,0.4739
3370.00,0.4757
3369.00,0.4776
3368.00,0.4795
3367.00,0.4813
3366.00,0.4832
3365.00,0.4851
3364.00,0.4870
3363.00,0.4889
3362.00,0.4908
3361.00,0.4927
3360.00,0.4947
3359.00,0.4966
3358.00,0.4985
3357.00,0.5005
3356.00,0.5025
3355.00,0.5045
3354.00,0.5065
3353.00,0.5084
3352.00,0.5103
3351.00,0.5122
3350.00,0.5140
3349.00,0.5159
3348.00,0.5177
3347.00,0.5194
3346.00,0.5212
3345.00,0.5228
3344.00,0.5245
3343.00,0.5261
3342.00,0.5275
3341.00,0.5288
3340.00,0.5300
3339.00,0.5311
3338.00,0.5321
3337.00,0.5331
3336.00,0.5340
3335.00,0.5348
3334.00,0.5355
3333.00,0.5360
3332.00,0.5364
3331.00,0.5366
3330.00,0.5368
3329.00,0.5368
3328.00,0.5369
3327.00,0.5368
3326.00,0.5367
3325.00,0.5364
3324.00,0.5360
3323.00,0.5356
3322.00,0.5350
3321.00,0.5344
3320.00,0.5337
3319.00,0.5330
3318.00,0.5322
3317.00,0.5314
3316.00,0.5305
3315.00,0.5296
3314.00,0.5286
3313.00,0.5277
3312.00,0.5267
3311.00,0.5257
3310.00,0.5246
3309.00,0.5235
3308.00,0.5223
3307.00,0.5212
3306.00,0.5202
3305.00,0.5192
3304.00,0.5182
3303.00,0.5172
3302.00,0.5163
3301.00,0.5155
3300.00,0.5146
3299.00,0.5139
3298.00,0.5131
3297.00,0.5125
3296.00,0.5119
3295.00,0.5113
3294.00,0.5107
3293.00,0.5101
3292.00,0.5095
3291.00,0.5090
3290.00,0.5087
3289.00,0.5084
3288.00,0.5082
3287.00,0.5080
3286.00,0.5079
3285.00,0.5078
3284.00,0.5078
3283.00,0.5079
3282.00,0.5079
3281.00,0.5079
3280.00,0.5080
3279.00,0.5081
3278.00,0.5083
3277.00,0.5086
3276.00,0.5088
3275.00,0.5090
3274.00,0.5093
3273.00,0.5097
3272.00,0.5102
3271.00,0.5106
3270.00,0.5110
3269.00,0.5114
3268.00,0.5118
3267.00,0.5122
3266.00,0.5126
3265.00,0.5130
3264.00,0.5134
3263.00,0.5139
3262.00,0.5144
3261.00,0.5148
3260.00,0.5153
3259.00,0.5158
3258.00,0.5163
3257.00,0.5168
3256.00,0.5172
3255.00,0.5176
3254.00,0.5179
3253.00,0.5183
3252.00,0.5187
3251.00,0.5190
3250.00,0.5192
3249.00,0.5194
3248.00,0.5195
3247.00,0.5196
3246.00,0.5198
3245.00,0.5199
3244.00,0.5200
3243.00,0.5201
3242.00,0.5201
3241.00,0.5201
3240.00,0.5201
3239.00,0.5200
3238.00,0.5198
3237.00,0.5196
3236.00,0.5193
3235.00,0.5190
3234.00,0.5188
3233.00,0.5185
3232.00,0.5182
3231.00,0.5178
3230.00,0.5174
3229.00,0.5169
3228.00,0.5164
3227.00,0.5159
3226.00,0.5154
3225.00,0.5149
3224.00,0.5144
3223.00,0.5139
3222.00,0.5134
3221.00,0.5128
3220.00,0.5122
3219.00,0.5115
3218.00,0.5108
3217.00,0.5102
3216.00,0.5096
3215.00,0.5091
3214.00,0.5085
3213.00,0.5080
3212.00,0.5074
3211.00,0.5067
3210.00,0.5060
3209.00,0.5054
3208.00,0.5048
3207.00,0.5042
3206.00,0.5037
3205.00,0.5031
3204.00,0.5025
3203.00,0.5019
3202.00,0.5012
3201.00,0.5005
3200.00,0.4998
3199.00,0.4992
3198.00,0.4985
3197.00,0.4978
3196.00,0.4971
3195.00,0.4964
3194.00,0.4957
3193.00,0.4950
3192.00,0.4943
3191.00,0.4935
3190.00,0.4927
3189.00,0.4920
3188.00,0.4914
3187.00,0.4907
3186.00,0.4901
3185.00,0.4894
3184.00,0.4886
3183.00,0.4878
3182.00,0.4870
3181.00,0.4862
3180.00,0.4854
3179.00,0.4845
3178.00,0.4836
3177.00,0.4826
3176.00,0.4816
3175.00,0.4807
3174.00,0.4798
3173.00,0.4789
3172.00,0.4781
3171.00,0.4772
3170.00,0.4763
3169.00,0.4753
3168.00,0.4745
3167.00,0.4736
3166.00,0.4726
3165.00,0.4716
3164.00,0.4706
3163.00,0.4697
3162.00,0.4687
3161.00,0.4678
3160.00,0.4670
3159.00,0.4662
3158.00,0.4654
3157.00,0.4646
3156.00,0.4638
3155.00,0.4630
3154.00,0.4622
3153.00,0.4614
3152.00,0.4606
3151.00,0.4598
3150.00,0.4590
3149.00,0.4582
3148.00,0.4574
3147.00,0.4568
3146.00,0.4561
3145.00,0.4555
3144.00,0.4549
3143.00,0.4543
3142.00,0.4537
3141.00,0.4532
3140.00,0.4526
3139.00,0.4521
3138.00,0.4516
3137.00,0.4511
3136.00,0.4507
3135.00,0.4502
3134.00,0.4498
3133.00,0.4494
3132.00,0.4490
3131.00,0.4486
3130.00,0.4483
3129.00,0.4480
3128.00,0.4478
3127.00,0.4476
3126.00,0.4475
3125.00,0.4474
3124.00,0.4473
3123.00,0.4473
3122.00,0.4473
3121.00,0.4474
3120.00,0.4475
3119.00,0.4476
3118.00,0.4478
3117.00,0.4479
3116.00,0.4482
3115.00,0.4485
3114.00,0.4488
3113.00,0.4493
3112.00,0.4498
3111.00,0.4504
3110.00,0.4509
3109.00,0.4516
3108.00,0.4523
3107.00,0.4531
3106.00,0.4539
3105.00,0.4548
3104.00,0.4556
3103.00,0.4565
3102.00,0.4573
3101.00,0.4582
3100.00,0.4590
3099.00,0.4599
3098.00,0.4609
3097.00,0.4619
3096.00,0.4630
3095.00,0.4641
3094.00,0.4653
3093.00,0.4668
3092.00,0.4684
3091.00,0.4701
3090.00,0.4720
3089.00,0.4740
3088.00,0.4761
3087.00,0.4784
3086.00,0.4808
3085.00,0.4833
3084.00,0.4860
3083.00,0.4888
3082.00,0.4918
3081.00,0.4949
3080.00,0.4981
3079.00,0.5015
3078.00,0.5051
3077.00,0.5087
3076.00,0.5124
3075.00,0.5162
3074.00,0.5200
3073.00,0.5238
3072.00,0.5275
3071.00,0.5313
3070.00,0.5351
3069.00,0.5389
3068.00,0.5427
3067.00,0.5465
3066.00,0.5501
3065.00,0.5537
3064.00,0.5571
3063.00,0.5604
3062.00,0.5635
3061.00,0.5666
3060.00,0.5695
3059.00,0.5724
3058.00,0.5753
3057.00,0.5781
3056.00,0.5810
3055.00,0.5840
3054.00,0.5870
3053.00,0.5902
3052.00,0.5934
3051.00,0.5968
3050.00,0.6003
3049.00,0.6040
3048.00,0.6078
3047.00,0.6119
3046.00,0.6161
3045.00,0.6205
3044.00,0.6249
3043.00,0.6293
3042.00,0.6337
3041.00,0.6381
3040.00,0.6428
3039.00,0.6476
3038.00,0.6527
3037.00,0.6580
3036.00,0.6634
3035.00,0.6691
3034.00,0.6751
3033.00,0.6816
3032.00,0.6884
3031.00,0.6954
3030.00,0.7026
3029.00,0.7100
3028.00,0.7178
3027.00,0.7259
3026.00,0.7343
3025.00,0.7429
3024.00,0.7518
3023.00,0.7611
3022.00,0.7707
3021.00,0.7807
3020.00,0.7909
3019.00,0.8013
3018.00,0.8120
3017.00,0.8230
3016.00,0.8342
3015.00,0.8457
3014.00,0.8576
3013.00,0.8700
3012.00,0.8830
3011.00,0.8968
3010.00,0.9112
3009.00,0.9264
3008.00,0.9424
3007.00,0.9591
3006.00,0.9765
3005.00,0.9945
3004.00,1.0129
3003.00,1.0318
3002.00,1.0515
3001.00,1.0721
3000.00,1.0937
2999.00,1.1165
2998.00,1.1408
2997.00,1.1671
2996.00,1.1959
2995.00,1.2276
2994.00,1.2623
2993.00,1.3003
2992.00,1.3418
2991.00,1.3876
2990.00,1.4383
2989.00,1.4944
2988.00,1.5565
2987.00,1.6252
2986.00,1.7013
2985.00,1.7852
2984.00,1.8771
2983.00,1.9782
2982.00,2.0903
2981.00,2.2156
2980.00,2.3548
2979.00,2.5064
2978.00,2.6678
2977.00,2.8348
2976.00,3.0042
2975.00,3.1734
2974.00,3.3392
2973.00,3.4989
2972.00,3.6583
2971.00,3.8324
2970.00,4.0055
2969.00,4.0979
2968.00,4.0928
2967.00,4.0734
2966.00,4.0409
2965.00,3.9679
2964.00,3.9099
2963.00,3.9373
2962.00,4.0398
2961.00,4.1584
2960.00,4.3830
2959.00,4.5828
2958.00,4.3325
2957.00,4.0522
2956.00,3.9160
2955.00,3.9372
2954.00,4.0168
2953.00,4.0809
2952.00,3.9768
2951.00,3.7816
2950.00,3.6769
2949.00,3.7042
2948.00,3.8651
2947.00,4.1328
2946.00,4.3303
2945.00,4.1692
2944.00,3.9376
2943.00,3.8104
2942.00,3.7840
2941.00,3.8112
2940.00,3.8378
2939.00,3.8584
2938.00,3.9009
2937.00,3.9688
2936.00,4.0437
2935.00,4.1048
2934.00,4.2097
2933.00,4.2819
2932.00,4.1720
2931.00,4.0663
2930.00,4.0811
2929.00,4.2348
2928.00,4.2242
2927.00,4.0970
2926.00,4.0563
2925.00,4.2288
2924.00,4.5265
2923.00,4.1502
2922.00,3.8336
2921.00,3.6917
2920.00,3.7227
2919.00,3.8499
2918.00,4.0774
2917.00,4.5512
2916.00,5.0026
2915.00,4.4586
2914.00,4.0179
2913.00,3.8664
2912.00,3.8742
2911.00,3.9675
2910.00,4.0739
2909.00,4.0869
2908.00,4.0265
2907.00,3.9803
2906.00,4.0451
2905.00,4.3606
2904.00,4.3785
2903.00,4.0031
2902.00,3.8037
2901.00,3.8027
2900.00,3.9538
2899.00,4.0458
2898.00,3.9974
2897.00,3.9504
2896.00,4.0104
2895.00,4.1916
2894.00,4.3510
2893.00,4.3535
2892.00,4.3034
2891.00,4.3486
2890.00,4.4032
2889.00,4.2887
2888.00,4.1280
2887.00,4.0157
2886.00,3.9294
2885.00,3.8425
2884.00,3.8685
2883.00,4.0618
2882.00,4.1915
2881.00,4.0687
2880.00,3.9226
2879.00,3.9090
2878.00,3.9332
2877.00,3.8870
2876.00,3.8112
2875.00,3.7546
2874.00,3.7743
2873.00,3.9477
2872.00,4.1898
2871.00,4.0736
2870.00,3.9123
2869.00,3.8896
2868.00,4.0823
2867.00,4.3039
2866.00,4.2104
2865.00,4.1159
2864.00,4.1050
2863.00,4.1263
2862.00,3.9964
2861.00,3.8913
2860.00,3.9472
2859.00,4.1022
2858.00,4.1025
2857.00,3.9575
2856.00,3.8907
2855.00,4.0023
2854.00,4.2816
2853.00,4.3529
2852.00,4.1068
2851.00,3.9075
2850.00,3.8146
2849.00,3.7994
2848.00,3.8373
2847.00,3.9176
2846.00,3.9919
2845.00,3.9794
2844.00,3.8786
2843.00,3.7617
2842.00,3.6835
2841.00,3.6383
2840.00,3.5942
2839.00,3.5171
2838.00,3.3810
2837.00,3.1968
2836.00,2.9973
2835.00,2.8033
2834.00,2.6215
2833.00,2.4541
2832.00,2.3031
2831.00,2.1682
2830.00,2.0476
2829.00,1.9393
2828.00,1.8425
2827.00,1.7564
2826.00,1.6797
2825.00,1.6109
2824.00,1.5486
2823.00,1.4918
2822.00,1.4397
2821.00,1.3914
2820.00,1.3466
2819.00,1.3051
2818.00,1.2667
2817.00,1.2309
2816.00,1.1975
2815.00,1.1664
2814.00,1.1373
2813.00,1.1100
2812.00,1.0842
2811.00,1.0600
2810.00,1.0371
2809.00,1.0154
2808.00,0.9945
2807.00,0.9744
2806.00,0.9553
2805.00,0.9369
2804.00,0.9194
2803.00,0.9026
2802.00,0.8866
2801.00,0.8712
2800.00,0.8565
2799.00,0.8425
2798.00,0.8292
2797.00,0.8164
2796.00,0.8042
2795.00,0.7924
2794.00,0.7810
2793.00,0.7699
2792.00,0.7590
2791.00,0.7484
2790.00,0.7380
2789.00,0.7279
2788.00,0.7180
2787.00,0.7083
2786.00,0.6988
2785.00,0.6895
2784.00,0.6805
2783.00,0.6716
2782.00,0.6631
2781.00,0.6549
2780.00,0.6471
2779.00,0.6396
2778.00,0.6326
2777.00,0.6258
2776.00,0.6193
2775.00,0.6131
2774.00,0.6074
2773.00,0.6021
2772.00,0.5973
2771.00,0.5928
2770.00,0.5887
2769.00,0.5850
2768.00,0.5816
2767.00,0.5785
2766.00,0.5758
2765.00,0.5734
2764.00,0.5714
2763.00,0.5696
2762.00,0.5681
2761.00,0.5667
2760.00,0.5654
2759.00,0.5642
2758.00,0.5630
2757.00,0.5619
2756.00,0.5608
2755.00,0.5599
2754.00,0.5592
2753.00,0.5585
2752.00,0.5581
2751.00,0.5579
2750.00,0.5580
2749.00,0.5583
2748.00,0.5588
2747.00,0.5595
2746.00,0.5604
2745.00,0.5614
2744.00,0.5626
2743.00,0.5642
2742.00,0.5661
2741.00,0.5684
2740.00,0.5712
2739.00,0.5743
2738.00,0.5779
2737.00,0.5819
2736.00,0.5863
2735.00,0.5911
2734.00,0.5959
2733.00,0.6007
2732.00,0.6050
2731.00,0.6085
2730.00,0.6109
2729.00,0.6120
2728.00,0.6119
2727.00,0.6108
2726.00,0.6090
2725.00,0.6068
2724.00,0.6043
2723.00,0.6017
2722.00,0.5989
2721.00,0.5960
2720.00,0.5929
2719.00,0.5896
2718.00,0.5860
2717.00,0.5823
2716.00,0.5784
2715.00,0.5744
2714.00,0.5704
2713.00,0.5665
2712.00,0.5627
2711.00,0.5592
2710.00,0.5561
2709.00,0.5533
2708.00,0.5508
2707.00,0.5487
2706.00,0.5470
2705.00,0.5456
2704.00,0.5445
2703.00,0.5436
2702.00,0.5429
2701.00,0.5425
2700.00,0.5424
2699.00,0.5426
2698.00,0.5430
2697.00,0.5436
2696.00,0.5443
2695.00,0.5452
2694.00,0.5461
2693.00,0.5472
2692.00,0.5485
2691.00,0.5498
2690.00,0.5511
2689.00,0.5523
2688.00,0.5534
2687.00,0.5544
2686.00,0.5553
2685.00,0.5561
2684.00,0.5567
2683.00,0.5571
2682.00,0.5575
2681.00,0.5578
2680.00,0.5580
2679.00,0.5583
2678.00,0.5586
2677.00,0.5589
2676.00,0.5592
2675.00,0.5596
2674.00,0.5599
2673.00,0.5601
2672.00,0.5602
2671.00,0.5600
2670.00,0.5595
2669.00,0.5587
2668.00,0.5575
2667.00,0.5560
2666.00,0.5542
2665.00,0.5522
2664.00,0.5501
2663.00,0.5479
2662.00,0.5456
2661.00,0.5433
2660.00,0.5409
2659.00,0.5385
2658.00,0.5361
2657.00,0.5338
2656.00,0.5315
2655.00,0.5294
2654.00,0.5274
2653.00,0.5255
2652.00,0.5237
2651.00,0.5221
2650.00,0.5204
2649.00,0.5188
2648.00,0.5172
2647.00,0.5156
2646.00,0.5141
2645.00,0.5127
2644.00,0.5113
2643.00,0.5099
2642.00,0.5086
2641.00,0.5074
2640.00,0.5063
2639.00,0.5052
2638.00,0.5041
2637.00,0.5032
2636.00,0.5022
2635.00,0.5013
2634.00,0.5004
2633.00,0.4995
2632.00,0.4985
2631.00,0.4975
2630.00,0.4965
2629.00,0.4956
2628.00,0.4946
2627.00,0.4936
2626.00,0.4926
2625.00,0.4916
2624.00,0.4905
2623.00,0.4895
2622.00,0.4884
2621.00,0.4873
2620.00,0.4862
2619.00,0.4852
2618.00,0.4842
2617.00,0.4833
2616.00,0.4824
2615.00,0.4815
2614.00,0.4805
2613.00,0.4796
2612.00,0.4785
2611.00,0.4774
2610.00,0.4764
2609.00,0.4754
2608.00,0.4745
2607.00,0.4736
2606.00,0.4727
2605.00,0.4718
2604.00,0.4708
2603.00,0.4698
2602.00,0.4687
2601.00,0.4676
2600.00,0.4663
2599.00,0.4650
2598.00,0.4635
2597.00,0.4621
2596.00,0.4605
2595.00,0.4590
2594.00,0.4574
2593.00,0.4558
2592.00,0.4542
2591.00,0.4526
2590.00,0.4510
2589.00,0.4494
2588.00,0.4477
2587.00,0.4461
2586.00,0.4444
2585.00,0.4428
2584.00,0.4412
2583.00,0.4395
2582.00,0.4378
2581.00,0.4360
2580.00,0.4343
2579.00,0.4325
2578.00,0.4308
2577.00,0.4292
2576.00,0.4276
2575.00,0.4261
2574.00,0.4246
2573.00,0.4231
2572.00,0.4217
2571.00,0.4203
2570.00,0.4190
2569.00,0.4177
2568.00,0.4164
2567.00,0.4151
2566.00,0.4138
2565.00,0.4124
2564.00,0.4111
2563.00,0.4097
2562.00,0.4084
2561.00,0.4070
2560.00,0.4057
2559.00,0.4044
2558.00,0.4032
2557.00,0.4019
2556.00,0.4007
2555.00,0.3996
2554.00,0.3984
2553.00,0.3974
2552.00,0.3964
2551.00,0.3953
2550.00,0.3943
2549.00,0.3933
2548.00,0.3924
2547.00,0.3916
2546.00,0.3908
2545.00,0.3900
2544.00,0.3892
2543.00,0.3884
2542.00,0.3876
2541.00,0.3868
2540.00,0.3861
2539.00,0.3855
2538.00,0.3848
2537.00,0.3842
2536.00,0.3836
2535.00,0.3830
2534.00,0.3824
2533.00,0.3818
2532.00,0.3811
2531.00,0.3803
2530.00,0.3794
2529.00,0.3786
2528.00,0.3777
2527.00,0.3767
2526.00,0.3757
2525.00,0.3746
2524.00,0.3735
2523.00,0.3724
2522.00,0.3713
2521.00,0.3702
2520.00,0.3692
2519.00,0.3682
2518.00,0.3673
2517.00,0.3663
2516.00,0.3654
2515.00,0.3646
2514.00,0.3638
2513.00,0.3630
2512.00,0.3623
2511.00,0.3615
2510.00,0.3608
2509.00,0.3601
2508.00,0.3595
2507.00,0.3589
2506.00,0.3585
2505.00,0.3580
2504.00,0.3576
2503.00,0.3573
2502.00,0.3570
2501.00,0.3567
2500.00,0.3565
2499.00,0.3562
2498.00,0.3559
2497.00,0.3555
2496.00,0.3551
2495.00,0.3548
2494.00,0.3545
2493.00,0.3541
2492.00,0.3538
2491.00,0.3533
2490.00,0.3528
2489.00,0.3522
2488.00,0.3517
2487.00,0.3511
2486.00,0.3505
2485.00,0.3500
2484.00,0.3495
2483.00,0.3490
2482.00,0.3485
2481.00,0.3479
2480.00,0.3474
2479.00,0.3469
2478.00,0.3465
2477.00,0.3461
2476.00,0.3457
2475.00,0.3453
2474.00,0.3449
2473.00,0.3445
2472.00,0.3442
2471.00,0.3439
2470.00,0.3436
2469.00,0.3433
2468.00,0.3430
2467.00,0.3428
2466.00,0.3425
2465.00,0.3423
2464.00,0.3421
2463.00,0.3418
2462.00,0.3416
2461.00,0.3413
2460.00,0.3410
2459.00,0.3409
2458.00,0.3407
2457.00,0.3406
2456.00,0.3405
2455.00,0.3404
2454.00,0.3402
2453.00,0.3401
2452.00,0.3399
2451.00,0.3398
2450.00,0.3397
2449.00,0.3397
2448.00,0.3397
2447.00,0.3397
2446.00,0.3397
2445.00,0.3397
2444.00,0.3397
2443.00,0.3397
2442.00,0.3397
2441.00,0.3398
2440.00,0.3399
2439.00,0.3399
2438.00,0.3400
2437.00,0.3401
2436.00,0.3403
2435.00,0.3405
2434.00,0.3406
2433.00,0.3408
2432.00,0.3409
2431.00,0.3410
2430.00,0.3411
2429.00,0.3412
2428.00,0.3413
2427.00,0.3414
2426.00,0.3415
2425.00,0.3416
2424.00,0.3417
2423.00,0.3418
2422.00,0.3419
2421.00,0.3420
2420.00,0.3421
2419.00,0.3423
2418.00,0.3424
2417.00,0.3425
2416.00,0.3426
2415.00,0.3426
2414.00,0.3427
2413.00,0.3427
2412.00,0.3428
2411.00,0.3429
2410.00,0.3430
2409.00,0.3430
2408.00,0.3430
2407.00,0.3430
2406.00,0.3430
2405.00,0.3430
2404.00,0.3431
2403.00,0.3431
2402.00,0.3432
2401.00,0.3432
2400.00,0.3432
2399.00,0.3432
2398.00,0.3432
2397.00,0.3431
2396.00,0.3431
2395.00,0.3431
2394.00,0.3431
2393.00,0.3431
2392.00,0.3431
2391.00,0.3430
2390.00,0.3431
2389.00,0.3431
2388.00,0.3432
2387.00,0.3432
2386.00,0.3432
2385.00,0.3432
2384.00,0.3433
2383.00,0.3434
2382.00,0.3436
2381.00,0.3437
2380.00,0.3437
2379.00,0.3437
2378.00,0.3437
2377.00,0.3437
2376.00,0.3438
2375.00,0.3438
2374.00,0.3437
2373.00,0.3436
2372.00,0.3434
2371.00,0.3433
2370.00,0.3431
2369.00,0.3431
2368.00,0.3432
2367.00,0.3433
2366.00,0.3434
2365.00,0.3435
2364.00,0.3434
2363.00,0.3433
2362.00,0.3431
2361.00,0.3431
2360.00,0.3431
2359.00,0.3430
2358.00,0.3429
2357.00,0.3428
2356.00,0.3428
2355.00,0.3427
2354.00,0.3427
2353.00,0.3426
2352.00,0.3426
2351.00,0.3424
2350.00,0.3422
2349.00,0.3420
2348.00,0.3419
2347.00,0.3418
2346.00,0.3418
2345.00,0.3417
2344.00,0.3415
2343.00,0.3413
2342.00,0.3411
2341.00,0.3409
2340.00,0.3408
2339.00,0.3407
2338.00,0.3407
2337.00,0.3407
2336.00,0.3406
2335.00,0.3405
2334.00,0.3402
2333.00,0.3400
2332.00,0.3397
2331.00,0.3395
2330.00,0.3392
2329.00,0.3389
2328.00,0.3385
2327.00,0.3382
2326.00,0.3378
2325.00,0.3375
2324.00,0.3373
2323.00,0.3371
2322.00,0.3368
2321.00,0.3365
2320.00,0.3362
2319.00,0.3358
2318.00,0.3355
2317.00,0.3351
2316.00,0.3348
2315.00,0.3345
2314.00,0.3342
2313.00,0.3339
2312.00,0.3336
2311.00,0.3333
2310.00,0.3329
2309.00,0.3326
2308.00,0.3323
2307.00,0.3319
2306.00,0.3317
2305.00,0.3314
2304.00,0.3312
2303.00,0.3310
2302.00,0.3308
2301.00,0.3306
2300.00,0.3305
2299.00,0.3303
2298.00,0.3300
2297.00,0.3298
2296.00,0.3296
2295.00,0.3294
2294.00,0.3291
2293.00,0.3287
2292.00,0.3284
2291.00,0.3281
2290.00,0.3277
2289.00,0.3274
2288.00,0.3271
2287.00,0.3268
2286.00,0.3265
2285.00,0.3261
2284.00,0.3258
2283.00,0.3254
2282.00,0.3251
2281.00,0.3248
2280.00,0.3245
2279.00,0.3241
2278.00,0.3237
2277.00,0.3234
2276.00,0.3231
2275.00,0.3228
2274.00,0.3225
2273.00,0.3222
2272.00,0.3220
2271.00,0.3219
2270.00,0.3218
2269.00,0.3217
2268.00,0.3216
2267.00,0.3214
2266.00,0.3213
2265.00,0.3211
2264.00,0.3210
2263.00,0.3209
2262.00,0.3207
2261.00,0.3205
2260.00,0.3203
2259.00,0.3199
2258.00,0.3196
2257.00,0.3193
2256.00,0.3190
2255.00,0.3187
2254.00,0.3185
2253.00,0.3182
2252.00,0.3180
2251.00,0.3178
2250.00,0.3175
2249.00,0.3173
2248.00,0.3171
2247.00,0.3169
2246.00,0.3166
2245.00,0.3164
2244.00,0.3161
2243.00,0.3159
2242.00,0.3157
2241.00,0.3155
2240.00,0.3153
2239.00,0.3152
2238.00,0.3150
2237.00,0.3149
2236.00,0.3148
2235.00,0.3147
2234.00,0.3146
2233.00,0.3145
2232.00,0.3144
2231.00,0.3143
2230.00,0.3142
2229.00,0.3141
2228.00,0.3139
2227.00,0.3138
2226.00,0.3136
2225.00,0.3134
2224.00,0.3133
2223.00,0.3131
2222.00,0.3130
2221.00,0.3129
2220.00,0.3128
2219.00,0.3127
2218.00,0.3126
2217.00,0.3126
2216.00,0.3125
2215.00,0.3124
2214.00,0.3123
2213.00,0.3123
2212.00,0.3123
2211.00,0.3123
2210.00,0.3123
2209.00,0.3122
2208.00,0.3122
2207.00,0.3121
2206.00,0.3121
2205.00,0.3121
2204.00,0.3122
2203.00,0.3122
2202.00,0.3123
2201.00,0.3124
2200.00,0.3125
2199.00,0.3126
2198.00,0.3127
2197.00,0.3127
2196.00,0.3128
2195.00,0.3128
2194.00,0.3129
2193.00,0.3130
2192.00,0.3130
2191.00,0.3130
2190.00,0.3130
2189.00,0.3131
2188.00,0.3131
2187.00,0.3132
2186.00,0.3131
2185.00,0.3131
2184.00,0.3130
2183.00,0.3129
2182.00,0.3128
2181.00,0.3127
2180.00,0.3126
2179.00,0.3126
2178.00,0.3125
2177.00,0.3124
2176.00,0.3123
2175.00,0.3123
2174.00,0.3122
2173.00,0.3122
2172.00,0.3121
2171.00,0.3121
2170.00,0.3121
2169.00,0.3120
2168.00,0.3120
2167.00,0.3120
2166.00,0.3119
2165.00,0.3118
2164.00,0.3118
2163.00,0.3117
2162.00,0.3117
2161.00,0.3116
2160.00,0.3115
2159.00,0.3114
2158.00,0.3113
2157.00,0.3111
2156.00,0.3110
2155.00,0.3108
2154.00,0.3107
2153.00,0.3106
2152.00,0.3104
2151.00,0.3102
2150.00,0.3099
2149.00,0.3096
2148.00,0.3093
2147.00,0.3089
2146.00,0.3084
2145.00,0.3079
2144.00,0.3074
2143.00,0.3069
2142.00,0.3063
2141.00,0.3058
2140.00,0.3054
2139.00,0.3050
2138.00,0.3046
2137.00,0.3043
2136.00,0.3041
2135.00,0.3038
2134.00,0.3035
2133.00,0.3033
2132.00,0.3030
2131.00,0.3028
2130.00,0.3027
2129.00,0.3025
2128.00,0.3024
2127.00,0.3023
2126.00,0.3021
2125.00,0.3020
2124.00,0.3019
2123.00,0.3018
2122.00,0.3017
2121.00,0.3016
2120.00,0.3014
2119.00,0.3013
2118.00,0.3012
2117.00,0.3011
2116.00,0.3010
2115.00,0.3008
2114.00,0.3007
2113.00,0.3006
2112.00,0.3005
2111.00,0.3004
2110.00,0.3002
2109.00,0.3001
2108.00,0.3000
2107.00,0.2999
2106.00,0.2998
2105.00,0.2998
2104.00,0.2998
2103.00,0.2998
2102.00,0.2998
2101.00,0.2997
2100.00,0.2997
2099.00,0.2997
2098.00,0.2996
2097.00,0.2997
2096.00,0.2997
2095.00,0.2997
2094.00,0.2997
2093.00,0.2997
2092.00,0.2998
2091.00,0.2998
2090.00,0.2997
2089.00,0.2997
2088.00,0.2997
2087.00,0.2997
2086.00,0.2997
2085.00,0.2997
2084.00,0.2997
2083.00,0.2996
2082.00,0.2996
2081.00,0.2996
2080.00,0.2996
2079.00,0.2995
2078.00,0.2995
2077.00,0.2995
2076.00,0.2995
2075.00,0.2994
2074.00,0.2994
2073.00,0.2994
2072.00,0.2994
2071.00,0.2995
2070.00,0.2996
2069.00,0.2997
2068.00,0.2998
2067.00,0.3000
2066.00,0.3002
2065.00,0.3004
2064.00,0.3006
2063.00,0.3007
2062.00,0.3009
2061.00,0.3010
2060.00,0.3011
2059.00,0.3012
2058.00,0.3013
2057.00,0.3014
2056.00,0.3015
2055.00,0.3017
2054.00,0.3018
2053.00,0.3020
2052.00,0.3022
2051.00,0.3024
2050.00,0.3026
2049.00,0.3028
2048.00,0.3030
2047.00,0.3032
2046.00,0.3034
2045.00,0.3036
2044.00,0.3038
2043.00,0.3040
2042.00,0.3042
2041.00,0.3043
2040.00,0.3044
2039.00,0.3045
2038.00,0.3046
2037.00,0.3047
2036.00,0.3048
2035.00,0.3050
2034.00,0.3051
2033.00,0.3052
2032.00,0.3053
2031.00,0.3053
2030.00,0.3053
2029.00,0.3054
2028.00,0.3055
2027.00,0.3055
2026.00,0.3056
2025.00,0.3056
2024.00,0.3055
2023.00,0.3053
2022.00,0.3051
2021.00,0.3048
2020.00,0.3044
2019.00,0.3039
2018.00,0.3034
2017.00,0.3027
2016.00,0.3019
2015.00,0.3012
2014.00,0.3004
2013.00,0.2996
2012.00,0.2989
2011.00,0.2981
2010.00,0.2975
2009.00,0.2969
2008.00,0.2964
2007.00,0.2959
2006.00,0.2955
2005.00,0.2951
2004.00,0.2948
2003.00,0.2944
2002.00,0.2942
2001.00,0.2939
2000.00,0.2938
1999.00,0.2936
1998.00,0.2935
1997.00,0.2934
1996.00,0.2933
1995.00,0.2933
1994.00,0.2934
1993.00,0.2935
1992.00,0.2936
1991.00,0.2936
1990.00,0.2936
1989.00,0.2935
1988.00,0.2933
1987.00,0.2932
1986.00,0.2931
1985.00,0.2930
1984.00,0.2930
1983.00,0.2929
1982.00,0.2929
1981.00,0.2928
1980.00,0.2928
1979.00,0.2928
1978.00,0.2928
1977.00,0.2929
1976.00,0.2928
1975.00,0.2928
1974.00,0.2929
1973.00,0.2929
1972.00,0.2930
1971.00,0.2931
1970.00,0.2933
1969.00,0.2935
1968.00,0.2936
1967.00,0.2937
1966.00,0.2937
1965.00,0.2936
1964.00,0.2934
1963.00,0.2932
1962.00,0.2931
1961.00,0.2931
1960.00,0.2932
1959.00,0.2933
1958.00,0.2934
1957.00,0.2935
1956.00,0.2937
1955.00,0.2939
1954.00,0.2941
1953.00,0.2943
1952.00,0.2945
1951.00,0.2947
1950.00,0.2949
1949.00,0.2951
1948.00,0.2953
1947.00,0.2956
1946.00,0.2960
1945.00,0.2965
1944.00,0.2970
1943.00,0.2976
1942.00,0.2982
1941.00,0.2989
1940.00,0.2993
1939.00,0.2995
1938.00,0.2994
1937.00,0.2992
1936.00,0.2991
1935.00,0.2989
1934.00,0.2987
1933.00,0.2985
1932.00,0.2983
1931.00,0.2982
1930.00,0.2981
1929.00,0.2980
1928.00,0.2980
1927.00,0.2980
1926.00,0.2981
1925.00,0.2982
1924.00,0.2985
1923.00,0.2988
1922.00,0.2992
1921.00,0.2998
1920.00,0.3002
1919.00,0.3006
1918.00,0.3002
1917.00,0.3000
1916.00,0.3004
1915.00,0.3005
1914.00,0.3008
1913.00,0.3009
1912.00,0.3011
1911.00,0.3011
1910.00,0.3013
1909.00,0.3015
1908.00,0.3016
1907.00,0.3017
1906.00,0.3016
1905.00,0.3015
1904.00,0.3014
1903.00,0.3013
1902.00,0.3012
1901.00,0.3012
1900.00,0.3012
1899.00,0.3012
1898.00,0.3012
1897.00,0.3013
1896.00,0.3013
1895.00,0.3012
1894.00,0.3013
1893.00,0.3014
1892.00,0.3015
1891.00,0.3016
1890.00,0.3017
1889.00,0.3019
1888.00,0.3020
1887.00,0.3021
1886.00,0.3021
1885.00,0.3022
1884.00,0.3023
1883.00,0.3024
1882.00,0.3025
1881.00,0.3027
1880.00,0.3027
1879.00,0.3027
1878.00,0.3027
1877.00,0.3026
1876.00,0.3026
1875.00,0.3025
1874.00,0.3024
1873.00,0.3023
1872.00,0.3023
1871.00,0.3022
1870.00,0.3020
1869.00,0.3018
1868.00,0.3016
1867.00,0.3013
1866.00,0.3010
1865.00,0.3007
1864.00,0.3004
1863.00,0.3001
1862.00,0.2997
1861.00,0.2996
1860.00,0.2994
1859.00,0.2990
1858.00,0.2987
1857.00,0.2983
1856.00,0.2979
1855.00,0.2977
1854.00,0.2974
1853.00,0.2973
1852.00,0.2971
1851.00,0.2970
1850.00,0.2970
1849.00,0.2970
1848.00,0.2971
1847.00,0.2972
1846.00,0.2972
1845.00,0.2973
1844.00,0.2974
1843.00,0.2974
1842.00,0.2974
1841.00,0.2974
1840.00,0.2975
1839.00,0.2976
1838.00,0.2977
1837.00,0.2978
1836.00,0.2978
1835.00,0.2978
1834.00,0.2977
1833.00,0.2977
1832.00,0.2977
1831.00,0.2977
1830.00,0.2976
1829.00,0.2975
1828.00,0.2974
1827.00,0.2974
1826.00,0.2973
1825.00,0.2973
1824.00,0.2973
1823.00,0.2972
1822.00,0.2972
1821.00,0.2972
1820.00,0.2972
1819.00,0.2973
1818.00,0.2974
1817.00,0.2978
1816.00,0.2982
1815.00,0.2983
1814.00,0.2986
1813.00,0.2989
1812.00,0.2992
1811.00,0.2995
1810.00,0.2999
1809.00,0.3004
1808.00,0.3009
1807.00,0.3012
1806.00,0.3016
1805.00,0.3023
1804.00,0.3032
1803.00,0.3044
1802.00,0.3056
1801.00,0.3064
1800.00,0.3074
1799.00,0.3070
1798.00,0.3068
1797.00,0.3076
1796.00,0.3081
1795.00,0.3086
1794.00,0.3091
1793.00,0.3097
1792.00,0.3104
1791.00,0.3109
1790.00,0.3114
1789.00,0.3119
1788.00,0.3124
1787.00,0.3129
1786.00,0.3135
1785.00,0.3140
1784.00,0.3147
1783.00,0.3152
1782.00,0.3159
1781.00,0.3166
1780.00,0.3175
1779.00,0.3181
1778.00,0.3197
1777.00,0.3211
1776.00,0.3219
1775.00,0.3232
1774.00,0.3245
1773.00,0.3259
1772.00,0.3273
1771.00,0.3290
1770.00,0.3308
1769.00,0.3321
1768.00,0.3329
1767.00,0.3336
1766.00,0.3345
1765.00,0.3356
1764.00,0.3370
1763.00,0.3387
1762.00,0.3409
1761.00,0.3436
1760.00,0.3466
1759.00,0.3496
1758.00,0.3528
1757.00,0.3566
1756.00,0.3614
1755.00,0.3672
1754.00,0.3741
1753.00,0.3825
1752.00,0.3935
1751.00,0.4076
1750.00,0.4244
1749.00,0.4435
1748.00,0.4647
1747.00,0.4882
1746.00,0.5136
1745.00,0.5407
1744.00,0.5683
1743.00,0.5951
1742.00,0.6197
1741.00,0.6418
1740.00,0.6610
1739.00,0.6772
1738.00,0.6904
1737.00,0.7014
1736.00,0.7112
1735.00,0.7204
1734.00,0.7286
1733.00,0.7338
1732.00,0.7329
1731.00,0.7242
1730.00,0.7080
1729.00,0.6857
1728.00,0.6593
1727.00,0.6304
1726.00,0.6004
1725.00,0.5708
1724.00,0.5430
1723.00,0.5181
1722.00,0.4972
1721.00,0.4804
1720.00,0.4666
1719.00,0.4544
1718.00,0.4435
1717.00,0.4350
1716.00,0.4287
1715.00,0.4233
1714.00,0.4181
1713.00,0.4138
1712.00,0.4105
1711.00,0.4080
1710.00,0.4061
1709.00,0.4049
1708.00,0.4040
1707.00,0.4029
1706.00,0.4013
1705.00,0.3998
1704.00,0.3989
1703.00,0.3980
1702.00,0.3964
1701.00,0.3935
1700.00,0.3904
1699.00,0.3887
1698.00,0.3875
1697.00,0.3851
1696.00,0.3818
1695.00,0.3789
1694.00,0.3770
1693.00,0.3753
1692.00,0.3731
1691.00,0.3711
1690.00,0.3697
1689.00,0.3692
1688.00,0.3695
1687.00,0.3699
1686.00,0.3702
1685.00,0.3700
1684.00,0.3696
1683.00,0.3698
1682.00,0.3697
1681.00,0.3685
1680.00,0.3668
1679.00,0.3656
1678.00,0.3653
1677.00,0.3657
1676.00,0.3662
1675.00,0.3669
1674.00,0.3679
1673.00,0.3692
1672.00,0.3700
1671.00,0.3704
1670.00,0.3711
1669.00,0.3724
1668.00,0.3741
1667.00,0.3754
1666.00,0.3762
1665.00,0.3770
1664.00,0.3781
1663.00,0.3797
1662.00,0.3818
1661.00,0.3842
1660.00,0.3865
1659.00,0.3885
1658.00,0.3905
1657.00,0.3933
1656.00,0.3970
1655.00,0.4015
1654.00,0.4061
1653.00,0.4112
1652.00,0.4169
1651.00,0.4208
1650.00,0.4220
1649.00,0.4227
1648.00,0.4248
1647.00,0.4284
1646.00,0.4333
1645.00,0.4383
1644.00,0.4423
1643.00,0.4453
1642.00,0.4481
1641.00,0.4516
1640.00,0.4557
1639.00,0.4601
1638.00,0.4647
1637.00,0.4697
1636.00,0.4751
1635.00,0.4805
1634.00,0.4852
1633.00,0.4889
1632.00,0.4917
1631.00,0.4943
1630.00,0.4976
1629.00,0.5018
1628.00,0.5067
1627.00,0.5119
1626.00,0.5173
1625.00,0.5232
1624.00,0.5296
1623.00,0.5365
1622.00,0.5440
1621.00,0.5520
1620.00,0.5604
1619.00,0.5694
1618.00,0.5803
1617.00,0.5942
1616.00,0.6105
1615.00,0.6268
1614.00,0.6423
1613.00,0.6586
1612.00,0.6773
1611.00,0.6980
1610.00,0.7198
1609.00,0.7421
1608.00,0.7640
1607.00,0.7841
1606.00,0.8027
1605.00,0.8214
1604.00,0.8420
1603.00,0.8645
1602.00,0.8898
1601.00,0.9199
1600.00,0.9564
1599.00,0.9996
1598.00,1.0509
1597.00,1.1144
1596.00,1.1944
1595.00,1.2927
1594.00,1.4117
1593.00,1.5585
1592.00,1.7420
1591.00,1.9627
1590.00,2.2118
1589.00,2.5018
1588.00,2.8833
1587.00,3.3264
1586.00,3.4584
1585.00,3.5455
1584.00,3.8645
1583.00,3.9790
1582.00,3.7943
1581.00,3.6239
1580.00,3.7912
1579.00,3.4306
1578.00,2.8214
1577.00,2.4178
1576.00,2.1279
1575.00,1.9093
1574.00,1.7494
1573.00,1.6372
1572.00,1.5586
1571.00,1.5058
1570.00,1.4822
1569.00,1.4959
1568.00,1.5485
1567.00,1.6350
1566.00,1.7560
1565.00,1.9235
1564.00,2.1472
1563.00,2.4017
1562.00,2.6077
1561.00,2.7063
1560.00,2.6232
1559.00,2.3159
1558.00,2.0121
1557.00,1.7909
1556.00,1.6105
1555.00,1.4441
1554.00,1.3000
1553.00,1.1897
1552.00,1.1098
1551.00,1.0491
1550.00,1.0017
1549.00,0.9677
1548.00,0.9464
1547.00,0.9347
1546.00,0.9297
1545.00,0.9311
1544.00,0.9383
1543.00,0.9484
1542.00,0.9576
1541.00,0.9627
1540.00,0.9594
1539.00,0.9457
1538.00,0.9252
1537.00,0.9023
1536.00,0.8774
1535.00,0.8490
1534.00,0.8177
1533.00,0.7886
1532.00,0.7657
1531.00,0.7482
1530.00,0.7342
1529.00,0.7235
1528.00,0.7150
1527.00,0.7072
1526.00,0.6994
1525.00,0.6925
1524.00,0.6874
1523.00,0.6842
1522.00,0.6833
1521.00,0.6859
1520.00,0.6913
1519.00,0.6970
1518.00,0.7018
1517.00,0.7058
1516.00,0.7080
1515.00,0.7058
1514.00,0.6985
1513.00,0.6871
1512.00,0.6739
1511.00,0.6611
1510.00,0.6505
1509.00,0.6430
1508.00,0.6381
1507.00,0.6351
1506.00,0.6345
1505.00,0.6362
1504.00,0.6384
1503.00,0.6402
1502.00,0.6424
1501.00,0.6461
1500.00,0.6514
1499.00,0.6577
1498.00,0.6652
1497.00,0.6749
1496.00,0.6864
1495.00,0.6983
1494.00,0.7100
1493.00,0.7228
1492.00,0.7380
1491.00,0.7560
1490.00,0.7763
1489.00,0.7989
1488.00,0.8225
1487.00,0.8467
1486.00,0.8726
1485.00,0.9018
1484.00,0.9349
1483.00,0.9724
1482.00,1.0156
1481.00,1.0661
1480.00,1.1233
1479.00,1.1868
1478.00,1.2599
1477.00,1.3477
1476.00,1.4520
1475.00,1.5729
1474.00,1.7191
1473.00,1.9106
1472.00,2.1629
1471.00,2.4655
1470.00,2.7903
1469.00,3.1187
1468.00,3.4037
1467.00,3.5155
1466.00,3.5708
1465.00,3.7896
1464.00,3.9710
1463.00,3.8797
1462.00,3.7750
1461.00,3.7707
1460.00,3.8923
1459.00,3.9972
1458.00,4.0765
1457.00,4.0693
1456.00,3.8398
1455.00,3.7207
1454.00,3.6873
1453.00,3.7355
1452.00,3.8001
1451.00,3.8197
1450.00,3.9767
1449.00,4.1308
1448.00,4.0903
1447.00,4.0235
1446.00,3.8333
1445.00,3.8112
1444.00,4.0583
1443.00,4.0766
1442.00,3.5597
1441.00,3.3217
1440.00,3.1265
1439.00,2.8901
1438.00,2.6692
1437.00,2.4720
1436.00,2.2899
1435.00,2.1239
1434.00,1.9773
1433.00,1.8436
1432.00,1.7174
1431.00,1.6001
1430.00,1.4967
1429.00,1.4092
1428.00,1.3372
1427.00,1.2795
1426.00,1.2338
1425.00,1.1976
1424.00,1.1699
1423.00,1.1500
1422.00,1.1365
1421.00,1.1277
1420.00,1.1229
1419.00,1.1222
1418.00,1.1261
1417.00,1.1343
1416.00,1.1464
1415.00,1.1617
1414.00,1.1792
1413.00,1.1965
1412.00,1.2105
1411.00,1.2176
1410.00,1.2154
1409.00,1.2041
1408.00,1.1843
1407.00,1.1570
1406.00,1.1231
1405.00,1.0845
1404.00,1.0441
1403.00,1.0052
1402.00,0.9696
1401.00,0.9375
1400.00,0.9091
1399.00,0.8855
1398.00,0.8676
1397.00,0.8550
1396.00,0.8463
1395.00,0.8408
1394.00,0.8382
1393.00,0.8391
1392.00,0.8450
1391.00,0.8582
1390.00,0.8811
1389.00,0.9167
1388.00,0.9684
1387.00,1.0368
1386.00,1.1184
1385.00,1.2086
1384.00,1.3065
1383.00,1.4155
1382.00,1.5395
1381.00,1.6821
1380.00,1.8436
1379.00,2.0077
1378.00,2.1292
1377.00,2.1599
1376.00,2.0960
1375.00,1.9709
1374.00,1.8254
1373.00,1.6909
1372.00,1.5807
1371.00,1.4954
1370.00,1.4331
1369.00,1.3923
1368.00,1.3685
1367.00,1.3511
1366.00,1.3266
1365.00,1.2856
1364.00,1.2281
1363.00,1.1627
1362.00,1.1005
1361.00,1.0486
1360.00,1.0083
1359.00,0.9780
1358.00,0.9559
1357.00,0.9409
1356.00,0.9321
1355.00,0.9284
1354.00,0.9284
1353.00,0.9307
1352.00,0.9345
1351.00,0.9397
1350.00,0.9469
1349.00,0.9577
1348.00,0.9738
1347.00,0.9949
1346.00,1.0176
1345.00,1.0349
1344.00,1.0394
1343.00,1.0279
1342.00,1.0037
1341.00,0.9731
1340.00,0.9413
1339.00,0.9107
1338.00,0.8820
1337.00,0.8554
1336.00,0.8311
1335.00,0.8095
1334.00,0.7908
1333.00,0.7753
1332.00,0.7631
1331.00,0.7542
1330.00,0.7484
1329.00,0.7454
1328.00,0.7449
1327.00,0.7463
1326.00,0.7487
1325.00,0.7514
1324.00,0.7539
1323.00,0.7561
1322.00,0.7583
1321.00,0.7609
1320.00,0.7642
1319.00,0.7686
1318.00,0.7738
1317.00,0.7800
1316.00,0.7870
1315.00,0.7948
1314.00,0.8038
1313.00,0.8138
1312.00,0.8249
1311.00,0.8365
1310.00,0.8482
1309.00,0.8594
1308.00,0.8694
1307.00,0.8776
1306.00,0.8834
1305.00,0.8870
1304.00,0.8892
1303.00,0.8909
1302.00,0.8928
1301.00,0.8957
1300.00,0.8997
1299.00,0.9041
1298.00,0.9086
1297.00,0.9128
1296.00,0.9173
1295.00,0.9224
1294.00,0.9285
1293.00,0.9353
1292.00,0.9417
1291.00,0.9463
1290.00,0.9483
1289.00,0.9476
1288.00,0.9446
1287.00,0.9397
1286.00,0.9334
1285.00,0.9268
1284.00,0.9210
1283.00,0.9172
1282.00,0.9167
1281.00,0.9197
1280.00,0.9252
1279.00,0.9306
1278.00,0.9326
1277.00,0.9291
1276.00,0.9205
1275.00,0.9091
1274.00,0.8977
1273.00,0.8880
1272.00,0.8800
1271.00,0.8730
1270.00,0.8656
1269.00,0.8570
1268.00,0.8468
1267.00,0.8349
1266.00,0.8218
1265.00,0.8084
1264.00,0.7959
1263.00,0.7847
1262.00,0.7748
1261.00,0.7661
1260.00,0.7587
1259.00,0.7524
1258.00,0.7470
1257.00,0.7421
1256.00,0.7375
1255.00,0.7332
1254.00,0.7290
1253.00,0.7247
1252.00,0.7200
1251.00,0.7144
1250.00,0.7080
1249.00,0.7011
1248.00,0.6941
1247.00,0.6873
1246.00,0.6807
1245.00,0.6743
1244.00,0.6681
1243.00,0.6625
1242.00,0.6571
1241.00,0.6518
1240.00,0.6463
1239.00,0.6411
1238.00,0.6369
1237.00,0.6347
1236.00,0.6349
1235.00,0.6373
1234.00,0.6411
1233.00,0.6452
1232.00,0.6488
1231.00,0.6506
1230.00,0.6494
1229.00,0.6444
1228.00,0.6356
1227.00,0.6239
1226.00,0.6106
1225.00,0.5971
1224.00,0.5845
1223.00,0.5738
1222.00,0.5651
1221.00,0.5583
1220.00,0.5533
1219.00,0.5499
1218.00,0.5479
1217.00,0.5470
1216.00,0.5468
1215.00,0.5471
1214.00,0.5474
1213.00,0.5473
1212.00,0.5463
1211.00,0.5442
1210.00,0.5411
1209.00,0.5372
1208.00,0.5329
1207.00,0.5286
1206.00,0.5249
1205.00,0.5222
1204.00,0.5212
1203.00,0.5224
1202.00,0.5258
1201.00,0.5305
1200.00,0.5346
1199.00,0.5363
1198.00,0.5346
1197.00,0.5305
1196.00,0.5262
1195.00,0.5234
1194.00,0.5225
1193.00,0.5233
1192.00,0.5253
1191.00,0.5275
1190.00,0.5289
1189.00,0.5290
1188.00,0.5277
1187.00,0.5256
1186.00,0.5233
1185.00,0.5210
1184.00,0.5192
1183.00,0.5176
1182.00,0.5163
1181.00,0.5149
1180.00,0.5138
1179.00,0.5131
1178.00,0.5128
1177.00,0.5131
1176.00,0.5139
1175.00,0.5156
1174.00,0.5182
1173.00,0.5216
1172.00,0.5256
1171.00,0.5294
1170.00,0.5326
1169.00,0.5347
1168.00,0.5360
1167.00,0.5369
1166.00,0.5378
1165.00,0.5390
1164.00,0.5405
1163.00,0.5421
1162.00,0.5436
1161.00,0.5446
1160.00,0.5456
1159.00,0.5467
1158.00,0.5482
1157.00,0.5499
1156.00,0.5517
1155.00,0.5537
1154.00,0.5557
1153.00,0.5577
1152.00,0.5595
1151.00,0.5610
1150.00,0.5625
1149.00,0.5642
1148.00,0.5666
1147.00,0.5698
1146.00,0.5741
1145.00,0.5794
1144.00,0.5859
1143.00,0.5939
1142.00,0.6034
1141.00,0.6141
1140.00,0.6257
1139.00,0.6380
1138.00,0.6506
1137.00,0.6634
1136.00,0.6763
1135.00,0.6886
1134.00,0.6987
1133.00,0.7048
1132.00,0.7059
1131.00,0.7026
1130.00,0.6974
1129.00,0.6932
1128.00,0.6919
1127.00,0.6942
1126.00,0.6985
1125.00,0.7024
1124.00,0.7035
1123.00,0.7009
1122.00,0.6951
1121.00,0.6879
1120.00,0.6806
1119.00,0.6737
1118.00,0.6674
1117.00,0.6615
1116.00,0.6556
1115.00,0.6484
1114.00,0.6387
1113.00,0.6257
1112.00,0.6101
1111.00,0.5938
1110.00,0.5783
1109.00,0.5651
1108.00,0.5545
1107.00,0.5468
1106.00,0.5420
1105.00,0.5401
1104.00,0.5406
1103.00,0.5433
1102.00,0.5471
1101.00,0.5513
1100.00,0.5546
1099.00,0.5557
1098.00,0.5541
1097.00,0.5501
1096.00,0.5452
1095.00,0.5410
1094.00,0.5381
1093.00,0.5364
1092.00,0.5354
1091.00,0.5347
1090.00,0.5341
1089.00,0.5342
1088.00,0.5354
1087.00,0.5383
1086.00,0.5431
1085.00,0.5498
1084.00,0.5585
1083.00,0.5692
1082.00,0.5817
1081.00,0.5957
1080.00,0.6101
1079.00,0.6238
1078.00,0.6358
1077.00,0.6449
1076.00,0.6504
1075.00,0.6519
1074.00,0.6494
1073.00,0.6436
1072.00,0.6355
1071.00,0.6261
1070.00,0.6160
1069.00,0.6053
1068.00,0.5942
1067.00,0.5833
1066.00,0.5729
1065.00,0.5634
1064.00,0.5551
1063.00,0.5478
1062.00,0.5415
1061.00,0.5358
1060.00,0.5304
1059.00,0.5254
1058.00,0.5206
1057.00,0.5161
1056.00,0.5118
1055.00,0.5078
1054.00,0.5040
1053.00,0.5006
1052.00,0.4976
1051.00,0.4954
1050.00,0.4940
1049.00,0.4935
1048.00,0.4939
1047.00,0.4954
1046.00,0.4975
1045.00,0.4999
1044.00,0.5025
1043.00,0.5050
1042.00,0.5072
1041.00,0.5086
1040.00,0.5089
1039.00,0.5079
1038.00,0.5058
1037.00,0.5033
1036.00,0.5012
1035.00,0.5001
1034.00,0.5003
1033.00,0.5018
1032.00,0.5044
1031.00,0.5076
1030.00,0.5109
1029.00,0.5133
1028.00,0.5142
1027.00,0.5126
1026.00,0.5086
1025.00,0.5024
1024.00,0.4952
1023.00,0.4880
1022.00,0.4815
1021.00,0.4759
1020.00,0.4715
1019.00,0.4680
1018.00,0.4653
1017.00,0.4633
1016.00,0.4619
1015.00,0.4609
1014.00,0.4601
1013.00,0.4592
1012.00,0.4582
1011.00,0.4576
1010.00,0.4575
1009.00,0.4582
1008.00,0.4595
1007.00,0.4613
1006.00,0.4633
1005.00,0.4652
1004.00,0.4668
1003.00,0.4681
1002.00,0.4694
1001.00,0.4708
1000.00,0.4721
999.00,0.4730
998.00,0.4732
997.00,0.4727
996.00,0.4715
995.00,0.4700
994.00,0.4682
993.00,0.4665
992.00,0.4650
991.00,0.4637
990.00,0.4626
989.00,0.4616
988.00,0.4603
987.00,0.4590
986.00,0.4578
985.00,0.4572
984.00,0.4576
983.00,0.4591
982.00,0.4619
981.00,0.4658
980.00,0.4708
979.00,0.4772
978.00,0.4859
977.00,0.4979
976.00,0.5151
975.00,0.5394
974.00,0.5725
973.00,0.6157
972.00,0.6689
971.00,0.7280
970.00,0.7840
969.00,0.8234
968.00,0.8333
967.00,0.8103
966.00,0.7633
965.00,0.7064
964.00,0.6514
963.00,0.6049
962.00,0.5697
961.00,0.5460
960.00,0.5331
959.00,0.5294
958.00,0.5319
957.00,0.5369
956.00,0.5403
955.00,0.5390
954.00,0.5321
953.00,0.5209
952.00,0.5076
951.00,0.4948
950.00,0.4838
949.00,0.4754
948.00,0.4695
947.00,0.4663
946.00,0.4652
945.00,0.4661
944.00,0.4682
943.00,0.4712
942.00,0.4745
941.00,0.4777
940.00,0.4801
939.00,0.4814
938.00,0.4813
937.00,0.4802
936.00,0.4782
935.00,0.4757
934.00,0.4731
933.00,0.4702
932.00,0.4673
931.00,0.4642
930.00,0.4613
929.00,0.4586
928.00,0.4567
927.00,0.4562
926.00,0.4574
925.00,0.4605
924.00,0.4655
923.00,0.4717
922.00,0.4777
921.00,0.4815
920.00,0.4816
919.00,0.4775
918.00,0.4699
917.00,0.4605
916.00,0.4509
915.00,0.4424
914.00,0.4356
913.00,0.4306
912.00,0.4270
911.00,0.4246
910.00,0.4233
909.00,0.4230
908.00,0.4239
907.00,0.4265
906.00,0.4308
905.00,0.4359
904.00,0.4402
903.00,0.4418
902.00,0.4404
901.00,0.4371
900.00,0.4339
899.00,0.4322
898.00,0.4322
897.00,0.4337
896.00,0.4362
895.00,0.4396
894.00,0.4436
893.00,0.4483
892.00,0.4531
891.00,0.4577
890.00,0.4612
889.00,0.4631
888.00,0.4631
887.00,0.4612
886.00,0.4579
885.00,0.4541
884.00,0.4507
883.00,0.4481
882.00,0.4465
881.00,0.4458
880.00,0.4458
879.00,0.4461
878.00,0.4465
877.00,0.4468
876.00,0.4470
875.00,0.4475
874.00,0.4482
873.00,0.4488
872.00,0.4495
871.00,0.4501
870.00,0.4508
869.00,0.4518
868.00,0.4534
867.00,0.4560
866.00,0.4600
865.00,0.4651
864.00,0.4710
863.00,0.4763
862.00,0.4791
861.00,0.4780
860.00,0.4727
859.00,0.4647
858.00,0.4559
857.00,0.4479
856.00,0.4415
855.00,0.4367
854.00,0.4334
853.00,0.4312
852.00,0.4295
851.00,0.4282
850.00,0.4270
849.00,0.4257
848.00,0.4244
847.00,0.4232
846.00,0.4221
845.00,0.4212
844.00,0.4208
843.00,0.4212
842.00,0.4230
841.00,0.4267
840.00,0.4328
839.00,0.4416
838.00,0.4520
837.00,0.4618
836.00,0.4679
835.00,0.4684
834.00,0.4638
833.00,0.4564
832.00,0.4493
831.00,0.4448
830.00,0.4439
829.00,0.4461
828.00,0.4503
827.00,0.4552
826.00,0.4603
825.00,0.4656
824.00,0.4713
823.00,0.4771
822.00,0.4824
821.00,0.4860
820.00,0.4876
819.00,0.4872
818.00,0.4854
817.00,0.4828
816.00,0.4800
815.00,0.4772
814.00,0.4742
813.00,0.4706
812.00,0.4661
811.00,0.4610
810.00,0.4557
809.00,0.4509
808.00,0.4465
807.00,0.4424
806.00,0.4385
805.00,0.4344
804.00,0.4304
803.00,0.4268
802.00,0.4238
801.00,0.4217
800.00,0.4205
799.00,0.4202
798.00,0.4206
797.00,0.4212
796.00,0.4218
795.00,0.4224
794.00,0.4231
793.00,0.4242
792.00,0.4258
791.00,0.4280
790.00,0.4304
789.00,0.4326
788.00,0.4345
787.00,0.4366
786.00,0.4397
785.00,0.4439
784.00,0.4495
783.00,0.4565
782.00,0.4650
781.00,0.4750
780.00,0.4860
779.00,0.4968
778.00,0.5048
777.00,0.5078
776.00,0.5051
775.00,0.4985
774.00,0.4910
773.00,0.4852
772.00,0.4824
771.00,0.4824
770.00,0.4842
769.00,0.4868
768.00,0.4895
767.00,0.4921
766.00,0.4944
765.00,0.4964
764.00,0.4983
763.00,0.5009
762.00,0.5046
761.00,0.5094
760.00,0.5148
759.00,0.5199
758.00,0.5239
757.00,0.5267
756.00,0.5290
755.00,0.5318
754.00,0.5355
753.00,0.5405
752.00,0.5465
751.00,0.5534
750.00,0.5610
749.00,0.5691
748.00,0.5777
747.00,0.5868
746.00,0.5966
745.00,0.6071
744.00,0.6181
743.00,0.6297
742.00,0.6418
741.00,0.6535
740.00,0.6639
739.00,0.6727
738.00,0.6801
737.00,0.6869
736.00,0.6939
735.00,0.7017
734.00,0.7105
733.00,0.7204
732.00,0.7317
731.00,0.7455
730.00,0.7629
729.00,0.7854
728.00,0.8143
727.00,0.8512
726.00,0.8972
725.00,0.9511
724.00,1.0082
723.00,1.0579
722.00,1.0850
721.00,1.0767
720.00,1.0346
719.00,0.9741
718.00,0.9112
717.00,0.8548
716.00,0.8083
715.00,0.7719
714.00,0.7442
713.00,0.7224
712.00,0.7046
711.00,0.6893
710.00,0.6754
709.00,0.6619
708.00,0.6482
707.00,0.6350
706.00,0.6225
705.00,0.6099
704.00,0.5969
703.00,0.5837
702.00,0.5711
701.00,0.5589
700.00,0.5468
699.00,0.5339
698.00,0.5198
697.00,0.5047
696.00,0.4896
695.00,0.4759
694.00,0.4643
693.00,0.4549
692.00,0.4471
691.00,0.4407
690.00,0.4352
689.00,0.4302
688.00,0.4253
687.00,0.4209
686.00,0.4172
685.00,0.4143
684.00,0.4120
683.00,0.4101
682.00,0.4086
681.00,0.4073
680.00,0.4063
679.00,0.4054
678.00,0.4047
677.00,0.4041
676.00,0.4035
675.00,0.4033
674.00,0.4033
673.00,0.4037
672.00,0.4040
671.00,0.4041
670.00,0.4037
669.00,0.4036
668.00,0.4040
667.00,0.4048
666.00,0.4062
665.00,0.4076
664.00,0.4084
663.00,0.4089
662.00,0.4095
661.00,0.4103
660.00,0.4113
659.00,0.4126
658.00,0.4139
657.00,0.4151
656.00,0.4164
655.00,0.4179
654.00,0.4197
653.00,0.4214
652.00,0.4227
651.00,0.4235
650.00,0.4237
649.00,0.4232
648.00,0.4226
647.00,0.4223
646.00,0.4228
645.00,0.4242
644.00,0.4262
643.00,0.4286
642.00,0.4312
641.00,0.4336
640.00,0.4356
639.00,0.4375
638.00,0.4394
637.00,0.4412
636.00,0.4428
635.00,0.4439
634.00,0.4447
633.00,0.4455
632.00,0.4467
631.00,0.4482
630.00,0.4500
629.00,0.4519
628.00,0.4540
627.00,0.4562
626.00,0.4589
625.00,0.4620
624.00,0.4652
623.00,0.4683
622.00,0.4712
621.00,0.4736
620.00,0.4754
619.00,0.4766
618.00,0.4771
617.00,0.4772
616.00,0.4768
615.00,0.4761
614.00,0.4753
613.00,0.4745
612.00,0.4737
611.00,0.4729
610.00,0.4720
609.00,0.4711
608.00,0.4706
607.00,0.4707
606.00,0.4712
605.00,0.4715
604.00,0.4711
603.00,0.4700
602.00,0.4686
601.00,0.4671
600.00,0.4658
599.00,0.4649
598.00,0.4648
597.00,0.4654
596.00,0.4663
595.00,0.4671
594.00,0.4680
593.00,0.4692
592.00,0.4706
591.00,0.4719
590.00,0.4728
589.00,0.4737
588.00,0.4751
587.00,0.4773
586.00,0.4799
585.00,0.4825
584.00,0.4850
583.00,0.4876
582.00,0.4908
581.00,0.4943
580.00,0.4975
579.00,0.4998
578.00,0.5017
577.00,0.5037
576.00,0.5064
575.00,0.5097
574.00,0.5133
573.00,0.5168
572.00,0.5203
571.00,0.5236
570.00,0.5266
569.00,0.5293
568.00,0.5320
567.00,0.5348
566.00,0.5375
565.00,0.5399
564.00,0.5422
563.00,0.5448
562.00,0.5481
561.00,0.5523
560.00,0.5567
559.00,0.5608
558.00,0.5641
557.00,0.5672
556.00,0.5706
555.00,0.5746
554.00,0.5793
553.00,0.5844
552.00,0.5896
551.00,0.5946
550.00,0.5990
