Created as New Dataset,
cm-1,A
4000.00,0.3766
3999.00,0.3763
3998.00,0.3760
3997.00,0.3756
3996.00,0.3753
3995.00,0.3750
3994.00,0.3746
3993.00,0.3742
3992.00,0.3739
3991.00,0.3735
3990.00,0.3732
3989.00,0.3728
3988.00,0.3724
3987.00,0.3721
3986.00,0.3717
3985.00,0.3713
3984.00,0.3710
3983.00,0.3707
3982.00,0.3704
3981.00,0.3700
3980.00,0.3697
3979.00,0.3693
3978.00,0.3690
3977.00,0.3687
3976.00,0.3685
3975.00,0.3683
3974.00,0.3680
3973.00,0.3677
3972.00,0.3674
3971.00,0.3671
3970.00,0.3668
3969.00,0.3666
3968.00,0.3664
3967.00,0.3662
3966.00,0.3659
3965.00,0.3656
3964.00,0.3653
3963.00,0.3649
3962.00,0.3646
3961.00,0.3643
3960.00,0.3640
3959.00,0.3638
3958.00,0.3635
3957.00,0.3633
3956.00,0.3630
3955.00,0.3628
3954.00,0.3627
3953.00,0.3625
3952.00,0.3624
3951.00,0.3623
3950.00,0.3621
3949.00,0.3620
3948.00,0.3618
3947.00,0.3616
3946.00,0.3615
3945.00,0.3613
3944.00,0.3612
3943.00,0.3612
3942.00,0.3611
3941.00,0.3610
3940.00,0.3610
3939.00,0.3609
3938.00,0.3608
3937.00,0.3607
3936.00,0.3606
3935.00,0.3605
3934.00,0.3604
3933.00,0.3603
3932.00,0.3603
3931.00,0.3602
3930.00,0.3601
3929.00,0.3600
3928.00,0.3600
3927.00,0.3600
3926.00,0.3599
3925.00,0.3599
3924.00,0.3599
3923.00,0.3598
3922.00,0.3598
3921.00,0.3598
3920.00,0.3597
3919.00,0.3597
3918.00,0.3597
3917.00,0.3597
3916.00,0.3596
3915.00,0.3596
3914.00,0.3595
3913.00,0.3594
3912.00,0.3592
3911.00,0.3592
3910.00,0.3591
3909.00,0.3591
3908.00,0.3591
3907.00,0.3590
3906.00,0.3590
3905.00,0.3589
3904.00,0.3588
3903.00,0.3588
3902.00,0.3589
3901.00,0.3589
3900.00,0.3588
3899.00,0.3587
3898.00,0.3586
3897.00,0.3585
3896.00,0.3584
3895.00,0.3583
3894.00,0.3581
3893.00,0.3579
3892.00,0.3576
3891.00,0.3574
3890.00,0.3573
3889.00,0.3573
3888.00,0.3574
3887.00,0.3574
3886.00,0.3574
3885.00,0.3573
3884.00,0.3572
3883.00,0.3572
3882.00,0.3572
3881.00,0.3571
3880.00,0.3569
3879.00,0.3568
3878.00,0.3567
3877.00,0.3567
3876.00,0.3567
3875.00,0.3567
3874.00,0.3566
3873.00,0.3565
3872.00,0.3565
3871.00,0.3564
3870.00,0.3563
3869.00,0.3561
3868.00,0.3559
3867.00,0.3558
3866.00,0.3557
3865.00,0.3555
3864.00,0.3553
3863.00,0.3551
3862.00,0.3550
3861.00,0.3548
3860.00,0.3546
3859.00,0.3544
3858.00,0.3542
3857.00,0.3540
3856.00,0.3538
3855.00,0.3538
3854.00,0.3539
3853.00,0.3540
3852.00,0.3540
3851.00,0.3541
3850.00,0.3540
3849.00,0.3539
3848.00,0.3537
3847.00,0.3536
3846.00,0.3535
3845.00,0.3535
3844.00,0.3534
3843.00,0.3534
3842.00,0.3534
3841.00,0.3534
3840.00,0.3534
3839.00,0.3534
3838.00,0.3533
3837.00,0.3532
3836.00,0.3531
3835.00,0.3529
3834.00,0.3528
3833.00,0.3526
3832.00,0.3525
3831.00,0.3523
3830.00,0.3522
3829.00,0.3520
3828.00,0.3519
3827.00,0.3518
3826.00,0.3516
3825.00,0.3514
3824.00,0.3514
3823.00,0.3514
3822.00,0.3514
3821.00,0.3512
3820.00,0.3511
3819.00,0.3509
3818.00,0.3508
3817.00,0.3507
3816.00,0.3505
3815.00,0.3504
3814.00,0.3503
3813.00,0.3502
3812.00,0.3499
3811.00,0.3497
3810.00,0.3496
3809.00,0.3495
3808.00,0.3494
3807.00,0.3493
3806.00,0.3491
3805.00,0.3490
3804.00,0.3489
3803.00,0.3488
3802.00,0.3486
3801.00,0.3484
3800.00,0.3482
3799.00,0.3481
3798.00,0.3479
3797.00,0.3477
3796.00,0.3474
3795.00,0.3471
3794.00,0.3468
3793.00,0.3466
3792.00,0.3463
3791.00,0.3460
3790.00,0.3457
3789.00,0.3454
3788.00,0.3452
3787.00,0.3451
3786.00,0.3449
3785.00,0.3448
3784.00,0.3447
3783.00,0.3447
3782.00,0.3446
3781.00,0.3445
3780.00,0.3444
3779.00,0.3443
3778.00,0.3442
3777.00,0.3442
3776.00,0.3441
3775.00,0.3440
3774.00,0.3439
3773.00,0.3438
3772.00,0.3437
3771.00,0.3437
3770.00,0.3436
3769.00,0.3434
3768.00,0.3432
3767.00,0.3431
3766.00,0.3429
3765.00,0.3427
3764.00,0.3425
3763.00,0.3423
3762.00,0.3422
3761.00,0.3420
3760.00,0.3418
3759.00,0.3416
3758.00,0.3414
3757.00,0.3411
3756.00,0.3408
3755.00,0.3406
3754.00,0.3403
3753.00,0.3402
3752.00,0.3401
3751.00,0.3400
3750.00,0.3400
3749.00,0.3399
3748.00,0.3399
3747.00,0.3399
3746.00,0.3399
3745.00,0.3398
3744.00,0.3397
3743.00,0.3396
3742.00,0.3395
3741.00,0.3394
3740.00,0.3393
3739.00,0.3392
3738.00,0.3392
3737.00,0.3392
3736.00,0.3390
3735.00,0.3389
3734.00,0.3388
3733.00,0.3387
3732.00,0.3386
3731.00,0.3385
3730.00,0.3383
3729.00,0.3380
3728.00,0.3378
3727.00,0.3375
3726.00,0.3373
3725.00,0.3370
3724.00,0.3367
3723.00,0.3364
3722.00,0.3361
3721.00,0.3359
3720.00,0.3357
3719.00,0.3355
3718.00,0.3353
3717.00,0.3352
3716.00,0.3351
3715.00,0.3350
3714.00,0.3351
3713.00,0.3351
3712.00,0.3352
3711.00,0.3353
3710.00,0.3354
3709.00,0.3355
3708.00,0.3356
3707.00,0.3356
3706.00,0.3356
3705.00,0.3356
3704.00,0.3356
3703.00,0.3356
3702.00,0.3356
3701.00,0.3356
3700.00,0.3357
3699.00,0.3357
3698.00,0.3358
3697.00,0.3358
3696.00,0.3358
3695.00,0.3358
3694.00,0.3357
3693.00,0.3356
3692.00,0.3355
3691.00,0.3355
3690.00,0.3355
3689.00,0.3355
3688.00,0.3355
3687.00,0.3355
3686.00,0.3355
3685.00,0.3354
3684.00,0.3353
3683.00,0.3352
3682.00,0.3350
3681.00,0.3349
3680.00,0.3348
3679.00,0.3347
3678.00,0.3347
3677.00,0.3347
3676.00,0.3348
3675.00,0.3349
3674.00,0.3350
3673.00,0.3352
3672.00,0.3354
3671.00,0.3356
3670.00,0.3358
3669.00,0.3359
3668.00,0.3360
3667.00,0.3363
3666.00,0.3366
3665.00,0.3369
3664.00,0.3373
3663.00,0.3378
3662.00,0.3383
3661.00,0.3390
3660.00,0.3399
3659.00,0.3410
3658.00,0.3424
3657.00,0.3441
3656.00,0.3460
3655.00,0.3480
3654.00,0.3500
3653.00,0.3518
3652.00,0.3536
3651.00,0.3551
3650.00,0.3561
3649.00,0.3564
3648.00,0.3560
3647.00,0.3552
3646.00,0.3541
3645.00,0.3527
3644.00,0.3512
3643.00,0.3497
3642.00,0.3483
3641.00,0.3470
3640.00,0.3460
3639.00,0.3452
3638.00,0.3445
3637.00,0.3439
3636.00,0.3435
3635.00,0.3432
3634.00,0.3429
3633.00,0.3426
3632.00,0.3425
3631.00,0.3425
3630.00,0.3426
3629.00,0.3428
3628.00,0.3429
3627.00,0.3430
3626.00,0.3431
3625.00,0.3432
3624.00,0.3432
3623.00,0.3432
3622.00,0.3430
3621.00,0.3427
3620.00,0.3422
3619.00,0.3416
3618.00,0.3411
3617.00,0.3407
3616.00,0.3404
3615.00,0.3401
3614.00,0.3399
3613.00,0.3397
3612.00,0.3396
3611.00,0.3396
3610.00,0.3396
3609.00,0.3396
3608.00,0.3396
3607.00,0.3395
3606.00,0.3393
3605.00,0.3392
3604.00,0.3389
3603.00,0.3386
3602.00,0.3382
3601.00,0.3377
3600.00,0.3371
3599.00,0.3364
3598.00,0.3357
3597.00,0.3349
3596.00,0.3341
3595.00,0.3333
3594.00,0.3326
3593.00,0.3319
3592.00,0.3313
3591.00,0.3308
3590.00,0.3304
3589.00,0.3301
3588.00,0.3297
3587.00,0.3294
3586.00,0.3290
3585.00,0.3287
3584.00,0.3285
3583.00,0.3283
3582.00,0.3281
3581.00,0.3279
3580.00,0.3277
3579.00,0.3276
3578.00,0.3275
3577.00,0.3274
3576.00,0.3274
3575.00,0.3274
3574.00,0.3274
3573.00,0.3274
3572.00,0.3274
3571.00,0.3275
3570.00,0.3275
3569.00,0.3277
3568.00,0.3278
3567.00,0.3279
3566.00,0.3280
3565.00,0.3281
3564.00,0.3282
3563.00,0.3283
3562.00,0.3284
3561.00,0.3286
3560.00,0.3288
3559.00,0.3290
3558.00,0.3291
3557.00,0.3292
3556.00,0.3294
3555.00,0.3295
3554.00,0.3297
3553.00,0.3299
3552.00,0.3301
3551.00,0.3303
3550.00,0.3305
3549.00,0.3308
3548.00,0.3310
3547.00,0.3313
3546.00,0.3316
3545.00,0.3318
3544.00,0.3320
3543.00,0.3323
3542.00,0.3326
3541.00,0.3328
3540.00,0.3332
3539.00,0.3335
3538.00,0.3338
3537.00,0.3341
3536.00,0.3344
3535.00,0.3346
3534.00,0.3349
3533.00,0.3352
3532.00,0.3355
3531.00,0.3359
3530.00,0.3362
3529.00,0.3366
3528.00,0.3370
3527.00,0.3373
3526.00,0.3376
3525.00,0.3379
3524.00,0.3382
3523.00,0.3386
3522.00,0.3389
3521.00,0.3393
3520.00,0.3397
3519.00,0.3400
3518.00,0.3404
3517.00,0.3407
3516.00,0.3411
3515.00,0.3414
3514.00,0.3419
3513.00,0.3423
3512.00,0.3427
3511.00,0.3431
3510.00,0.3435
3509.00,0.3439
3508.00,0.3443
3507.00,0.3448
3506.00,0.3452
3505.00,0.3458
3504.00,0.3463
3503.00,0.3468
3502.00,0.3473
3501.00,0.3478
3500.00,0.3483
3499.00,0.3488
3498.00,0.3494
3497.00,0.3500
3496.00,0.3507
3495.00,0.3514
3494.00,0.3521
3493.00,0.3528
3492.00,0.3535
3491.00,0.3542
3490.00,0.3549
3489.00,0.3556
3488.00,0.3563
3487.00,0.3569
3486.00,0.3575
3485.00,0.3581
3484.00,0.3587
3483.00,0.3593
3482.00,0.3598
3481.00,0.3604
3480.00,0.3609
3479.00,0.3615
3478.00,0.3621
3477.00,0.3626
3476.00,0.3631
3475.00,0.3636
3474.00,0.3641
3473.00,0.3646
3472.00,0.3652
3471.00,0.3658
3470.00,0.3664
3469.00,0.3671
3468.00,0.3678
3467.00,0.3685
3466.00,0.3692
3465.00,0.3699
3464.00,0.3707
3463.00,0.3714
3462.00,0.3722
3461.00,0.3729
3460.00,0.3737
3459.00,0.3744
3458.00,0.3751
3457.00,0.3759
3456.00,0.3767
3455.00,0.3775
3454.00,0.3783
3453.00,0.3792
3452.00,0.3800
3451.00,0.3809
3450.00,0.3818
3449.00,0.3828
3448.00,0.3838
3447.00,0.3848
3446.00,0.3859
3445.00,0.3870
3444.00,0.3882
3443.00,0.3895
3442.00,0.3908
3441.00,0.3920
3440.00,0.3932
3439.00,0.3944
3438.00,0.3955
3437.00,0.3965
3436.00,0.3975
3435.00,0.3984
3434.00,0.3993
3433.00,0.4002
3432.00,0.4011
3431.00,0.4019
3430.00,0.4028
3429.00,0.4036
3428.00,0.4044
3427.00,0.4053
3426.00,0.4061
3425.00,0.4071
3424.00,0.4080
3423.00,0.4089
3422.00,0.4098
3421.00,0.4107
3420.00,0.4117
3419.00,0.4127
3418.00,0.4137
3417.00,0.4149
3416.00,0.4160
3415.00,0.4171
3414.00,0.4182
3413.00,0.4193
3412.00,0.4204
3411.00,0.4216
3410.00,0.4229
3409.00,0.4241
3408.00,0.4253
3407.00,0.4266
3406.00,0.4278
3405.00,0.4291
3404.00,0.4305
3403.00,0.4318
3402.00,0.4332
3401.00,0.4345
3400.00,0.4359
3399.00,0.4373
3398.00,0.4386
3397.00,0.4400
3396.00,0.4413
3395.00,0.4426
3394.00,0.4440
3393.00,0.4455
3392.00,0.4469
3391.00,0.4482
3390.00,0.4495
3389.00,0.4509
3388.00,0.4523
3387.00,0.4537
3386.00,0.4552
3385.00,0.4566
3384.00,0.4581
3383.00,0.4596
3382.00,0.4612
3381.00,0.4627
3380.00,0.4643
3379.00,0.4659
3378.00,0.4674
3377.00,0.4691
3376.00,0.4708
3375.00,0.4725
3374.00,0.4743
3373.00,0.4761
3372.00,0.4779
3371.00,0.4798
3370.00,0.4818
3369.00,0.4837
3368.00,0.4857
3367.00,0.4876
3366.00,0.4895
3365.00,0.4915
3364.00,0.4936
3363.00,0.4956
3362.00,0.4977
3361.00,0.4997
3360.00,0.5018
3359.00,0.5039
3358.00,0.5061
3357.00,0.5082
3356.00,0.5102
3355.00,0.5122
3354.00,0.5142
3353.00,0.5163
3352.00,0.5184
3351.00,0.5206
3350.00,0.5227
3349.00,0.5246
3348.00,0.5264
3347.00,0.5282
3346.00,0.5300
3345.00,0.5318
3344.00,0.5335
3343.00,0.5352
3342.00,0.5368
3341.00,0.5382
3340.00,0.5395
3339.00,0.5407
3338.00,0.5418
3337.00,0.5429
3336.00,0.5440
3335.00,0.5449
3334.00,0.5457
3333.00,0.5464
3332.00,0.5470
3331.00,0.5474
3330.00,0.5478
3329.00,0.5480
3328.00,0.5481
3327.00,0.5481
3326.00,0.5480
3325.00,0.5477
3324.00,0.5474
3323.00,0.5470
3322.00,0.5464
3321.00,0.5458
3320.00,0.5450
3319.00,0.5441
3318.00,0.5433
3317.00,0.5425
3316.00,0.5417
3315.00,0.5409
3314.00,0.5400
3313.00,0.5391
3312.00,0.5381
3311.00,0.5371
3310.00,0.5360
3309.00,0.5349
3308.00,0.5337
3307.00,0.5324
3306.00,0.5312
3305.00,0.5302
3304.00,0.5291
3303.00,0.5281
3302.00,0.5270
3301.00,0.5260
3300.00,0.5251
3299.00,0.5243
3298.00,0.5235
3297.00,0.5228
3296.00,0.5220
3295.00,0.5213
3294.00,0.5206
3293.00,0.5200
3292.00,0.5195
3291.00,0.5191
3290.00,0.5188
3289.00,0.5185
3288.00,0.5182
3287.00,0.5179
3286.00,0.5176
3285.00,0.5174
3284.00,0.5173
3283.00,0.5173
3282.00,0.5173
3281.00,0.5174
3280.00,0.5175
3279.00,0.5175
3278.00,0.5176
3277.00,0.5178
3276.00,0.5180
3275.00,0.5184
3274.00,0.5187
3273.00,0.5191
3272.00,0.5195
3271.00,0.5199
3270.00,0.5203
3269.00,0.5208
3268.00,0.5213
3267.00,0.5218
3266.00,0.5223
3265.00,0.5228
3264.00,0.5233
3263.00,0.5238
3262.00,0.5243
3261.00,0.5249
3260.00,0.5254
3259.00,0.5259
3258.00,0.5264
3257.00,0.5268
3256.00,0.5273
3255.00,0.5277
3254.00,0.5281
3253.00,0.5285
3252.00,0.5289
3251.00,0.5292
3250.00,0.5296
3249.00,0.5298
3248.00,0.5301
3247.00,0.5302
3246.00,0.5304
3245.00,0.5305
3244.00,0.5306
3243.00,0.5307
3242.00,0.5307
3241.00,0.5307
3240.00,0.5307
3239.00,0.5306
3238.00,0.5304
3237.00,0.5303
3236.00,0.5301
3235.00,0.5299
3234.00,0.5296
3233.00,0.5294
3232.00,0.5291
3231.00,0.5287
3230.00,0.5283
3229.00,0.5278
3228.00,0.5273
3227.00,0.5268
3226.00,0.5263
3225.00,0.5258
3224.00,0.5253
3223.00,0.5247
3222.00,0.5240
3221.00,0.5233
3220.00,0.5227
3219.00,0.5221
3218.00,0.5214
3217.00,0.5207
3216.00,0.5200
3215.00,0.5192
3214.00,0.5185
3213.00,0.5177
3212.00,0.5170
3211.00,0.5162
3210.00,0.5155
3209.00,0.5148
3208.00,0.5141
3207.00,0.5134
3206.00,0.5127
3205.00,0.5119
3204.00,0.5112
3203.00,0.5104
3202.00,0.5097
3201.00,0.5090
3200.00,0.5083
3199.00,0.5075
3198.00,0.5068
3197.00,0.5061
3196.00,0.5053
3195.00,0.5046
3194.00,0.5038
3193.00,0.5031
3192.00,0.5022
3191.00,0.5014
3190.00,0.5005
3189.00,0.4996
3188.00,0.4986
3187.00,0.4977
3186.00,0.4968
3185.00,0.4960
3184.00,0.4951
3183.00,0.4942
3182.00,0.4933
3181.00,0.4923
3180.00,0.4914
3179.00,0.4904
3178.00,0.4894
3177.00,0.4883
3176.00,0.4873
3175.00,0.4862
3174.00,0.4853
3173.00,0.4843
3172.00,0.4834
3171.00,0.4824
3170.00,0.4815
3169.00,0.4805
3168.00,0.4795
3167.00,0.4785
3166.00,0.4775
3165.00,0.4765
3164.00,0.4756
3163.00,0.4746
3162.00,0.4736
3161.00,0.4727
3160.00,0.4717
3159.00,0.4708
3158.00,0.4699
3157.00,0.4690
3156.00,0.4681
3155.00,0.4672
3154.00,0.4663
3153.00,0.4654
3152.00,0.4645
3151.00,0.4637
3150.00,0.4628
3149.00,0.4620
3148.00,0.4613
3147.00,0.4606
3146.00,0.4598
3145.00,0.4591
3144.00,0.4584
3143.00,0.4577
3142.00,0.4570
3141.00,0.4563
3140.00,0.4556
3139.00,0.4550
3138.00,0.4544
3137.00,0.4539
3136.00,0.4535
3135.00,0.4531
3134.00,0.4527
3133.00,0.4523
3132.00,0.4519
3131.00,0.4516
3130.00,0.4513
3129.00,0.4510
3128.00,0.4507
3127.00,0.4504
3126.00,0.4502
3125.00,0.4501
3124.00,0.4500
3123.00,0.4500
3122.00,0.4499
3121.00,0.4498
3120.00,0.4498
3119.00,0.4499
3118.00,0.4500
3117.00,0.4502
3116.00,0.4503
3115.00,0.4505
3114.00,0.4507
3113.00,0.4511
3112.00,0.4515
3111.00,0.4519
3110.00,0.4525
3109.00,0.4531
3108.00,0.4537
3107.00,0.4544
3106.00,0.4552
3105.00,0.4560
3104.00,0.4568
3103.00,0.4577
3102.00,0.4585
3101.00,0.4593
3100.00,0.4602
3099.00,0.4611
3098.00,0.4621
3097.00,0.4631
3096.00,0.4643
3095.00,0.4655
3094.00,0.4668
3093.00,0.4681
3092.00,0.4696
3091.00,0.4712
3090.00,0.4730
3089.00,0.4749
3088.00,0.4770
3087.00,0.4792
3086.00,0.4814
3085.00,0.4837
3084.00,0.4861
3083.00,0.4885
3082.00,0.4911
3081.00,0.4938
3080.00,0.4968
3079.00,0.4999
3078.00,0.5033
3077.00,0.5067
3076.00,0.5102
3075.00,0.5138
3074.00,0.5174
3073.00,0.5212
3072.00,0.5251
3071.00,0.5290
3070.00,0.5329
3069.00,0.5368
3068.00,0.5407
3067.00,0.5447
3066.00,0.5486
3065.00,0.5524
3064.00,0.5560
3063.00,0.5594
3062.00,0.5626
3061.00,0.5657
3060.00,0.5687
3059.00,0.5716
3058.00,0.5745
3057.00,0.5774
3056.00,0.5805
3055.00,0.5837
3054.00,0.5869
3053.00,0.5902
3052.00,0.5936
3051.00,0.5971
3050.00,0.6007
3049.00,0.6046
3048.00,0.6087
3047.00,0.6129
3046.00,0.6171
3045.00,0.6213
3044.00,0.6255
3043.00,0.6298
3042.00,0.6343
3041.00,0.6388
3040.00,0.6435
3039.00,0.6482
3038.00,0.6532
3037.00,0.6583
3036.00,0.6638
3035.00,0.6695
3034.00,0.6755
3033.00,0.6819
3032.00,0.6886
3031.00,0.6956
3030.00,0.7029
3029.00,0.7105
3028.00,0.7185
3027.00,0.7268
3026.00,0.7354
3025.00,0.7443
3024.00,0.7535
3023.00,0.7630
3022.00,0.7727
3021.00,0.7828
3020.00,0.7930
3019.00,0.8036
3018.00,0.8144
3017.00,0.8254
3016.00,0.8365
3015.00,0.8479
3014.00,0.8597
3013.00,0.8720
3012.00,0.8848
3011.00,0.8983
3010.00,0.9124
3009.00,0.9272
3008.00,0.9426
3007.00,0.9588
3006.00,0.9758
3005.00,0.9935
3004.00,1.0117
3003.00,1.0305
3002.00,1.0498
3001.00,1.0700
3000.00,1.0911
2999.00,1.1134
2998.00,1.1374
2997.00,1.1634
2996.00,1.1919
2995.00,1.2230
2994.00,1.2570
2993.00,1.2944
2992.00,1.3356
2991.00,1.3812
2990.00,1.4318
2989.00,1.4879
2988.00,1.5498
2987.00,1.6184
2986.00,1.6944
2985.00,1.7782
2984.00,1.8700
2983.00,1.9707
2982.00,2.0824
2981.00,2.2069
2980.00,2.3456
2979.00,2.4991
2978.00,2.6674
2977.00,2.8479
2976.00,3.0405
2975.00,3.2562
2974.00,3.5175
2973.00,3.8005
2972.00,3.9966
2971.00,4.1275
2970.00,4.3880
2969.00,5.1552
2968.00,5.1326
2967.00,4.5300
2966.00,4.2392
2965.00,4.2297
2964.00,4.3426
2963.00,4.2560
2962.00,4.1269
2961.00,4.0784
2960.00,4.1042
2959.00,3.9919
2958.00,3.8831
2957.00,3.8736
2956.00,3.8879
2955.00,3.8537
2954.00,3.8259
2953.00,3.8984
2952.00,4.1665
2951.00,4.4519
2950.00,4.1245
2949.00,3.8402
2948.00,3.7382
2947.00,3.8343
2946.00,4.0519
2945.00,4.2290
2944.00,4.2233
2943.00,4.1034
2942.00,4.0461
2941.00,3.9999
2940.00,3.9547
2939.00,3.9385
2938.00,3.9329
2937.00,3.9835
2936.00,4.1828
2935.00,4.4848
2934.00,4.5414
2933.00,4.3250
2932.00,4.1219
2931.00,4.0022
2930.00,3.9759
2929.00,4.1890
2928.00,4.4199
2927.00,4.1183
2926.00,3.8836
2925.00,3.8519
2924.00,4.0351
2923.00,4.1590
2922.00,4.1621
2921.00,4.1582
2920.00,4.0780
2919.00,4.0090
2918.00,3.9527
2917.00,3.9344
2916.00,3.8943
2915.00,3.8515
2914.00,3.8736
2913.00,3.9307
2912.00,3.9969
2911.00,4.1281
2910.00,4.3241
2909.00,4.3519
2908.00,4.2051
2907.00,4.1018
2906.00,4.1588
2905.00,4.3165
2904.00,4.3877
2903.00,4.3436
2902.00,4.2167
2901.00,4.0853
2900.00,3.9760
2899.00,3.9444
2898.00,4.0343
2897.00,4.2821
2896.00,4.4847
2895.00,4.2673
2894.00,4.0907
2893.00,4.0801
2892.00,4.2313
2891.00,4.4039
2890.00,4.3858
2889.00,4.2209
2888.00,4.0802
2887.00,4.0501
2886.00,4.0628
2885.00,4.0143
2884.00,3.9033
2883.00,3.8520
2882.00,3.9015
2881.00,4.1344
2880.00,4.5195
2879.00,4.3299
2878.00,4.1178
2877.00,4.0693
2876.00,4.2829
2875.00,4.5383
2874.00,4.7099
2873.00,4.5507
2872.00,4.4012
2871.00,4.5132
2870.00,4.3173
2869.00,4.0805
2868.00,3.9613
2867.00,4.1413
2866.00,4.4874
2865.00,4.3837
2864.00,4.2577
2863.00,4.1509
2862.00,4.1122
2861.00,4.0627
2860.00,4.0839
2859.00,4.1212
2858.00,4.0158
2857.00,3.9381
2856.00,3.9752
2855.00,4.0668
2854.00,4.0124
2853.00,3.8873
2852.00,3.8259
2851.00,3.8586
2850.00,4.0214
2849.00,4.1559
2848.00,3.9822
2847.00,3.7995
2846.00,3.7532
2845.00,3.8392
2844.00,4.0101
2843.00,4.2698
2842.00,4.4984
2841.00,4.2742
2840.00,3.9077
2839.00,3.6364
2838.00,3.4203
2837.00,3.2186
2836.00,3.0138
2835.00,2.8157
2834.00,2.6323
2833.00,2.4644
2832.00,2.3127
2831.00,2.1764
2830.00,2.0543
2829.00,1.9450
2828.00,1.8478
2827.00,1.7615
2826.00,1.6845
2825.00,1.6150
2824.00,1.5518
2823.00,1.4941
2822.00,1.4410
2821.00,1.3919
2820.00,1.3464
2819.00,1.3045
2818.00,1.2657
2817.00,1.2295
2816.00,1.1957
2815.00,1.1643
2814.00,1.1352
2813.00,1.1080
2812.00,1.0822
2811.00,1.0577
2810.00,1.0343
2809.00,1.0121
2808.00,0.9910
2807.00,0.9709
2806.00,0.9519
2805.00,0.9336
2804.00,0.9161
2803.00,0.8994
2802.00,0.8835
2801.00,0.8684
2800.00,0.8540
2799.00,0.8401
2798.00,0.8268
2797.00,0.8139
2796.00,0.8016
2795.00,0.7896
2794.00,0.7781
2793.00,0.7669
2792.00,0.7560
2791.00,0.7455
2790.00,0.7352
2789.00,0.7250
2788.00,0.7151
2787.00,0.7054
2786.00,0.6960
2785.00,0.6867
2784.00,0.6776
2783.00,0.6688
2782.00,0.6602
2781.00,0.6520
2780.00,0.6442
2779.00,0.6366
2778.00,0.6294
2777.00,0.6226
2776.00,0.6162
2775.00,0.6102
2774.00,0.6045
2773.00,0.5991
2772.00,0.5940
2771.00,0.5894
2770.00,0.5852
2769.00,0.5815
2768.00,0.5781
2767.00,0.5751
2766.00,0.5724
2765.00,0.5700
2764.00,0.5678
2763.00,0.5660
2762.00,0.5645
2761.00,0.5630
2760.00,0.5617
2759.00,0.5604
2758.00,0.5592
2757.00,0.5581
2756.00,0.5571
2755.00,0.5562
2754.00,0.5554
2753.00,0.5548
2752.00,0.5544
2751.00,0.5542
2750.00,0.5543
2749.00,0.5545
2748.00,0.5548
2747.00,0.5554
2746.00,0.5562
2745.00,0.5573
2744.00,0.5587
2743.00,0.5603
2742.00,0.5622
2741.00,0.5645
2740.00,0.5672
2739.00,0.5704
2738.00,0.5740
2737.00,0.5781
2736.00,0.5824
2735.00,0.5871
2734.00,0.5920
2733.00,0.5969
2732.00,0.6012
2731.00,0.6047
2730.00,0.6071
2729.00,0.6082
2728.00,0.6082
2727.00,0.6072
2726.00,0.6055
2725.00,0.6035
2724.00,0.6012
2723.00,0.5986
2722.00,0.5959
2721.00,0.5929
2720.00,0.5897
2719.00,0.5864
2718.00,0.5828
2717.00,0.5792
2716.00,0.5753
2715.00,0.5712
2714.00,0.5671
2713.00,0.5631
2712.00,0.5592
2711.00,0.5557
2710.00,0.5526
2709.00,0.5499
2708.00,0.5475
2707.00,0.5454
2706.00,0.5436
2705.00,0.5421
2704.00,0.5410
2703.00,0.5401
2702.00,0.5395
2701.00,0.5392
2700.00,0.5391
2699.00,0.5392
2698.00,0.5396
2697.00,0.5400
2696.00,0.5407
2695.00,0.5415
2694.00,0.5425
2693.00,0.5436
2692.00,0.5448
2691.00,0.5461
2690.00,0.5473
2689.00,0.5484
2688.00,0.5494
2687.00,0.5504
2686.00,0.5512
2685.00,0.5520
2684.00,0.5526
2683.00,0.5531
2682.00,0.5535
2681.00,0.5539
2680.00,0.5543
2679.00,0.5546
2678.00,0.5549
2677.00,0.5553
2676.00,0.5556
2675.00,0.5561
2674.00,0.5565
2673.00,0.5567
2672.00,0.5568
2671.00,0.5566
2670.00,0.5560
2669.00,0.5551
2668.00,0.5539
2667.00,0.5524
2666.00,0.5507
2665.00,0.5487
2664.00,0.5466
2663.00,0.5444
2662.00,0.5422
2661.00,0.5399
2660.00,0.5376
2659.00,0.5352
2658.00,0.5329
2657.00,0.5306
2656.00,0.5284
2655.00,0.5262
2654.00,0.5242
2653.00,0.5222
2652.00,0.5204
2651.00,0.5186
2650.00,0.5169
2649.00,0.5153
2648.00,0.5138
2647.00,0.5123
2646.00,0.5108
2645.00,0.5094
2644.00,0.5080
2643.00,0.5067
2642.00,0.5055
2641.00,0.5042
2640.00,0.5030
2639.00,0.5019
2638.00,0.5008
2637.00,0.4997
2636.00,0.4987
2635.00,0.4976
2634.00,0.4966
2633.00,0.4956
2632.00,0.4946
2631.00,0.4936
2630.00,0.4927
2629.00,0.4918
2628.00,0.4908
2627.00,0.4899
2626.00,0.4888
2625.00,0.4878
2624.00,0.4867
2623.00,0.4857
2622.00,0.4847
2621.00,0.4837
2620.00,0.4827
2619.00,0.4818
2618.00,0.4808
2617.00,0.4799
2616.00,0.4789
2615.00,0.4780
2614.00,0.4769
2613.00,0.4759
2612.00,0.4749
2611.00,0.4738
2610.00,0.4728
2609.00,0.4717
2608.00,0.4707
2607.00,0.4697
2606.00,0.4687
2605.00,0.4678
2604.00,0.4669
2603.00,0.4659
2602.00,0.4648
2601.00,0.4636
2600.00,0.4624
2599.00,0.4610
2598.00,0.4596
2597.00,0.4582
2596.00,0.4566
2595.00,0.4550
2594.00,0.4533
2593.00,0.4517
2592.00,0.4501
2591.00,0.4485
2590.00,0.4469
2589.00,0.4453
2588.00,0.4436
2587.00,0.4420
2586.00,0.4403
2585.00,0.4386
2584.00,0.4370
2583.00,0.4353
2582.00,0.4336
2581.00,0.4318
2580.00,0.4301
2579.00,0.4283
2578.00,0.4267
2577.00,0.4250
2576.00,0.4234
2575.00,0.4218
2574.00,0.4203
2573.00,0.4188
2572.00,0.4173
2571.00,0.4158
2570.00,0.4144
2569.00,0.4131
2568.00,0.4118
2567.00,0.4105
2566.00,0.4091
2565.00,0.4077
2564.00,0.4063
2563.00,0.4050
2562.00,0.4036
2561.00,0.4023
2560.00,0.4010
2559.00,0.3997
2558.00,0.3985
2557.00,0.3973
2556.00,0.3962
2555.00,0.3950
2554.00,0.3939
2553.00,0.3927
2552.00,0.3916
2551.00,0.3905
2550.00,0.3895
2549.00,0.3885
2548.00,0.3877
2547.00,0.3869
2546.00,0.3861
2545.00,0.3852
2544.00,0.3844
2543.00,0.3835
2542.00,0.3827
2541.00,0.3820
2540.00,0.3813
2539.00,0.3806
2538.00,0.3800
2537.00,0.3793
2536.00,0.3787
2535.00,0.3781
2534.00,0.3775
2533.00,0.3768
2532.00,0.3760
2531.00,0.3752
2530.00,0.3744
2529.00,0.3734
2528.00,0.3725
2527.00,0.3715
2526.00,0.3704
2525.00,0.3693
2524.00,0.3682
2523.00,0.3671
2522.00,0.3661
2521.00,0.3651
2520.00,0.3641
2519.00,0.3631
2518.00,0.3622
2517.00,0.3614
2516.00,0.3605
2515.00,0.3596
2514.00,0.3587
2513.00,0.3579
2512.00,0.3572
2511.00,0.3565
2510.00,0.3558
2509.00,0.3552
2508.00,0.3546
2507.00,0.3540
2506.00,0.3535
2505.00,0.3530
2504.00,0.3525
2503.00,0.3521
2502.00,0.3518
2501.00,0.3515
2500.00,0.3511
2499.00,0.3508
2498.00,0.3505
2497.00,0.3502
2496.00,0.3499
2495.00,0.3495
2494.00,0.3491
2493.00,0.3487
2492.00,0.3483
2491.00,0.3478
2490.00,0.3474
2489.00,0.3469
2488.00,0.3464
2487.00,0.3458
2486.00,0.3453
2485.00,0.3448
2484.00,0.3443
2483.00,0.3439
2482.00,0.3435
2481.00,0.3430
2480.00,0.3424
2479.00,0.3419
2478.00,0.3414
2477.00,0.3410
2476.00,0.3406
2475.00,0.3402
2474.00,0.3398
2473.00,0.3394
2472.00,0.3391
2471.00,0.3387
2470.00,0.3384
2469.00,0.3381
2468.00,0.3378
2467.00,0.3375
2466.00,0.3373
2465.00,0.3370
2464.00,0.3368
2463.00,0.3365
2462.00,0.3362
2461.00,0.3359
2460.00,0.3356
2459.00,0.3354
2458.00,0.3352
2457.00,0.3351
2456.00,0.3350
2455.00,0.3349
2454.00,0.3348
2453.00,0.3347
2452.00,0.3346
2451.00,0.3345
2450.00,0.3344
2449.00,0.3344
2448.00,0.3344
2447.00,0.3343
2446.00,0.3343
2445.00,0.3343
2444.00,0.3343
2443.00,0.3344
2442.00,0.3344
2441.00,0.3345
2440.00,0.3346
2439.00,0.3346
2438.00,0.3347
2437.00,0.3347
2436.00,0.3348
2435.00,0.3348
2434.00,0.3349
2433.00,0.3349
2432.00,0.3349
2431.00,0.3349
2430.00,0.3350
2429.00,0.3351
2428.00,0.3352
2427.00,0.3353
2426.00,0.3354
2425.00,0.3355
2424.00,0.3356
2423.00,0.3357
2422.00,0.3358
2421.00,0.3359
2420.00,0.3360
2419.00,0.3361
2418.00,0.3361
2417.00,0.3362
2416.00,0.3363
2415.00,0.3363
2414.00,0.3365
2413.00,0.3366
2412.00,0.3367
2411.00,0.3368
2410.00,0.3368
2409.00,0.3369
2408.00,0.3369
2407.00,0.3369
2406.00,0.3368
2405.00,0.3368
2404.00,0.3368
2403.00,0.3368
2402.00,0.3368
2401.00,0.3367
2400.00,0.3367
2399.00,0.3366
2398.00,0.3365
2397.00,0.3364
2396.00,0.3363
2395.00,0.3363
2394.00,0.3362
2393.00,0.3363
2392.00,0.3363
2391.00,0.3363
2390.00,0.3363
2389.00,0.3363
2388.00,0.3363
2387.00,0.3363
2386.00,0.3364
2385.00,0.3365
2384.00,0.3367
2383.00,0.3369
2382.00,0.3371
2381.00,0.3372
2380.00,0.3374
2379.00,0.3374
2378.00,0.3374
2377.00,0.3374
2376.00,0.3374
2375.00,0.3372
2374.00,0.3371
2373.00,0.3369
2372.00,0.3368
2371.00,0.3367
2370.00,0.3366
2369.00,0.3366
2368.00,0.3366
2367.00,0.3366
2366.00,0.3366
2365.00,0.3366
2364.00,0.3365
2363.00,0.3364
2362.00,0.3363
2361.00,0.3363
2360.00,0.3363
2359.00,0.3362
2358.00,0.3361
2357.00,0.3360
2356.00,0.3359
2355.00,0.3359
2354.00,0.3359
2353.00,0.3359
2352.00,0.3359
2351.00,0.3357
2350.00,0.3355
2349.00,0.3351
2348.00,0.3349
2347.00,0.3348
2346.00,0.3348
2345.00,0.3349
2344.00,0.3348
2343.00,0.3347
2342.00,0.3345
2341.00,0.3344
2340.00,0.3344
2339.00,0.3343
2338.00,0.3343
2337.00,0.3342
2336.00,0.3340
2335.00,0.3337
2334.00,0.3336
2333.00,0.3334
2332.00,0.3333
2331.00,0.3329
2330.00,0.3326
2329.00,0.3322
2328.00,0.3318
2327.00,0.3315
2326.00,0.3311
2325.00,0.3309
2324.00,0.3308
2323.00,0.3307
2322.00,0.3305
2321.00,0.3303
2320.00,0.3299
2319.00,0.3295
2318.00,0.3292
2317.00,0.3289
2316.00,0.3286
2315.00,0.3284
2314.00,0.3282
2313.00,0.3280
2312.00,0.3277
2311.00,0.3274
2310.00,0.3271
2309.00,0.3268
2308.00,0.3265
2307.00,0.3262
2306.00,0.3259
2305.00,0.3256
2304.00,0.3253
2303.00,0.3250
2302.00,0.3247
2301.00,0.3244
2300.00,0.3241
2299.00,0.3237
2298.00,0.3234
2297.00,0.3231
2296.00,0.3228
2295.00,0.3225
2294.00,0.3222
2293.00,0.3218
2292.00,0.3214
2291.00,0.3211
2290.00,0.3207
2289.00,0.3204
2288.00,0.3200
2287.00,0.3197
2286.00,0.3193
2285.00,0.3190
2284.00,0.3186
2283.00,0.3183
2282.00,0.3179
2281.00,0.3175
2280.00,0.3172
2279.00,0.3169
2278.00,0.3166
2277.00,0.3163
2276.00,0.3160
2275.00,0.3157
2274.00,0.3154
2273.00,0.3152
2272.00,0.3150
2271.00,0.3148
2270.00,0.3147
2269.00,0.3146
2268.00,0.3145
2267.00,0.3143
2266.00,0.3141
2265.00,0.3139
2264.00,0.3138
2263.00,0.3136
2262.00,0.3134
2261.00,0.3131
2260.00,0.3128
2259.00,0.3125
2258.00,0.3122
2257.00,0.3119
2256.00,0.3115
2255.00,0.3112
2254.00,0.3109
2253.00,0.3106
2252.00,0.3103
2251.00,0.3101
2250.00,0.3099
2249.00,0.3097
2248.00,0.3095
2247.00,0.3093
2246.00,0.3091
2245.00,0.3089
2244.00,0.3087
2243.00,0.3086
2242.00,0.3084
2241.00,0.3082
2240.00,0.3080
2239.00,0.3078
2238.00,0.3077
2237.00,0.3075
2236.00,0.3074
2235.00,0.3073
2234.00,0.3071
2233.00,0.3070
2232.00,0.3068
2231.00,0.3067
2230.00,0.3065
2229.00,0.3064
2228.00,0.3062
2227.00,0.3060
2226.00,0.3058
2225.00,0.3057
2224.00,0.3055
2223.00,0.3054
2222.00,0.3052
2221.00,0.3051
2220.00,0.3050
2219.00,0.3049
2218.00,0.3048
2217.00,0.3048
2216.00,0.3047
2215.00,0.3047
2214.00,0.3047
2213.00,0.3047
2212.00,0.3046
2211.00,0.3046
2210.00,0.3046
2209.00,0.3046
2208.00,0.3046
2207.00,0.3046
2206.00,0.3047
2205.00,0.3047
2204.00,0.3047
2203.00,0.3047
2202.00,0.3047
2201.00,0.3047
2200.00,0.3048
2199.00,0.3049
2198.00,0.3049
2197.00,0.3048
2196.00,0.3048
2195.00,0.3048
2194.00,0.3048
2193.00,0.3048
2192.00,0.3048
2191.00,0.3049
2190.00,0.3049
2189.00,0.3049
2188.00,0.3050
2187.00,0.3050
2186.00,0.3050
2185.00,0.3050
2184.00,0.3049
2183.00,0.3049
2182.00,0.3049
2181.00,0.3049
2180.00,0.3049
2179.00,0.3049
2178.00,0.3048
2177.00,0.3048
2176.00,0.3047
2175.00,0.3046
2174.00,0.3045
2173.00,0.3044
2172.00,0.3044
2171.00,0.3044
2170.00,0.3043
2169.00,0.3042
2168.00,0.3041
2167.00,0.3040
2166.00,0.3039
2165.00,0.3038
2164.00,0.3038
2163.00,0.3036
2162.00,0.3035
2161.00,0.3033
2160.00,0.3031
2159.00,0.3029
2158.00,0.3027
2157.00,0.3026
2156.00,0.3024
2155.00,0.3023
2154.00,0.3022
2153.00,0.3020
2152.00,0.3019
2151.00,0.3017
2150.00,0.3015
2149.00,0.3012
2148.00,0.3010
2147.00,0.3006
2146.00,0.3002
2145.00,0.2998
2144.00,0.2993
2143.00,0.2988
2142.00,0.2983
2141.00,0.2979
2140.00,0.2975
2139.00,0.2971
2138.00,0.2966
2137.00,0.2963
2136.00,0.2959
2135.00,0.2955
2134.00,0.2952
2133.00,0.2949
2132.00,0.2946
2131.00,0.2943
2130.00,0.2941
2129.00,0.2939
2128.00,0.2937
2127.00,0.2935
2126.00,0.2933
2125.00,0.2931
2124.00,0.2930
2123.00,0.2929
2122.00,0.2928
2121.00,0.2927
2120.00,0.2926
2119.00,0.2924
2118.00,0.2923
2117.00,0.2922
2116.00,0.2922
2115.00,0.2921
2114.00,0.2921
2113.00,0.2920
2112.00,0.2920
2111.00,0.2919
2110.00,0.2918
2109.00,0.2918
2108.00,0.2917
2107.00,0.2916
2106.00,0.2916
2105.00,0.2915
2104.00,0.2915
2103.00,0.2915
2102.00,0.2915
2101.00,0.2914
2100.00,0.2914
2099.00,0.2913
2098.00,0.2912
2097.00,0.2911
2096.00,0.2910
2095.00,0.2909
2094.00,0.2907
2093.00,0.2907
2092.00,0.2907
2091.00,0.2907
2090.00,0.2907
2089.00,0.2907
2088.00,0.2907
2087.00,0.2907
2086.00,0.2906
2085.00,0.2906
2084.00,0.2906
2083.00,0.2906
2082.00,0.2906
2081.00,0.2906
2080.00,0.2906
2079.00,0.2906
2078.00,0.2906
2077.00,0.2907
2076.00,0.2908
2075.00,0.2909
2074.00,0.2910
2073.00,0.2910
2072.00,0.2911
2071.00,0.2912
2070.00,0.2912
2069.00,0.2913
2068.00,0.2914
2067.00,0.2915
2066.00,0.2917
2065.00,0.2919
2064.00,0.2920
2063.00,0.2921
2062.00,0.2921
2061.00,0.2921
2060.00,0.2922
2059.00,0.2922
2058.00,0.2923
2057.00,0.2925
2056.00,0.2926
2055.00,0.2927
2054.00,0.2928
2053.00,0.2930
2052.00,0.2931
2051.00,0.2933
2050.00,0.2935
2049.00,0.2938
2048.00,0.2940
2047.00,0.2942
2046.00,0.2944
2045.00,0.2946
2044.00,0.2949
2043.00,0.2951
2042.00,0.2954
2041.00,0.2956
2040.00,0.2958
2039.00,0.2960
2038.00,0.2961
2037.00,0.2962
2036.00,0.2963
2035.00,0.2964
2034.00,0.2966
2033.00,0.2967
2032.00,0.2968
2031.00,0.2968
2030.00,0.2968
2029.00,0.2968
2028.00,0.2968
2027.00,0.2968
2026.00,0.2968
2025.00,0.2967
2024.00,0.2966
2023.00,0.2964
2022.00,0.2960
2021.00,0.2957
2020.00,0.2953
2019.00,0.2948
2018.00,0.2942
2017.00,0.2936
2016.00,0.2929
2015.00,0.2920
2014.00,0.2912
2013.00,0.2903
2012.00,0.2895
2011.00,0.2888
2010.00,0.2882
2009.00,0.2876
2008.00,0.2872
2007.00,0.2867
2006.00,0.2863
2005.00,0.2860
2004.00,0.2858
2003.00,0.2855
2002.00,0.2853
2001.00,0.2851
2000.00,0.2850
1999.00,0.2849
1998.00,0.2848
1997.00,0.2847
1996.00,0.2847
1995.00,0.2846
1994.00,0.2846
1993.00,0.2847
1992.00,0.2848
1991.00,0.2848
1990.00,0.2847
1989.00,0.2845
1988.00,0.2844
1987.00,0.2842
1986.00,0.2840
1985.00,0.2839
1984.00,0.2837
1983.00,0.2836
1982.00,0.2834
1981.00,0.2833
1980.00,0.2832
1979.00,0.2832
1978.00,0.2831
1977.00,0.2831
1976.00,0.2830
1975.00,0.2829
1974.00,0.2828
1973.00,0.2828
1972.00,0.2828
1971.00,0.2828
1970.00,0.2829
1969.00,0.2830
1968.00,0.2832
1967.00,0.2834
1966.00,0.2835
1965.00,0.2835
1964.00,0.2834
1963.00,0.2834
1962.00,0.2834
1961.00,0.2835
1960.00,0.2837
1959.00,0.2839
1958.00,0.2840
1957.00,0.2842
1956.00,0.2845
1955.00,0.2847
1954.00,0.2848
1953.00,0.2849
1952.00,0.2850
1951.00,0.2850
1950.00,0.2851
1949.00,0.2851
1948.00,0.2853
1947.00,0.2854
1946.00,0.2855
1945.00,0.2858
1944.00,0.2862
1943.00,0.2867
1942.00,0.2873
1941.00,0.2877
1940.00,0.2879
1939.00,0.2880
1938.00,0.2879
1937.00,0.2879
1936.00,0.2879
1935.00,0.2879
1934.00,0.2878
1933.00,0.2878
1932.00,0.2878
1931.00,0.2878
1930.00,0.2879
1929.00,0.2879
1928.00,0.2880
1927.00,0.2881
1926.00,0.2882
1925.00,0.2884
1924.00,0.2888
1923.00,0.2893
1922.00,0.2898
1921.00,0.2902
1920.00,0.2904
1919.00,0.2906
1918.00,0.2909
1917.00,0.2913
1916.00,0.2916
1915.00,0.2916
1914.00,0.2915
1913.00,0.2914
1912.00,0.2913
1911.00,0.2914
1910.00,0.2915
1909.00,0.2917
1908.00,0.2918
1907.00,0.2918
1906.00,0.2916
1905.00,0.2915
1904.00,0.2914
1903.00,0.2913
1902.00,0.2912
1901.00,0.2911
1900.00,0.2911
1899.00,0.2912
1898.00,0.2912
1897.00,0.2914
1896.00,0.2915
1895.00,0.2917
1894.00,0.2919
1893.00,0.2920
1892.00,0.2920
1891.00,0.2921
1890.00,0.2923
1889.00,0.2927
1888.00,0.2931
1887.00,0.2932
1886.00,0.2933
1885.00,0.2933
1884.00,0.2933
1883.00,0.2933
1882.00,0.2933
1881.00,0.2933
1880.00,0.2933
1879.00,0.2933
1878.00,0.2931
1877.00,0.2929
1876.00,0.2928
1875.00,0.2925
1874.00,0.2923
1873.00,0.2921
1872.00,0.2920
1871.00,0.2918
1870.00,0.2917
1869.00,0.2916
1868.00,0.2916
1867.00,0.2915
1866.00,0.2911
1865.00,0.2906
1864.00,0.2901
1863.00,0.2896
1862.00,0.2892
1861.00,0.2889
1860.00,0.2887
1859.00,0.2884
1858.00,0.2881
1857.00,0.2878
1856.00,0.2875
1855.00,0.2873
1854.00,0.2871
1853.00,0.2870
1852.00,0.2869
1851.00,0.2868
1850.00,0.2869
1849.00,0.2868
1848.00,0.2867
1847.00,0.2867
1846.00,0.2867
1845.00,0.2867
1844.00,0.2867
1843.00,0.2865
1842.00,0.2863
1841.00,0.2861
1840.00,0.2860
1839.00,0.2859
1838.00,0.2857
1837.00,0.2856
1836.00,0.2855
1835.00,0.2854
1834.00,0.2853
1833.00,0.2853
1832.00,0.2854
1831.00,0.2854
1830.00,0.2853
1829.00,0.2853
1828.00,0.2852
1827.00,0.2851
1826.00,0.2850
1825.00,0.2854
1824.00,0.2858
1823.00,0.2859
1822.00,0.2859
1821.00,0.2857
1820.00,0.2856
1819.00,0.2857
1818.00,0.2858
1817.00,0.2861
1816.00,0.2863
1815.00,0.2864
1814.00,0.2865
1813.00,0.2867
1812.00,0.2870
1811.00,0.2873
1810.00,0.2876
1809.00,0.2880
1808.00,0.2884
1807.00,0.2887
1806.00,0.2890
1805.00,0.2893
1804.00,0.2901
1803.00,0.2904
1802.00,0.2907
1801.00,0.2913
1800.00,0.2917
1799.00,0.2922
1798.00,0.2925
1797.00,0.2930
1796.00,0.2934
1795.00,0.2938
1794.00,0.2942
1793.00,0.2947
1792.00,0.2952
1791.00,0.2956
1790.00,0.2959
1789.00,0.2962
1788.00,0.2966
1787.00,0.2970
1786.00,0.2974
1785.00,0.2978
1784.00,0.2983
1783.00,0.2986
1782.00,0.2995
1781.00,0.3003
1780.00,0.3006
1779.00,0.3013
1778.00,0.3017
1777.00,0.3021
1776.00,0.3025
1775.00,0.3030
1774.00,0.3036
1773.00,0.3043
1772.00,0.3050
1771.00,0.3058
1770.00,0.3065
1769.00,0.3073
1768.00,0.3081
1767.00,0.3088
1766.00,0.3091
1765.00,0.3092
1764.00,0.3094
1763.00,0.3100
1762.00,0.3109
1761.00,0.3122
1760.00,0.3135
1759.00,0.3146
1758.00,0.3155
1757.00,0.3167
1756.00,0.3182
1755.00,0.3199
1754.00,0.3218
1753.00,0.3243
1752.00,0.3278
1751.00,0.3320
1750.00,0.3364
1749.00,0.3410
1748.00,0.3459
1747.00,0.3513
1746.00,0.3572
1745.00,0.3635
1744.00,0.3697
1743.00,0.3749
1742.00,0.3785
1741.00,0.3805
1740.00,0.3809
1739.00,0.3800
1738.00,0.3782
1737.00,0.3758
1736.00,0.3727
1735.00,0.3689
1734.00,0.3648
1733.00,0.3616
1732.00,0.3585
1731.00,0.3548
1730.00,0.3509
1729.00,0.3478
1728.00,0.3458
1727.00,0.3445
1726.00,0.3437
1725.00,0.3436
1724.00,0.3440
1723.00,0.3447
1722.00,0.3455
1721.00,0.3464
1720.00,0.3475
1719.00,0.3494
1718.00,0.3523
1717.00,0.3560
1716.00,0.3591
1715.00,0.3608
1714.00,0.3619
1713.00,0.3632
1712.00,0.3649
1711.00,0.3668
1710.00,0.3687
1709.00,0.3705
1708.00,0.3719
1707.00,0.3726
1706.00,0.3728
1705.00,0.3727
1704.00,0.3723
1703.00,0.3713
1702.00,0.3696
1701.00,0.3667
1700.00,0.3636
1699.00,0.3620
1698.00,0.3614
1697.00,0.3604
1696.00,0.3590
1695.00,0.3574
1694.00,0.3556
1693.00,0.3534
1692.00,0.3511
1691.00,0.3495
1690.00,0.3488
1689.00,0.3488
1688.00,0.3491
1687.00,0.3496
1686.00,0.3503
1685.00,0.3509
1684.00,0.3511
1683.00,0.3512
1682.00,0.3510
1681.00,0.3504
1680.00,0.3499
1679.00,0.3497
1678.00,0.3495
1677.00,0.3495
1676.00,0.3499
1675.00,0.3508
1674.00,0.3521
1673.00,0.3534
1672.00,0.3543
1671.00,0.3551
1670.00,0.3562
1669.00,0.3581
1668.00,0.3604
1667.00,0.3624
1666.00,0.3639
1665.00,0.3652
1664.00,0.3668
1663.00,0.3689
1662.00,0.3715
1661.00,0.3745
1660.00,0.3774
1659.00,0.3800
1658.00,0.3824
1657.00,0.3851
1656.00,0.3882
1655.00,0.3921
1654.00,0.3971
1653.00,0.4033
1652.00,0.4098
1651.00,0.4141
1650.00,0.4152
1649.00,0.4158
1648.00,0.4184
1647.00,0.4233
1646.00,0.4294
1645.00,0.4354
1644.00,0.4404
1643.00,0.4443
1642.00,0.4481
1641.00,0.4524
1640.00,0.4571
1639.00,0.4616
1638.00,0.4661
1637.00,0.4711
1636.00,0.4769
1635.00,0.4827
1634.00,0.4880
1633.00,0.4926
1632.00,0.4965
1631.00,0.5001
1630.00,0.5040
1629.00,0.5084
1628.00,0.5133
1627.00,0.5182
1626.00,0.5231
1625.00,0.5284
1624.00,0.5343
1623.00,0.5409
1622.00,0.5481
1621.00,0.5559
1620.00,0.5638
1619.00,0.5725
1618.00,0.5832
1617.00,0.5969
1616.00,0.6126
1615.00,0.6279
1614.00,0.6425
1613.00,0.6580
1612.00,0.6760
1611.00,0.6959
1610.00,0.7164
1609.00,0.7369
1608.00,0.7565
1607.00,0.7739
1606.00,0.7892
1605.00,0.8042
1604.00,0.8207
1603.00,0.8395
1602.00,0.8613
1601.00,0.8881
1600.00,0.9212
1599.00,0.9604
1598.00,1.0070
1597.00,1.0646
1596.00,1.1369
1595.00,1.2255
1594.00,1.3324
1593.00,1.4639
1592.00,1.6276
1591.00,1.8249
1590.00,2.0521
1589.00,2.3225
1588.00,2.6787
1587.00,3.1375
1586.00,3.4577
1585.00,3.6480
1584.00,4.3113
1583.00,4.4973
1582.00,3.6789
1581.00,3.4362
1580.00,3.5299
1579.00,3.2985
1578.00,2.8061
1577.00,2.4353
1576.00,2.1513
1575.00,1.9292
1574.00,1.7642
1573.00,1.6479
1572.00,1.5658
1571.00,1.5087
1570.00,1.4790
1569.00,1.4851
1568.00,1.5296
1567.00,1.6083
1566.00,1.7213
1565.00,1.8784
1564.00,2.0862
1563.00,2.3187
1562.00,2.5079
1561.00,2.6060
1560.00,2.5397
1559.00,2.2544
1558.00,1.9603
1557.00,1.7430
1556.00,1.5671
1555.00,1.4062
1554.00,1.2668
1553.00,1.1591
1552.00,1.0798
1551.00,1.0188
1550.00,0.9705
1549.00,0.9350
1548.00,0.9116
1547.00,0.8972
1546.00,0.8892
1545.00,0.8872
1544.00,0.8905
1543.00,0.8962
1542.00,0.9013
1541.00,0.9031
1540.00,0.8985
1539.00,0.8855
1538.00,0.8672
1537.00,0.8468
1536.00,0.8248
1535.00,0.7999
1534.00,0.7730
1533.00,0.7481
1532.00,0.7288
1531.00,0.7144
1530.00,0.7033
1529.00,0.6949
1528.00,0.6884
1527.00,0.6824
1526.00,0.6761
1525.00,0.6703
1524.00,0.6660
1523.00,0.6638
1522.00,0.6648
1521.00,0.6696
1520.00,0.6766
1519.00,0.6831
1518.00,0.6890
1517.00,0.6946
1516.00,0.6982
1515.00,0.6968
1514.00,0.6899
1513.00,0.6789
1512.00,0.6656
1511.00,0.6523
1510.00,0.6408
1509.00,0.6325
1508.00,0.6273
1507.00,0.6245
1506.00,0.6237
1505.00,0.6251
1504.00,0.6278
1503.00,0.6303
1502.00,0.6331
1501.00,0.6371
1500.00,0.6422
1499.00,0.6479
1498.00,0.6550
1497.00,0.6646
1496.00,0.6762
1495.00,0.6878
1494.00,0.6988
1493.00,0.7105
1492.00,0.7246
1491.00,0.7414
1490.00,0.7612
1489.00,0.7836
1488.00,0.8076
1487.00,0.8330
1486.00,0.8609
1485.00,0.8923
1484.00,0.9273
1483.00,0.9663
1482.00,1.0106
1481.00,1.0617
1480.00,1.1187
1479.00,1.1813
1478.00,1.2528
1477.00,1.3386
1476.00,1.4410
1475.00,1.5606
1474.00,1.7065
1473.00,1.8985
1472.00,2.1519
1471.00,2.4606
1470.00,2.8091
1469.00,3.2132
1468.00,3.6504
1467.00,3.8077
1466.00,3.7456
1465.00,3.8544
1464.00,4.1830
1463.00,4.1266
1462.00,3.9510
1461.00,4.0171
1460.00,4.1021
1459.00,3.8067
1458.00,3.6964
1457.00,3.9876
1456.00,4.0900
1455.00,3.8834
1454.00,3.9202
1453.00,3.8820
1452.00,3.7820
1451.00,3.7040
1450.00,3.7286
1449.00,3.9018
1448.00,4.1223
1447.00,4.5669
1446.00,4.0596
1445.00,3.8324
1444.00,3.7474
1443.00,3.5268
1442.00,3.3138
1441.00,3.1550
1440.00,2.9917
1439.00,2.7975
1438.00,2.6022
1437.00,2.4142
1436.00,2.2342
1435.00,2.0722
1434.00,1.9313
1433.00,1.8035
1432.00,1.6822
1431.00,1.5688
1430.00,1.4685
1429.00,1.3842
1428.00,1.3159
1427.00,1.2617
1426.00,1.2189
1425.00,1.1848
1424.00,1.1584
1423.00,1.1393
1422.00,1.1264
1421.00,1.1180
1420.00,1.1134
1419.00,1.1126
1418.00,1.1157
1417.00,1.1221
1416.00,1.1318
1415.00,1.1448
1414.00,1.1596
1413.00,1.1742
1412.00,1.1856
1411.00,1.1910
1410.00,1.1885
1409.00,1.1776
1408.00,1.1590
1407.00,1.1332
1406.00,1.1010
1405.00,1.0642
1404.00,1.0253
1403.00,0.9877
1402.00,0.9530
1401.00,0.9217
1400.00,0.8939
1399.00,0.8707
1398.00,0.8531
1397.00,0.8401
1396.00,0.8307
1395.00,0.8240
1394.00,0.8198
1393.00,0.8192
1392.00,0.8237
1391.00,0.8356
1390.00,0.8571
1389.00,0.8915
1388.00,0.9423
1387.00,1.0105
1386.00,1.0920
1385.00,1.1821
1384.00,1.2800
1383.00,1.3894
1382.00,1.5146
1381.00,1.6586
1380.00,1.8212
1379.00,1.9862
1378.00,2.1095
1377.00,2.1421
1376.00,2.0796
1375.00,1.9555
1374.00,1.8101
1373.00,1.6752
1372.00,1.5647
1371.00,1.4795
1370.00,1.4177
1369.00,1.3774
1368.00,1.3540
1367.00,1.3368
1366.00,1.3123
1365.00,1.2708
1364.00,1.2124
1363.00,1.1463
1362.00,1.0837
1361.00,1.0315
1360.00,0.9910
1359.00,0.9607
1358.00,0.9388
1357.00,0.9239
1356.00,0.9152
1355.00,0.9114
1354.00,0.9111
1353.00,0.9130
1352.00,0.9163
1351.00,0.9206
1350.00,0.9264
1349.00,0.9352
1348.00,0.9483
1347.00,0.9659
1346.00,0.9849
1345.00,0.9994
1344.00,1.0030
1343.00,0.9931
1342.00,0.9722
1341.00,0.9456
1340.00,0.9175
1339.00,0.8899
1338.00,0.8633
1337.00,0.8377
1336.00,0.8136
1335.00,0.7916
1334.00,0.7722
1333.00,0.7558
1332.00,0.7426
1331.00,0.7326
1330.00,0.7259
1329.00,0.7220
1328.00,0.7208
1327.00,0.7217
1326.00,0.7237
1325.00,0.7259
1324.00,0.7277
1323.00,0.7289
1322.00,0.7298
1321.00,0.7307
1320.00,0.7321
1319.00,0.7343
1318.00,0.7372
1317.00,0.7407
1316.00,0.7450
1315.00,0.7503
1314.00,0.7565
1313.00,0.7635
1312.00,0.7709
1311.00,0.7784
1310.00,0.7856
1309.00,0.7922
1308.00,0.7978
1307.00,0.8018
1306.00,0.8033
1305.00,0.8025
1304.00,0.7997
1303.00,0.7961
1302.00,0.7923
1301.00,0.7890
1300.00,0.7859
1299.00,0.7828
1298.00,0.7790
1297.00,0.7743
1296.00,0.7689
1295.00,0.7630
1294.00,0.7571
1293.00,0.7510
1292.00,0.7443
1291.00,0.7365
1290.00,0.7274
1289.00,0.7178
1288.00,0.7085
1287.00,0.6999
1286.00,0.6923
1285.00,0.6856
1284.00,0.6803
1283.00,0.6772
1282.00,0.6769
1281.00,0.6796
1280.00,0.6844
1279.00,0.6888
1278.00,0.6897
1277.00,0.6852
1276.00,0.6759
1275.00,0.6640
1274.00,0.6524
1273.00,0.6427
1272.00,0.6355
1271.00,0.6307
1270.00,0.6276
1269.00,0.6252
1268.00,0.6226
1267.00,0.6192
1266.00,0.6148
1265.00,0.6099
1264.00,0.6050
1263.00,0.6010
1262.00,0.5979
1261.00,0.5957
1260.00,0.5944
1259.00,0.5939
1258.00,0.5941
1257.00,0.5947
1256.00,0.5954
1255.00,0.5965
1254.00,0.5978
1253.00,0.5991
1252.00,0.6000
1251.00,0.6002
1250.00,0.5992
1249.00,0.5971
1248.00,0.5942
1247.00,0.5909
1246.00,0.5874
1245.00,0.5836
1244.00,0.5798
1243.00,0.5763
1242.00,0.5730
1241.00,0.5696
1240.00,0.5663
1239.00,0.5634
1238.00,0.5616
1237.00,0.5614
1236.00,0.5634
1235.00,0.5674
1234.00,0.5728
1233.00,0.5788
1232.00,0.5845
1231.00,0.5889
1230.00,0.5908
1229.00,0.5894
1228.00,0.5846
1227.00,0.5771
1226.00,0.5680
1225.00,0.5585
1224.00,0.5497
1223.00,0.5424
1222.00,0.5369
1221.00,0.5329
1220.00,0.5303
1219.00,0.5287
1218.00,0.5280
1217.00,0.5280
1216.00,0.5287
1215.00,0.5297
1214.00,0.5305
1213.00,0.5306
1212.00,0.5296
1211.00,0.5276
1210.00,0.5245
1209.00,0.5206
1208.00,0.5162
1207.00,0.5118
1206.00,0.5078
1205.00,0.5049
1204.00,0.5036
1203.00,0.5044
1202.00,0.5073
1201.00,0.5114
1200.00,0.5151
1199.00,0.5168
1198.00,0.5156
1197.00,0.5124
1196.00,0.5089
1195.00,0.5067
1194.00,0.5064
1193.00,0.5078
1192.00,0.5101
1191.00,0.5125
1190.00,0.5141
1189.00,0.5140
1188.00,0.5124
1187.00,0.5098
1186.00,0.5070
1185.00,0.5043
1184.00,0.5020
1183.00,0.5002
1182.00,0.4986
1181.00,0.4971
1180.00,0.4957
1179.00,0.4948
1178.00,0.4945
1177.00,0.4947
1176.00,0.4956
1175.00,0.4973
1174.00,0.4999
1173.00,0.5031
1172.00,0.5067
1171.00,0.5102
1170.00,0.5131
1169.00,0.5148
1168.00,0.5153
1167.00,0.5151
1166.00,0.5147
1165.00,0.5143
1164.00,0.5143
1163.00,0.5148
1162.00,0.5157
1161.00,0.5168
1160.00,0.5181
1159.00,0.5195
1158.00,0.5208
1157.00,0.5219
1156.00,0.5228
1155.00,0.5239
1154.00,0.5250
1153.00,0.5260
1152.00,0.5265
1151.00,0.5261
1150.00,0.5250
1149.00,0.5234
1148.00,0.5219
1147.00,0.5207
1146.00,0.5199
1145.00,0.5196
1144.00,0.5200
1143.00,0.5212
1142.00,0.5236
1141.00,0.5273
1140.00,0.5324
1139.00,0.5388
1138.00,0.5464
1137.00,0.5552
1136.00,0.5649
1135.00,0.5747
1134.00,0.5827
1133.00,0.5867
1132.00,0.5852
1131.00,0.5787
1130.00,0.5696
1129.00,0.5608
1128.00,0.5548
1127.00,0.5521
1126.00,0.5520
1125.00,0.5522
1124.00,0.5510
1123.00,0.5478
1122.00,0.5432
1121.00,0.5386
1120.00,0.5353
1119.00,0.5341
1118.00,0.5353
1117.00,0.5384
1116.00,0.5426
1115.00,0.5462
1114.00,0.5473
1113.00,0.5446
1112.00,0.5379
1111.00,0.5288
1110.00,0.5191
1109.00,0.5104
1108.00,0.5038
1107.00,0.4999
1106.00,0.4986
1105.00,0.4997
1104.00,0.5028
1103.00,0.5074
1102.00,0.5128
1101.00,0.5182
1100.00,0.5225
1099.00,0.5244
1098.00,0.5234
1097.00,0.5201
1096.00,0.5158
1095.00,0.5120
1094.00,0.5093
1093.00,0.5075
1092.00,0.5061
1091.00,0.5049
1090.00,0.5039
1089.00,0.5033
1088.00,0.5037
1087.00,0.5055
1086.00,0.5087
1085.00,0.5135
1084.00,0.5196
1083.00,0.5271
1082.00,0.5354
1081.00,0.5440
1080.00,0.5521
1079.00,0.5590
1078.00,0.5636
1077.00,0.5651
1076.00,0.5632
1075.00,0.5579
1074.00,0.5502
1073.00,0.5412
1072.00,0.5322
1071.00,0.5243
1070.00,0.5179
1069.00,0.5128
1068.00,0.5086
1067.00,0.5052
1066.00,0.5023
1065.00,0.5001
1064.00,0.4985
1063.00,0.4975
1062.00,0.4968
1061.00,0.4962
1060.00,0.4952
1059.00,0.4939
1058.00,0.4921
1057.00,0.4898
1056.00,0.4873
1055.00,0.4847
1054.00,0.4822
1053.00,0.4797
1052.00,0.4775
1051.00,0.4757
1050.00,0.4747
1049.00,0.4743
1048.00,0.4744
1047.00,0.4749
1046.00,0.4754
1045.00,0.4755
1044.00,0.4753
1043.00,0.4749
1042.00,0.4746
1041.00,0.4746
1040.00,0.4749
1039.00,0.4754
1038.00,0.4759
1037.00,0.4763
1036.00,0.4770
1035.00,0.4784
1034.00,0.4807
1033.00,0.4840
1032.00,0.4880
1031.00,0.4923
1030.00,0.4965
1029.00,0.4999
1028.00,0.5015
1027.00,0.5007
1026.00,0.4972
1025.00,0.4913
1024.00,0.4841
1023.00,0.4765
1022.00,0.4695
1021.00,0.4634
1020.00,0.4585
1019.00,0.4548
1018.00,0.4521
1017.00,0.4501
1016.00,0.4486
1015.00,0.4475
1014.00,0.4466
1013.00,0.4456
1012.00,0.4444
1011.00,0.4434
1010.00,0.4430
1009.00,0.4433
1008.00,0.4443
1007.00,0.4460
1006.00,0.4480
1005.00,0.4500
1004.00,0.4518
1003.00,0.4534
1002.00,0.4550
1001.00,0.4566
1000.00,0.4580
999.00,0.4590
998.00,0.4593
997.00,0.4586
996.00,0.4572
995.00,0.4553
994.00,0.4531
993.00,0.4508
992.00,0.4487
991.00,0.4466
990.00,0.4447
989.00,0.4428
988.00,0.4410
987.00,0.4392
986.00,0.4377
985.00,0.4368
984.00,0.4369
983.00,0.4384
982.00,0.4411
981.00,0.4448
980.00,0.4495
979.00,0.4551
978.00,0.4625
977.00,0.4726
976.00,0.4870
975.00,0.5071
974.00,0.5348
973.00,0.5711
972.00,0.6162
971.00,0.6674
970.00,0.7170
969.00,0.7536
968.00,0.7653
967.00,0.7481
966.00,0.7088
965.00,0.6596
964.00,0.6113
963.00,0.5700
962.00,0.5383
961.00,0.5165
960.00,0.5042
959.00,0.5000
958.00,0.5018
957.00,0.5060
956.00,0.5091
955.00,0.5082
954.00,0.5027
953.00,0.4934
952.00,0.4823
951.00,0.4715
950.00,0.4623
949.00,0.4553
948.00,0.4506
947.00,0.4482
946.00,0.4477
945.00,0.4489
944.00,0.4514
943.00,0.4546
942.00,0.4582
941.00,0.4615
940.00,0.4640
939.00,0.4656
938.00,0.4661
937.00,0.4655
936.00,0.4640
935.00,0.4620
934.00,0.4598
933.00,0.4573
932.00,0.4547
931.00,0.4519
930.00,0.4494
929.00,0.4474
928.00,0.4462
927.00,0.4464
926.00,0.4483
925.00,0.4522
924.00,0.4579
923.00,0.4646
922.00,0.4710
921.00,0.4750
920.00,0.4749
919.00,0.4704
918.00,0.4622
917.00,0.4522
916.00,0.4421
915.00,0.4330
914.00,0.4256
913.00,0.4201
912.00,0.4161
911.00,0.4134
910.00,0.4117
909.00,0.4110
908.00,0.4115
907.00,0.4135
906.00,0.4170
905.00,0.4213
904.00,0.4250
903.00,0.4269
902.00,0.4264
901.00,0.4240
900.00,0.4216
899.00,0.4205
898.00,0.4211
897.00,0.4229
896.00,0.4257
895.00,0.4291
894.00,0.4333
893.00,0.4378
892.00,0.4426
891.00,0.4472
890.00,0.4510
889.00,0.4532
888.00,0.4534
887.00,0.4516
886.00,0.4483
885.00,0.4444
884.00,0.4407
883.00,0.4381
882.00,0.4367
881.00,0.4363
880.00,0.4367
879.00,0.4373
878.00,0.4378
877.00,0.4383
876.00,0.4388
875.00,0.4394
874.00,0.4400
873.00,0.4404
872.00,0.4407
871.00,0.4413
870.00,0.4423
869.00,0.4438
868.00,0.4460
867.00,0.4494
866.00,0.4539
865.00,0.4595
864.00,0.4653
863.00,0.4702
862.00,0.4725
861.00,0.4709
860.00,0.4653
859.00,0.4570
858.00,0.4480
857.00,0.4400
856.00,0.4336
855.00,0.4288
854.00,0.4254
853.00,0.4231
852.00,0.4215
851.00,0.4203
850.00,0.4192
849.00,0.4181
848.00,0.4168
847.00,0.4153
846.00,0.4139
845.00,0.4126
844.00,0.4118
843.00,0.4119
842.00,0.4135
841.00,0.4173
840.00,0.4239
839.00,0.4333
838.00,0.4442
837.00,0.4541
836.00,0.4602
835.00,0.4607
834.00,0.4561
833.00,0.4488
832.00,0.4414
831.00,0.4362
830.00,0.4343
829.00,0.4356
828.00,0.4394
827.00,0.4448
826.00,0.4509
825.00,0.4572
824.00,0.4636
823.00,0.4698
822.00,0.4755
821.00,0.4798
820.00,0.4822
819.00,0.4826
818.00,0.4813
817.00,0.4789
816.00,0.4761
815.00,0.4731
814.00,0.4695
813.00,0.4652
812.00,0.4603
811.00,0.4550
810.00,0.4500
809.00,0.4452
808.00,0.4406
807.00,0.4362
806.00,0.4318
805.00,0.4275
804.00,0.4234
803.00,0.4196
802.00,0.4159
801.00,0.4127
800.00,0.4102
799.00,0.4086
798.00,0.4079
797.00,0.4076
796.00,0.4077
795.00,0.4081
794.00,0.4089
793.00,0.4101
792.00,0.4118
791.00,0.4138
790.00,0.4159
789.00,0.4177
788.00,0.4194
787.00,0.4215
786.00,0.4246
785.00,0.4288
784.00,0.4342
783.00,0.4407
782.00,0.4483
781.00,0.4572
780.00,0.4669
779.00,0.4762
778.00,0.4828
777.00,0.4849
776.00,0.4821
775.00,0.4763
774.00,0.4701
773.00,0.4654
772.00,0.4631
771.00,0.4632
770.00,0.4651
769.00,0.4681
768.00,0.4715
767.00,0.4748
766.00,0.4775
765.00,0.4799
764.00,0.4821
763.00,0.4848
762.00,0.4882
761.00,0.4923
760.00,0.4967
759.00,0.5008
758.00,0.5041
757.00,0.5063
756.00,0.5075
755.00,0.5087
754.00,0.5107
753.00,0.5138
752.00,0.5178
751.00,0.5225
750.00,0.5279
749.00,0.5338
748.00,0.5402
747.00,0.5467
746.00,0.5535
745.00,0.5605
744.00,0.5682
743.00,0.5767
742.00,0.5858
741.00,0.5953
740.00,0.6048
739.00,0.6146
738.00,0.6248
737.00,0.6357
736.00,0.6472
735.00,0.6594
734.00,0.6722
733.00,0.6854
732.00,0.6994
731.00,0.7156
730.00,0.7350
729.00,0.7588
728.00,0.7877
727.00,0.8236
726.00,0.8681
725.00,0.9206
724.00,0.9765
723.00,1.0257
722.00,1.0537
721.00,1.0476
720.00,1.0073
719.00,0.9473
718.00,0.8841
717.00,0.8277
716.00,0.7816
715.00,0.7459
714.00,0.7188
713.00,0.6976
712.00,0.6795
711.00,0.6629
710.00,0.6471
709.00,0.6317
708.00,0.6167
707.00,0.6023
706.00,0.5884
705.00,0.5749
704.00,0.5620
703.00,0.5503
702.00,0.5404
701.00,0.5315
700.00,0.5225
699.00,0.5123
698.00,0.5003
697.00,0.4866
696.00,0.4725
695.00,0.4594
694.00,0.4482
693.00,0.4389
692.00,0.4315
691.00,0.4257
690.00,0.4211
689.00,0.4172
688.00,0.4138
687.00,0.4107
686.00,0.4081
685.00,0.4060
684.00,0.4043
683.00,0.4031
682.00,0.4021
681.00,0.4015
680.00,0.4011
679.00,0.4008
678.00,0.4007
677.00,0.4003
676.00,0.3999
675.00,0.3997
674.00,0.3998
673.00,0.4002
672.00,0.4007
671.00,0.4007
670.00,0.4002
669.00,0.3997
668.00,0.3996
667.00,0.4002
666.00,0.4018
665.00,0.4035
664.00,0.4046
663.00,0.4054
662.00,0.4067
661.00,0.4083
660.00,0.4100
659.00,0.4112
658.00,0.4119
657.00,0.4123
656.00,0.4127
655.00,0.4133
654.00,0.4140
653.00,0.4146
652.00,0.4151
651.00,0.4156
650.00,0.4163
649.00,0.4172
648.00,0.4182
647.00,0.4196
646.00,0.4211
645.00,0.4229
644.00,0.4250
643.00,0.4273
642.00,0.4296
641.00,0.4317
640.00,0.4335
639.00,0.4354
638.00,0.4371
637.00,0.4387
636.00,0.4400
635.00,0.4412
634.00,0.4421
633.00,0.4430
632.00,0.4440
631.00,0.4454
630.00,0.4471
629.00,0.4491
628.00,0.4514
627.00,0.4540
626.00,0.4568
625.00,0.4597
624.00,0.4625
623.00,0.4652
622.00,0.4679
621.00,0.4706
620.00,0.4729
619.00,0.4746
618.00,0.4754
617.00,0.4754
616.00,0.4749
615.00,0.4743
614.00,0.4735
613.00,0.4724
612.00,0.4710
611.00,0.4697
610.00,0.4688
609.00,0.4681
608.00,0.4675
607.00,0.4671
606.00,0.4669
605.00,0.4671
604.00,0.4673
603.00,0.4673
602.00,0.4669
601.00,0.4662
600.00,0.4653
599.00,0.4646
598.00,0.4646
597.00,0.4650
596.00,0.4658
595.00,0.4666
594.00,0.4676
593.00,0.4688
592.00,0.4700
591.00,0.4712
590.00,0.4721
589.00,0.4731
588.00,0.4747
587.00,0.4767
586.00,0.4792
585.00,0.4817
584.00,0.4845
583.00,0.4875
582.00,0.4906
581.00,0.4934
580.00,0.4961
579.00,0.4985
578.00,0.5007
577.00,0.5025
576.00,0.5042
575.00,0.5060
574.00,0.5083
573.00,0.5113
572.00,0.5148
571.00,0.5185
570.00,0.5220
569.00,0.5253
568.00,0.5287
567.00,0.5324
566.00,0.5357
565.00,0.5385
564.00,0.5413
563.00,0.5445
562.00,0.5481
561.00,0.5517
560.00,0.5549
559.00,0.5577
558.00,0.5607
557.00,0.5640
556.00,0.5677
555.00,0.5717
554.00,0.5759
553.00,0.5802
552.00,0.5844
551.00,0.5885
550.00,0.5926
