Created as New Dataset,
cm-1,A
4000.00,0.3806
3999.00,0.3801
3998.00,0.3798
3997.00,0.3794
3996.00,0.3791
3995.00,0.3787
3994.00,0.3784
3993.00,0.3780
3992.00,0.3777
3991.00,0.3774
3990.00,0.3771
3989.00,0.3767
3988.00,0.3763
3987.00,0.3759
3986.00,0.3756
3985.00,0.3753
3984.00,0.3750
3983.00,0.3747
3982.00,0.3743
3981.00,0.3740
3980.00,0.3738
3979.00,0.3735
3978.00,0.3733
3977.00,0.3730
3976.00,0.3728
3975.00,0.3725
3974.00,0.3722
3973.00,0.3720
3972.00,0.3717
3971.00,0.3714
3970.00,0.3711
3969.00,0.3708
3968.00,0.3705
3967.00,0.3702
3966.00,0.3698
3965.00,0.3695
3964.00,0.3692
3963.00,0.3690
3962.00,0.3688
3961.00,0.3685
3960.00,0.3684
3959.00,0.3682
3958.00,0.3681
3957.00,0.3680
3956.00,0.3679
3955.00,0.3677
3954.00,0.3676
3953.00,0.3674
3952.00,0.3672
3951.00,0.3671
3950.00,0.3670
3949.00,0.3669
3948.00,0.3669
3947.00,0.3669
3946.00,0.3669
3945.00,0.3667
3944.00,0.3666
3943.00,0.3664
3942.00,0.3663
3941.00,0.3663
3940.00,0.3662
3939.00,0.3662
3938.00,0.3662
3937.00,0.3661
3936.00,0.3660
3935.00,0.3659
3934.00,0.3658
3933.00,0.3657
3932.00,0.3656
3931.00,0.3654
3930.00,0.3652
3929.00,0.3651
3928.00,0.3650
3927.00,0.3649
3926.00,0.3648
3925.00,0.3648
3924.00,0.3648
3923.00,0.3649
3922.00,0.3649
3921.00,0.3650
3920.00,0.3650
3919.00,0.3650
3918.00,0.3651
3917.00,0.3650
3916.00,0.3650
3915.00,0.3649
3914.00,0.3649
3913.00,0.3648
3912.00,0.3648
3911.00,0.3647
3910.00,0.3647
3909.00,0.3647
3908.00,0.3646
3907.00,0.3646
3906.00,0.3646
3905.00,0.3645
3904.00,0.3645
3903.00,0.3645
3902.00,0.3645
3901.00,0.3644
3900.00,0.3643
3899.00,0.3642
3898.00,0.3641
3897.00,0.3640
3896.00,0.3638
3895.00,0.3636
3894.00,0.3635
3893.00,0.3634
3892.00,0.3633
3891.00,0.3632
3890.00,0.3631
3889.00,0.3630
3888.00,0.3629
3887.00,0.3628
3886.00,0.3628
3885.00,0.3628
3884.00,0.3628
3883.00,0.3628
3882.00,0.3627
3881.00,0.3627
3880.00,0.3626
3879.00,0.3625
3878.00,0.3625
3877.00,0.3624
3876.00,0.3623
3875.00,0.3622
3874.00,0.3620
3873.00,0.3619
3872.00,0.3617
3871.00,0.3616
3870.00,0.3615
3869.00,0.3614
3868.00,0.3613
3867.00,0.3612
3866.00,0.3611
3865.00,0.3609
3864.00,0.3608
3863.00,0.3607
3862.00,0.3605
3861.00,0.3604
3860.00,0.3602
3859.00,0.3601
3858.00,0.3600
3857.00,0.3599
3856.00,0.3599
3855.00,0.3598
3854.00,0.3598
3853.00,0.3599
3852.00,0.3599
3851.00,0.3599
3850.00,0.3598
3849.00,0.3597
3848.00,0.3597
3847.00,0.3596
3846.00,0.3595
3845.00,0.3595
3844.00,0.3594
3843.00,0.3594
3842.00,0.3594
3841.00,0.3594
3840.00,0.3594
3839.00,0.3594
3838.00,0.3593
3837.00,0.3592
3836.00,0.3591
3835.00,0.3590
3834.00,0.3588
3833.00,0.3586
3832.00,0.3584
3831.00,0.3582
3830.00,0.3581
3829.00,0.3580
3828.00,0.3580
3827.00,0.3579
3826.00,0.3578
3825.00,0.3576
3824.00,0.3575
3823.00,0.3575
3822.00,0.3574
3821.00,0.3573
3820.00,0.3572
3819.00,0.3571
3818.00,0.3569
3817.00,0.3568
3816.00,0.3567
3815.00,0.3566
3814.00,0.3563
3813.00,0.3560
3812.00,0.3558
3811.00,0.3556
3810.00,0.3555
3809.00,0.3554
3808.00,0.3552
3807.00,0.3551
3806.00,0.3550
3805.00,0.3548
3804.00,0.3547
3803.00,0.3545
3802.00,0.3543
3801.00,0.3541
3800.00,0.3539
3799.00,0.3536
3798.00,0.3533
3797.00,0.3530
3796.00,0.3528
3795.00,0.3526
3794.00,0.3524
3793.00,0.3522
3792.00,0.3520
3791.00,0.3518
3790.00,0.3516
3789.00,0.3513
3788.00,0.3512
3787.00,0.3510
3786.00,0.3509
3785.00,0.3508
3784.00,0.3508
3783.00,0.3507
3782.00,0.3505
3781.00,0.3504
3780.00,0.3502
3779.00,0.3501
3778.00,0.3500
3777.00,0.3499
3776.00,0.3498
3775.00,0.3497
3774.00,0.3496
3773.00,0.3495
3772.00,0.3493
3771.00,0.3491
3770.00,0.3488
3769.00,0.3486
3768.00,0.3484
3767.00,0.3482
3766.00,0.3480
3765.00,0.3478
3764.00,0.3477
3763.00,0.3475
3762.00,0.3473
3761.00,0.3471
3760.00,0.3469
3759.00,0.3468
3758.00,0.3466
3757.00,0.3464
3756.00,0.3463
3755.00,0.3462
3754.00,0.3461
3753.00,0.3459
3752.00,0.3457
3751.00,0.3456
3750.00,0.3455
3749.00,0.3453
3748.00,0.3452
3747.00,0.3452
3746.00,0.3451
3745.00,0.3451
3744.00,0.3450
3743.00,0.3449
3742.00,0.3447
3741.00,0.3445
3740.00,0.3444
3739.00,0.3444
3738.00,0.3443
3737.00,0.3442
3736.00,0.3441
3735.00,0.3440
3734.00,0.3439
3733.00,0.3437
3732.00,0.3435
3731.00,0.3433
3730.00,0.3431
3729.00,0.3429
3728.00,0.3426
3727.00,0.3423
3726.00,0.3421
3725.00,0.3419
3724.00,0.3417
3723.00,0.3415
3722.00,0.3413
3721.00,0.3411
3720.00,0.3409
3719.00,0.3406
3718.00,0.3404
3717.00,0.3403
3716.00,0.3402
3715.00,0.3401
3714.00,0.3400
3713.00,0.3400
3712.00,0.3401
3711.00,0.3402
3710.00,0.3402
3709.00,0.3403
3708.00,0.3403
3707.00,0.3403
3706.00,0.3403
3705.00,0.3402
3704.00,0.3401
3703.00,0.3400
3702.00,0.3399
3701.00,0.3399
3700.00,0.3398
3699.00,0.3397
3698.00,0.3396
3697.00,0.3395
3696.00,0.3395
3695.00,0.3395
3694.00,0.3395
3693.00,0.3394
3692.00,0.3393
3691.00,0.3393
3690.00,0.3392
3689.00,0.3391
3688.00,0.3391
3687.00,0.3390
3686.00,0.3389
3685.00,0.3388
3684.00,0.3387
3683.00,0.3386
3682.00,0.3384
3681.00,0.3382
3680.00,0.3381
3679.00,0.3380
3678.00,0.3380
3677.00,0.3380
3676.00,0.3379
3675.00,0.3379
3674.00,0.3380
3673.00,0.3381
3672.00,0.3381
3671.00,0.3381
3670.00,0.3381
3669.00,0.3380
3668.00,0.3380
3667.00,0.3380
3666.00,0.3380
3665.00,0.3380
3664.00,0.3380
3663.00,0.3379
3662.00,0.3378
3661.00,0.3378
3660.00,0.3378
3659.00,0.3379
3658.00,0.3379
3657.00,0.3379
3656.00,0.3380
3655.00,0.3380
3654.00,0.3380
3653.00,0.3382
3652.00,0.3383
3651.00,0.3384
3650.00,0.3386
3649.00,0.3387
3648.00,0.3388
3647.00,0.3388
3646.00,0.3388
3645.00,0.3388
3644.00,0.3389
3643.00,0.3389
3642.00,0.3390
3641.00,0.3391
3640.00,0.3392
3639.00,0.3393
3638.00,0.3393
3637.00,0.3394
3636.00,0.3396
3635.00,0.3398
3634.00,0.3400
3633.00,0.3402
3632.00,0.3404
3631.00,0.3406
3630.00,0.3407
3629.00,0.3410
3628.00,0.3413
3627.00,0.3417
3626.00,0.3420
3625.00,0.3423
3624.00,0.3425
3623.00,0.3426
3622.00,0.3426
3621.00,0.3424
3620.00,0.3421
3619.00,0.3417
3618.00,0.3414
3617.00,0.3411
3616.00,0.3409
3615.00,0.3407
3614.00,0.3405
3613.00,0.3403
3612.00,0.3402
3611.00,0.3402
3610.00,0.3401
3609.00,0.3401
3608.00,0.3401
3607.00,0.3400
3606.00,0.3398
3605.00,0.3397
3604.00,0.3395
3603.00,0.3393
3602.00,0.3390
3601.00,0.3385
3600.00,0.3380
3599.00,0.3373
3598.00,0.3366
3597.00,0.3359
3596.00,0.3352
3595.00,0.3346
3594.00,0.3341
3593.00,0.3336
3592.00,0.3330
3591.00,0.3325
3590.00,0.3321
3589.00,0.3316
3588.00,0.3313
3587.00,0.3310
3586.00,0.3307
3585.00,0.3304
3584.00,0.3302
3583.00,0.3300
3582.00,0.3298
3581.00,0.3297
3580.00,0.3295
3579.00,0.3294
3578.00,0.3292
3577.00,0.3291
3576.00,0.3290
3575.00,0.3290
3574.00,0.3290
3573.00,0.3289
3572.00,0.3290
3571.00,0.3290
3570.00,0.3291
3569.00,0.3293
3568.00,0.3294
3567.00,0.3295
3566.00,0.3296
3565.00,0.3297
3564.00,0.3297
3563.00,0.3298
3562.00,0.3300
3561.00,0.3301
3560.00,0.3303
3559.00,0.3304
3558.00,0.3306
3557.00,0.3307
3556.00,0.3309
3555.00,0.3311
3554.00,0.3313
3553.00,0.3315
3552.00,0.3316
3551.00,0.3318
3550.00,0.3321
3549.00,0.3323
3548.00,0.3325
3547.00,0.3327
3546.00,0.3329
3545.00,0.3331
3544.00,0.3333
3543.00,0.3334
3542.00,0.3336
3541.00,0.3338
3540.00,0.3340
3539.00,0.3342
3538.00,0.3344
3537.00,0.3347
3536.00,0.3349
3535.00,0.3351
3534.00,0.3353
3533.00,0.3355
3532.00,0.3357
3531.00,0.3359
3530.00,0.3361
3529.00,0.3363
3528.00,0.3365
3527.00,0.3367
3526.00,0.3370
3525.00,0.3372
3524.00,0.3375
3523.00,0.3378
3522.00,0.3380
3521.00,0.3382
3520.00,0.3384
3519.00,0.3386
3518.00,0.3388
3517.00,0.3390
3516.00,0.3393
3515.00,0.3397
3514.00,0.3401
3513.00,0.3405
3512.00,0.3409
3511.00,0.3411
3510.00,0.3414
3509.00,0.3416
3508.00,0.3419
3507.00,0.3423
3506.00,0.3427
3505.00,0.3432
3504.00,0.3437
3503.00,0.3442
3502.00,0.3446
3501.00,0.3451
3500.00,0.3455
3499.00,0.3460
3498.00,0.3464
3497.00,0.3470
3496.00,0.3475
3495.00,0.3482
3494.00,0.3488
3493.00,0.3495
3492.00,0.3501
3491.00,0.3508
3490.00,0.3514
3489.00,0.3521
3488.00,0.3527
3487.00,0.3532
3486.00,0.3538
3485.00,0.3544
3484.00,0.3550
3483.00,0.3555
3482.00,0.3559
3481.00,0.3563
3480.00,0.3566
3479.00,0.3570
3478.00,0.3573
3477.00,0.3577
3476.00,0.3581
3475.00,0.3585
3474.00,0.3589
3473.00,0.3593
3472.00,0.3598
3471.00,0.3602
3470.00,0.3607
3469.00,0.3611
3468.00,0.3615
3467.00,0.3620
3466.00,0.3624
3465.00,0.3629
3464.00,0.3634
3463.00,0.3639
3462.00,0.3644
3461.00,0.3649
3460.00,0.3655
3459.00,0.3661
3458.00,0.3667
3457.00,0.3673
3456.00,0.3679
3455.00,0.3685
3454.00,0.3691
3453.00,0.3696
3452.00,0.3702
3451.00,0.3708
3450.00,0.3715
3449.00,0.3721
3448.00,0.3727
3447.00,0.3733
3446.00,0.3739
3445.00,0.3746
3444.00,0.3753
3443.00,0.3761
3442.00,0.3768
3441.00,0.3776
3440.00,0.3783
3439.00,0.3791
3438.00,0.3797
3437.00,0.3804
3436.00,0.3811
3435.00,0.3818
3434.00,0.3825
3433.00,0.3833
3432.00,0.3840
3431.00,0.3846
3430.00,0.3853
3429.00,0.3861
3428.00,0.3869
3427.00,0.3877
3426.00,0.3885
3425.00,0.3894
3424.00,0.3901
3423.00,0.3909
3422.00,0.3917
3421.00,0.3926
3420.00,0.3934
3419.00,0.3943
3418.00,0.3953
3417.00,0.3962
3416.00,0.3972
3415.00,0.3981
3414.00,0.3990
3413.00,0.4000
3412.00,0.4009
3411.00,0.4019
3410.00,0.4029
3409.00,0.4040
3408.00,0.4050
3407.00,0.4061
3406.00,0.4071
3405.00,0.4082
3404.00,0.4094
3403.00,0.4105
3402.00,0.4115
3401.00,0.4126
3400.00,0.4136
3399.00,0.4146
3398.00,0.4156
3397.00,0.4166
3396.00,0.4177
3395.00,0.4188
3394.00,0.4199
3393.00,0.4210
3392.00,0.4221
3391.00,0.4232
3390.00,0.4243
3389.00,0.4254
3388.00,0.4265
3387.00,0.4275
3386.00,0.4285
3385.00,0.4296
3384.00,0.4308
3383.00,0.4320
3382.00,0.4332
3381.00,0.4345
3380.00,0.4357
3379.00,0.4370
3378.00,0.4383
3377.00,0.4396
3376.00,0.4408
3375.00,0.4421
3374.00,0.4434
3373.00,0.4447
3372.00,0.4461
3371.00,0.4475
3370.00,0.4489
3369.00,0.4503
3368.00,0.4517
3367.00,0.4531
3366.00,0.4546
3365.00,0.4561
3364.00,0.4577
3363.00,0.4594
3362.00,0.4611
3361.00,0.4628
3360.00,0.4645
3359.00,0.4661
3358.00,0.4678
3357.00,0.4694
3356.00,0.4711
3355.00,0.4729
3354.00,0.4746
3353.00,0.4764
3352.00,0.4781
3351.00,0.4798
3350.00,0.4815
3349.00,0.4832
3348.00,0.4849
3347.00,0.4865
3346.00,0.4880
3345.00,0.4896
3344.00,0.4912
3343.00,0.4928
3342.00,0.4944
3341.00,0.4959
3340.00,0.4973
3339.00,0.4986
3338.00,0.4998
3337.00,0.5010
3336.00,0.5021
3335.00,0.5031
3334.00,0.5040
3333.00,0.5048
3332.00,0.5055
3331.00,0.5061
3330.00,0.5066
3329.00,0.5070
3328.00,0.5073
3327.00,0.5076
3326.00,0.5077
3325.00,0.5078
3324.00,0.5078
3323.00,0.5076
3322.00,0.5074
3321.00,0.5071
3320.00,0.5067
3319.00,0.5063
3318.00,0.5057
3317.00,0.5052
3316.00,0.5045
3315.00,0.5038
3314.00,0.5030
3313.00,0.5022
3312.00,0.5012
3311.00,0.5003
3310.00,0.4993
3309.00,0.4984
3308.00,0.4975
3307.00,0.4966
3306.00,0.4957
3305.00,0.4947
3304.00,0.4937
3303.00,0.4928
3302.00,0.4918
3301.00,0.4910
3300.00,0.4901
3299.00,0.4893
3298.00,0.4886
3297.00,0.4878
3296.00,0.4872
3295.00,0.4865
3294.00,0.4859
3293.00,0.4853
3292.00,0.4848
3291.00,0.4843
3290.00,0.4839
3289.00,0.4835
3288.00,0.4832
3287.00,0.4829
3286.00,0.4827
3285.00,0.4827
3284.00,0.4827
3283.00,0.4826
3282.00,0.4826
3281.00,0.4825
3280.00,0.4825
3279.00,0.4824
3278.00,0.4825
3277.00,0.4826
3276.00,0.4827
3275.00,0.4830
3274.00,0.4834
3273.00,0.4839
3272.00,0.4843
3271.00,0.4848
3270.00,0.4852
3269.00,0.4856
3268.00,0.4860
3267.00,0.4865
3266.00,0.4870
3265.00,0.4876
3264.00,0.4881
3263.00,0.4887
3262.00,0.4892
3261.00,0.4898
3260.00,0.4905
3259.00,0.4911
3258.00,0.4917
3257.00,0.4923
3256.00,0.4928
3255.00,0.4934
3254.00,0.4939
3253.00,0.4945
3252.00,0.4951
3251.00,0.4956
3250.00,0.4961
3249.00,0.4965
3248.00,0.4969
3247.00,0.4974
3246.00,0.4978
3245.00,0.4981
3244.00,0.4984
3243.00,0.4988
3242.00,0.4991
3241.00,0.4995
3240.00,0.4997
3239.00,0.4999
3238.00,0.5001
3237.00,0.5003
3236.00,0.5004
3235.00,0.5006
3234.00,0.5006
3233.00,0.5007
3232.00,0.5007
3231.00,0.5006
3230.00,0.5006
3229.00,0.5004
3228.00,0.5003
3227.00,0.5002
3226.00,0.5001
3225.00,0.4999
3224.00,0.4997
3223.00,0.4994
3222.00,0.4992
3221.00,0.4989
3220.00,0.4987
3219.00,0.4984
3218.00,0.4982
3217.00,0.4979
3216.00,0.4976
3215.00,0.4973
3214.00,0.4970
3213.00,0.4966
3212.00,0.4963
3211.00,0.4959
3210.00,0.4956
3209.00,0.4952
3208.00,0.4948
3207.00,0.4945
3206.00,0.4941
3205.00,0.4937
3204.00,0.4933
3203.00,0.4929
3202.00,0.4925
3201.00,0.4921
3200.00,0.4917
3199.00,0.4912
3198.00,0.4908
3197.00,0.4904
3196.00,0.4900
3195.00,0.4896
3194.00,0.4891
3193.00,0.4886
3192.00,0.4881
3191.00,0.4876
3190.00,0.4871
3189.00,0.4865
3188.00,0.4859
3187.00,0.4853
3186.00,0.4847
3185.00,0.4841
3184.00,0.4834
3183.00,0.4828
3182.00,0.4821
3181.00,0.4814
3180.00,0.4806
3179.00,0.4799
3178.00,0.4791
3177.00,0.4784
3176.00,0.4777
3175.00,0.4771
3174.00,0.4763
3173.00,0.4755
3172.00,0.4747
3171.00,0.4740
3170.00,0.4733
3169.00,0.4726
3168.00,0.4718
3167.00,0.4710
3166.00,0.4702
3165.00,0.4694
3164.00,0.4685
3163.00,0.4677
3162.00,0.4668
3161.00,0.4660
3160.00,0.4651
3159.00,0.4643
3158.00,0.4636
3157.00,0.4629
3156.00,0.4621
3155.00,0.4613
3154.00,0.4605
3153.00,0.4597
3152.00,0.4590
3151.00,0.4582
3150.00,0.4574
3149.00,0.4566
3148.00,0.4558
3147.00,0.4551
3146.00,0.4544
3145.00,0.4537
3144.00,0.4531
3143.00,0.4526
3142.00,0.4520
3141.00,0.4514
3140.00,0.4508
3139.00,0.4503
3138.00,0.4498
3137.00,0.4493
3136.00,0.4489
3135.00,0.4485
3134.00,0.4482
3133.00,0.4480
3132.00,0.4478
3131.00,0.4476
3130.00,0.4474
3129.00,0.4472
3128.00,0.4471
3127.00,0.4470
3126.00,0.4470
3125.00,0.4470
3124.00,0.4471
3123.00,0.4472
3122.00,0.4473
3121.00,0.4475
3120.00,0.4477
3119.00,0.4479
3118.00,0.4481
3117.00,0.4484
3116.00,0.4487
3115.00,0.4490
3114.00,0.4494
3113.00,0.4499
3112.00,0.4504
3111.00,0.4510
3110.00,0.4517
3109.00,0.4524
3108.00,0.4532
3107.00,0.4541
3106.00,0.4549
3105.00,0.4558
3104.00,0.4567
3103.00,0.4575
3102.00,0.4583
3101.00,0.4592
3100.00,0.4602
3099.00,0.4613
3098.00,0.4624
3097.00,0.4636
3096.00,0.4648
3095.00,0.4662
3094.00,0.4679
3093.00,0.4697
3092.00,0.4717
3091.00,0.4739
3090.00,0.4762
3089.00,0.4787
3088.00,0.4813
3087.00,0.4840
3086.00,0.4869
3085.00,0.4898
3084.00,0.4929
3083.00,0.4960
3082.00,0.4993
3081.00,0.5027
3080.00,0.5063
3079.00,0.5101
3078.00,0.5141
3077.00,0.5182
3076.00,0.5225
3075.00,0.5270
3074.00,0.5316
3073.00,0.5364
3072.00,0.5411
3071.00,0.5458
3070.00,0.5505
3069.00,0.5551
3068.00,0.5596
3067.00,0.5641
3066.00,0.5686
3065.00,0.5729
3064.00,0.5769
3063.00,0.5807
3062.00,0.5840
3061.00,0.5871
3060.00,0.5899
3059.00,0.5926
3058.00,0.5953
3057.00,0.5980
3056.00,0.6009
3055.00,0.6038
3054.00,0.6070
3053.00,0.6104
3052.00,0.6140
3051.00,0.6179
3050.00,0.6220
3049.00,0.6264
3048.00,0.6310
3047.00,0.6358
3046.00,0.6407
3045.00,0.6455
3044.00,0.6503
3043.00,0.6550
3042.00,0.6597
3041.00,0.6644
3040.00,0.6692
3039.00,0.6741
3038.00,0.6793
3037.00,0.6846
3036.00,0.6901
3035.00,0.6961
3034.00,0.7026
3033.00,0.7097
3032.00,0.7172
3031.00,0.7252
3030.00,0.7335
3029.00,0.7423
3028.00,0.7515
3027.00,0.7611
3026.00,0.7710
3025.00,0.7812
3024.00,0.7916
3023.00,0.8023
3022.00,0.8133
3021.00,0.8248
3020.00,0.8366
3019.00,0.8486
3018.00,0.8605
3017.00,0.8723
3016.00,0.8841
3015.00,0.8960
3014.00,0.9083
3013.00,0.9211
3012.00,0.9342
3011.00,0.9478
3010.00,0.9617
3009.00,0.9762
3008.00,0.9914
3007.00,1.0073
3006.00,1.0239
3005.00,1.0409
3004.00,1.0583
3003.00,1.0763
3002.00,1.0948
3001.00,1.1140
3000.00,1.1340
2999.00,1.1551
2998.00,1.1777
2997.00,1.2023
2996.00,1.2294
2995.00,1.2597
2994.00,1.2937
2993.00,1.3320
2992.00,1.3749
2991.00,1.4227
2990.00,1.4759
2989.00,1.5349
2988.00,1.6006
2987.00,1.6737
2986.00,1.7548
2985.00,1.8442
2984.00,1.9420
2983.00,2.0496
2982.00,2.1693
2981.00,2.3035
2980.00,2.4539
2979.00,2.6220
2978.00,2.8083
2977.00,3.0079
2976.00,3.2083
2975.00,3.3972
2974.00,3.5738
2973.00,3.7311
2972.00,3.8357
2971.00,3.8667
2970.00,3.8592
2969.00,3.8594
2968.00,3.8905
2967.00,3.9221
2966.00,3.9102
2965.00,3.8681
2964.00,3.8180
2963.00,3.7892
2962.00,3.7877
2961.00,3.8107
2960.00,3.8442
2959.00,3.8570
2958.00,3.8711
2957.00,3.9299
2956.00,4.1006
2955.00,4.2826
2954.00,4.2259
2953.00,4.1737
2952.00,4.2211
2951.00,4.4199
2950.00,4.6409
2949.00,4.5698
2948.00,4.3655
2947.00,4.1843
2946.00,4.2274
2945.00,4.4917
2944.00,4.7740
2943.00,4.6353
2942.00,4.3116
2941.00,4.1830
2940.00,4.1784
2939.00,4.2685
2938.00,4.3546
2937.00,4.2365
2936.00,4.0808
2935.00,3.9990
2934.00,4.0492
2933.00,4.2961
2932.00,4.7102
2931.00,4.4582
2930.00,4.1087
2929.00,3.9818
2928.00,4.0550
2927.00,4.1295
2926.00,4.2142
2925.00,4.3645
2924.00,4.2175
2923.00,4.0487
2922.00,3.9821
2921.00,4.0708
2920.00,4.2258
2919.00,4.2740
2918.00,4.2040
2917.00,4.1814
2916.00,4.3485
2915.00,4.6216
2914.00,4.3799
2913.00,4.0651
2912.00,3.9621
2911.00,3.9366
2910.00,3.9310
2909.00,3.9834
2908.00,4.0647
2907.00,4.1056
2906.00,4.0879
2905.00,4.1236
2904.00,4.2614
2903.00,4.2489
2902.00,4.1629
2901.00,4.1377
2900.00,4.1993
2899.00,4.3656
2898.00,4.5222
2897.00,4.7278
2896.00,4.5954
2895.00,4.3321
2894.00,4.1641
2893.00,4.0821
2892.00,4.0901
2891.00,4.2560
2890.00,4.5733
2889.00,4.4306
2888.00,4.1311
2887.00,3.9898
2886.00,4.0033
2885.00,4.1868
2884.00,4.5621
2883.00,4.4031
2882.00,4.1791
2881.00,4.1081
2880.00,4.2962
2879.00,4.6462
2878.00,4.5590
2877.00,4.4237
2876.00,4.3297
2875.00,4.3105
2874.00,4.1538
2873.00,4.0072
2872.00,4.0591
2871.00,4.1819
2870.00,4.1727
2869.00,4.1166
2868.00,4.0950
2867.00,4.1063
2866.00,4.0492
2865.00,3.9596
2864.00,3.9031
2863.00,3.8916
2862.00,3.9455
2861.00,4.0045
2860.00,3.9497
2859.00,3.8738
2858.00,3.9069
2857.00,4.1836
2856.00,4.6863
2855.00,4.4330
2854.00,4.1784
2853.00,4.1017
2852.00,4.0704
2851.00,3.9150
2850.00,3.7712
2849.00,3.7104
2848.00,3.7425
2847.00,3.9187
2846.00,4.1256
2845.00,4.0433
2844.00,3.8996
2843.00,3.8476
2842.00,3.8506
2841.00,3.8187
2840.00,3.7893
2839.00,3.7290
2838.00,3.5448
2837.00,3.2952
2836.00,3.0491
2835.00,2.8287
2834.00,2.6331
2833.00,2.4607
2832.00,2.3106
2831.00,2.1792
2830.00,2.0611
2829.00,1.9526
2828.00,1.8533
2827.00,1.7638
2826.00,1.6840
2825.00,1.6126
2824.00,1.5481
2823.00,1.4893
2822.00,1.4350
2821.00,1.3847
2820.00,1.3380
2819.00,1.2950
2818.00,1.2554
2817.00,1.2186
2816.00,1.1842
2815.00,1.1521
2814.00,1.1222
2813.00,1.0942
2812.00,1.0678
2811.00,1.0429
2810.00,1.0191
2809.00,0.9966
2808.00,0.9751
2807.00,0.9546
2806.00,0.9352
2805.00,0.9169
2804.00,0.8996
2803.00,0.8832
2802.00,0.8676
2801.00,0.8528
2800.00,0.8387
2799.00,0.8251
2798.00,0.8121
2797.00,0.7997
2796.00,0.7878
2795.00,0.7763
2794.00,0.7651
2793.00,0.7542
2792.00,0.7436
2791.00,0.7332
2790.00,0.7232
2789.00,0.7134
2788.00,0.7038
2787.00,0.6943
2786.00,0.6850
2785.00,0.6760
2784.00,0.6672
2783.00,0.6587
2782.00,0.6504
2781.00,0.6424
2780.00,0.6348
2779.00,0.6276
2778.00,0.6207
2777.00,0.6142
2776.00,0.6080
2775.00,0.6022
2774.00,0.5968
2773.00,0.5917
2772.00,0.5870
2771.00,0.5826
2770.00,0.5786
2769.00,0.5748
2768.00,0.5714
2767.00,0.5684
2766.00,0.5656
2765.00,0.5632
2764.00,0.5611
2763.00,0.5593
2762.00,0.5577
2761.00,0.5564
2760.00,0.5551
2759.00,0.5538
2758.00,0.5526
2757.00,0.5515
2756.00,0.5504
2755.00,0.5494
2754.00,0.5484
2753.00,0.5477
2752.00,0.5471
2751.00,0.5468
2750.00,0.5467
2749.00,0.5468
2748.00,0.5471
2747.00,0.5476
2746.00,0.5484
2745.00,0.5495
2744.00,0.5509
2743.00,0.5526
2742.00,0.5546
2741.00,0.5571
2740.00,0.5599
2739.00,0.5632
2738.00,0.5670
2737.00,0.5713
2736.00,0.5761
2735.00,0.5814
2734.00,0.5869
2733.00,0.5922
2732.00,0.5971
2731.00,0.6011
2730.00,0.6041
2729.00,0.6060
2728.00,0.6068
2727.00,0.6065
2726.00,0.6056
2725.00,0.6041
2724.00,0.6021
2723.00,0.5998
2722.00,0.5970
2721.00,0.5939
2720.00,0.5905
2719.00,0.5867
2718.00,0.5828
2717.00,0.5786
2716.00,0.5741
2715.00,0.5695
2714.00,0.5648
2713.00,0.5603
2712.00,0.5561
2711.00,0.5522
2710.00,0.5487
2709.00,0.5456
2708.00,0.5430
2707.00,0.5408
2706.00,0.5390
2705.00,0.5374
2704.00,0.5362
2703.00,0.5353
2702.00,0.5346
2701.00,0.5343
2700.00,0.5342
2699.00,0.5343
2698.00,0.5345
2697.00,0.5349
2696.00,0.5355
2695.00,0.5361
2694.00,0.5369
2693.00,0.5378
2692.00,0.5388
2691.00,0.5397
2690.00,0.5406
2689.00,0.5414
2688.00,0.5422
2687.00,0.5430
2686.00,0.5437
2685.00,0.5443
2684.00,0.5447
2683.00,0.5451
2682.00,0.5455
2681.00,0.5458
2680.00,0.5462
2679.00,0.5465
2678.00,0.5467
2677.00,0.5471
2676.00,0.5475
2675.00,0.5480
2674.00,0.5484
2673.00,0.5487
2672.00,0.5489
2671.00,0.5489
2670.00,0.5486
2669.00,0.5481
2668.00,0.5472
2667.00,0.5460
2666.00,0.5447
2665.00,0.5431
2664.00,0.5414
2663.00,0.5395
2662.00,0.5375
2661.00,0.5354
2660.00,0.5333
2659.00,0.5311
2658.00,0.5290
2657.00,0.5269
2656.00,0.5247
2655.00,0.5226
2654.00,0.5205
2653.00,0.5186
2652.00,0.5169
2651.00,0.5153
2650.00,0.5138
2649.00,0.5123
2648.00,0.5108
2647.00,0.5093
2646.00,0.5079
2645.00,0.5067
2644.00,0.5055
2643.00,0.5043
2642.00,0.5031
2641.00,0.5020
2640.00,0.5010
2639.00,0.5000
2638.00,0.4990
2637.00,0.4981
2636.00,0.4973
2635.00,0.4965
2634.00,0.4956
2633.00,0.4948
2632.00,0.4940
2631.00,0.4931
2630.00,0.4921
2629.00,0.4912
2628.00,0.4904
2627.00,0.4895
2626.00,0.4886
2625.00,0.4878
2624.00,0.4869
2623.00,0.4860
2622.00,0.4851
2621.00,0.4841
2620.00,0.4832
2619.00,0.4824
2618.00,0.4815
2617.00,0.4806
2616.00,0.4797
2615.00,0.4788
2614.00,0.4778
2613.00,0.4768
2612.00,0.4758
2611.00,0.4749
2610.00,0.4740
2609.00,0.4730
2608.00,0.4721
2607.00,0.4712
2606.00,0.4702
2605.00,0.4691
2604.00,0.4681
2603.00,0.4670
2602.00,0.4658
2601.00,0.4647
2600.00,0.4635
2599.00,0.4623
2598.00,0.4610
2597.00,0.4598
2596.00,0.4584
2595.00,0.4569
2594.00,0.4554
2593.00,0.4538
2592.00,0.4522
2591.00,0.4506
2590.00,0.4490
2589.00,0.4473
2588.00,0.4457
2587.00,0.4440
2586.00,0.4423
2585.00,0.4406
2584.00,0.4389
2583.00,0.4371
2582.00,0.4353
2581.00,0.4336
2580.00,0.4318
2579.00,0.4300
2578.00,0.4283
2577.00,0.4265
2576.00,0.4248
2575.00,0.4231
2574.00,0.4214
2573.00,0.4197
2572.00,0.4181
2571.00,0.4165
2570.00,0.4149
2569.00,0.4135
2568.00,0.4120
2567.00,0.4106
2566.00,0.4092
2565.00,0.4078
2564.00,0.4064
2563.00,0.4050
2562.00,0.4037
2561.00,0.4024
2560.00,0.4012
2559.00,0.4000
2558.00,0.3987
2557.00,0.3975
2556.00,0.3963
2555.00,0.3951
2554.00,0.3941
2553.00,0.3930
2552.00,0.3920
2551.00,0.3909
2550.00,0.3899
2549.00,0.3890
2548.00,0.3881
2547.00,0.3872
2546.00,0.3863
2545.00,0.3855
2544.00,0.3846
2543.00,0.3838
2542.00,0.3830
2541.00,0.3823
2540.00,0.3816
2539.00,0.3808
2538.00,0.3801
2537.00,0.3794
2536.00,0.3787
2535.00,0.3780
2534.00,0.3774
2533.00,0.3767
2532.00,0.3760
2531.00,0.3753
2530.00,0.3745
2529.00,0.3737
2528.00,0.3728
2527.00,0.3720
2526.00,0.3711
2525.00,0.3702
2524.00,0.3692
2523.00,0.3683
2522.00,0.3673
2521.00,0.3664
2520.00,0.3655
2519.00,0.3646
2518.00,0.3638
2517.00,0.3630
2516.00,0.3622
2515.00,0.3614
2514.00,0.3607
2513.00,0.3599
2512.00,0.3592
2511.00,0.3584
2510.00,0.3577
2509.00,0.3571
2508.00,0.3564
2507.00,0.3558
2506.00,0.3552
2505.00,0.3547
2504.00,0.3543
2503.00,0.3538
2502.00,0.3533
2501.00,0.3528
2500.00,0.3523
2499.00,0.3519
2498.00,0.3515
2497.00,0.3512
2496.00,0.3509
2495.00,0.3505
2494.00,0.3502
2493.00,0.3498
2492.00,0.3494
2491.00,0.3490
2490.00,0.3486
2489.00,0.3482
2488.00,0.3478
2487.00,0.3475
2486.00,0.3471
2485.00,0.3468
2484.00,0.3465
2483.00,0.3462
2482.00,0.3459
2481.00,0.3457
2480.00,0.3454
2479.00,0.3451
2478.00,0.3447
2477.00,0.3443
2476.00,0.3440
2475.00,0.3436
2474.00,0.3433
2473.00,0.3431
2472.00,0.3429
2471.00,0.3426
2470.00,0.3424
2469.00,0.3422
2468.00,0.3419
2467.00,0.3416
2466.00,0.3413
2465.00,0.3410
2464.00,0.3408
2463.00,0.3405
2462.00,0.3403
2461.00,0.3400
2460.00,0.3398
2459.00,0.3397
2458.00,0.3395
2457.00,0.3395
2456.00,0.3394
2455.00,0.3392
2454.00,0.3390
2453.00,0.3389
2452.00,0.3388
2451.00,0.3387
2450.00,0.3387
2449.00,0.3386
2448.00,0.3386
2447.00,0.3386
2446.00,0.3387
2445.00,0.3388
2444.00,0.3388
2443.00,0.3388
2442.00,0.3389
2441.00,0.3388
2440.00,0.3388
2439.00,0.3389
2438.00,0.3389
2437.00,0.3390
2436.00,0.3391
2435.00,0.3392
2434.00,0.3392
2433.00,0.3393
2432.00,0.3394
2431.00,0.3394
2430.00,0.3395
2429.00,0.3396
2428.00,0.3396
2427.00,0.3397
2426.00,0.3397
2425.00,0.3398
2424.00,0.3399
2423.00,0.3400
2422.00,0.3401
2421.00,0.3402
2420.00,0.3404
2419.00,0.3405
2418.00,0.3406
2417.00,0.3406
2416.00,0.3406
2415.00,0.3406
2414.00,0.3407
2413.00,0.3408
2412.00,0.3409
2411.00,0.3409
2410.00,0.3410
2409.00,0.3409
2408.00,0.3409
2407.00,0.3408
2406.00,0.3408
2405.00,0.3407
2404.00,0.3407
2403.00,0.3406
2402.00,0.3406
2401.00,0.3405
2400.00,0.3404
2399.00,0.3403
2398.00,0.3401
2397.00,0.3400
2396.00,0.3399
2395.00,0.3397
2394.00,0.3395
2393.00,0.3394
2392.00,0.3392
2391.00,0.3391
2390.00,0.3390
2389.00,0.3389
2388.00,0.3389
2387.00,0.3388
2386.00,0.3388
2385.00,0.3388
2384.00,0.3389
2383.00,0.3389
2382.00,0.3389
2381.00,0.3390
2380.00,0.3390
2379.00,0.3391
2378.00,0.3391
2377.00,0.3391
2376.00,0.3391
2375.00,0.3391
2374.00,0.3389
2373.00,0.3388
2372.00,0.3388
2371.00,0.3387
2370.00,0.3387
2369.00,0.3388
2368.00,0.3388
2367.00,0.3388
2366.00,0.3387
2365.00,0.3387
2364.00,0.3386
2363.00,0.3385
2362.00,0.3385
2361.00,0.3384
2360.00,0.3385
2359.00,0.3385
2358.00,0.3384
2357.00,0.3383
2356.00,0.3382
2355.00,0.3381
2354.00,0.3381
2353.00,0.3380
2352.00,0.3380
2351.00,0.3379
2350.00,0.3378
2349.00,0.3376
2348.00,0.3375
2347.00,0.3373
2346.00,0.3373
2345.00,0.3373
2344.00,0.3373
2343.00,0.3371
2342.00,0.3370
2341.00,0.3369
2340.00,0.3368
2339.00,0.3368
2338.00,0.3368
2337.00,0.3369
2336.00,0.3369
2335.00,0.3367
2334.00,0.3364
2333.00,0.3362
2332.00,0.3359
2331.00,0.3357
2330.00,0.3354
2329.00,0.3351
2328.00,0.3349
2327.00,0.3346
2326.00,0.3344
2325.00,0.3342
2324.00,0.3341
2323.00,0.3339
2322.00,0.3338
2321.00,0.3336
2320.00,0.3333
2319.00,0.3330
2318.00,0.3328
2317.00,0.3326
2316.00,0.3324
2315.00,0.3321
2314.00,0.3319
2313.00,0.3316
2312.00,0.3314
2311.00,0.3311
2310.00,0.3307
2309.00,0.3304
2308.00,0.3301
2307.00,0.3297
2306.00,0.3294
2305.00,0.3291
2304.00,0.3287
2303.00,0.3284
2302.00,0.3280
2301.00,0.3277
2300.00,0.3274
2299.00,0.3271
2298.00,0.3268
2297.00,0.3265
2296.00,0.3262
2295.00,0.3259
2294.00,0.3255
2293.00,0.3252
2292.00,0.3249
2291.00,0.3246
2290.00,0.3243
2289.00,0.3240
2288.00,0.3237
2287.00,0.3234
2286.00,0.3232
2285.00,0.3229
2284.00,0.3227
2283.00,0.3224
2282.00,0.3222
2281.00,0.3219
2280.00,0.3216
2279.00,0.3213
2278.00,0.3209
2277.00,0.3206
2276.00,0.3203
2275.00,0.3200
2274.00,0.3197
2273.00,0.3194
2272.00,0.3192
2271.00,0.3191
2270.00,0.3189
2269.00,0.3187
2268.00,0.3185
2267.00,0.3183
2266.00,0.3181
2265.00,0.3179
2264.00,0.3177
2263.00,0.3175
2262.00,0.3172
2261.00,0.3170
2260.00,0.3168
2259.00,0.3165
2258.00,0.3163
2257.00,0.3160
2256.00,0.3157
2255.00,0.3153
2254.00,0.3151
2253.00,0.3148
2252.00,0.3146
2251.00,0.3145
2250.00,0.3143
2249.00,0.3141
2248.00,0.3139
2247.00,0.3137
2246.00,0.3135
2245.00,0.3133
2244.00,0.3131
2243.00,0.3129
2242.00,0.3126
2241.00,0.3125
2240.00,0.3123
2239.00,0.3122
2238.00,0.3120
2237.00,0.3119
2236.00,0.3118
2235.00,0.3116
2234.00,0.3115
2233.00,0.3114
2232.00,0.3112
2231.00,0.3110
2230.00,0.3109
2229.00,0.3107
2228.00,0.3106
2227.00,0.3105
2226.00,0.3103
2225.00,0.3101
2224.00,0.3100
2223.00,0.3098
2222.00,0.3097
2221.00,0.3096
2220.00,0.3096
2219.00,0.3095
2218.00,0.3093
2217.00,0.3093
2216.00,0.3092
2215.00,0.3092
2214.00,0.3092
2213.00,0.3092
2212.00,0.3092
2211.00,0.3092
2210.00,0.3092
2209.00,0.3092
2208.00,0.3092
2207.00,0.3092
2206.00,0.3092
2205.00,0.3092
2204.00,0.3092
2203.00,0.3091
2202.00,0.3090
2201.00,0.3090
2200.00,0.3090
2199.00,0.3090
2198.00,0.3090
2197.00,0.3090
2196.00,0.3090
2195.00,0.3088
2194.00,0.3087
2193.00,0.3087
2192.00,0.3087
2191.00,0.3088
2190.00,0.3088
2189.00,0.3088
2188.00,0.3087
2187.00,0.3087
2186.00,0.3087
2185.00,0.3087
2184.00,0.3086
2183.00,0.3085
2182.00,0.3084
2181.00,0.3084
2180.00,0.3084
2179.00,0.3084
2178.00,0.3083
2177.00,0.3082
2176.00,0.3082
2175.00,0.3080
2174.00,0.3079
2173.00,0.3078
2172.00,0.3077
2171.00,0.3076
2170.00,0.3074
2169.00,0.3073
2168.00,0.3072
2167.00,0.3071
2166.00,0.3069
2165.00,0.3068
2164.00,0.3066
2163.00,0.3063
2162.00,0.3061
2161.00,0.3059
2160.00,0.3057
2159.00,0.3055
2158.00,0.3053
2157.00,0.3051
2156.00,0.3050
2155.00,0.3048
2154.00,0.3047
2153.00,0.3046
2152.00,0.3045
2151.00,0.3043
2150.00,0.3041
2149.00,0.3038
2148.00,0.3035
2147.00,0.3032
2146.00,0.3029
2145.00,0.3025
2144.00,0.3022
2143.00,0.3018
2142.00,0.3013
2141.00,0.3009
2140.00,0.3004
2139.00,0.3001
2138.00,0.2998
2137.00,0.2995
2136.00,0.2992
2135.00,0.2989
2134.00,0.2986
2133.00,0.2984
2132.00,0.2981
2131.00,0.2979
2130.00,0.2977
2129.00,0.2975
2128.00,0.2973
2127.00,0.2971
2126.00,0.2969
2125.00,0.2967
2124.00,0.2966
2123.00,0.2964
2122.00,0.2963
2121.00,0.2962
2120.00,0.2960
2119.00,0.2959
2118.00,0.2958
2117.00,0.2957
2116.00,0.2956
2115.00,0.2955
2114.00,0.2955
2113.00,0.2954
2112.00,0.2954
2111.00,0.2954
2110.00,0.2953
2109.00,0.2952
2108.00,0.2952
2107.00,0.2952
2106.00,0.2951
2105.00,0.2950
2104.00,0.2950
2103.00,0.2950
2102.00,0.2949
2101.00,0.2949
2100.00,0.2949
2099.00,0.2948
2098.00,0.2947
2097.00,0.2946
2096.00,0.2945
2095.00,0.2944
2094.00,0.2944
2093.00,0.2943
2092.00,0.2942
2091.00,0.2942
2090.00,0.2941
2089.00,0.2940
2088.00,0.2939
2087.00,0.2939
2086.00,0.2938
2085.00,0.2938
2084.00,0.2937
2083.00,0.2937
2082.00,0.2937
2081.00,0.2938
2080.00,0.2938
2079.00,0.2939
2078.00,0.2939
2077.00,0.2940
2076.00,0.2940
2075.00,0.2941
2074.00,0.2941
2073.00,0.2941
2072.00,0.2943
2071.00,0.2944
2070.00,0.2945
2069.00,0.2946
2068.00,0.2946
2067.00,0.2947
2066.00,0.2948
2065.00,0.2949
2064.00,0.2950
2063.00,0.2951
2062.00,0.2951
2061.00,0.2952
2060.00,0.2953
2059.00,0.2954
2058.00,0.2954
2057.00,0.2954
2056.00,0.2955
2055.00,0.2955
2054.00,0.2956
2053.00,0.2958
2052.00,0.2959
2051.00,0.2960
2050.00,0.2962
2049.00,0.2964
2048.00,0.2966
2047.00,0.2968
2046.00,0.2970
2045.00,0.2971
2044.00,0.2973
2043.00,0.2974
2042.00,0.2975
2041.00,0.2977
2040.00,0.2978
2039.00,0.2980
2038.00,0.2982
2037.00,0.2984
2036.00,0.2985
2035.00,0.2986
2034.00,0.2986
2033.00,0.2987
2032.00,0.2987
2031.00,0.2986
2030.00,0.2986
2029.00,0.2986
2028.00,0.2985
2027.00,0.2985
2026.00,0.2984
2025.00,0.2982
2024.00,0.2980
2023.00,0.2977
2022.00,0.2973
2021.00,0.2969
2020.00,0.2965
2019.00,0.2959
2018.00,0.2953
2017.00,0.2947
2016.00,0.2941
2015.00,0.2936
2014.00,0.2930
2013.00,0.2925
2012.00,0.2919
2011.00,0.2914
2010.00,0.2909
2009.00,0.2904
2008.00,0.2900
2007.00,0.2897
2006.00,0.2894
2005.00,0.2892
2004.00,0.2891
2003.00,0.2889
2002.00,0.2887
2001.00,0.2885
2000.00,0.2884
1999.00,0.2884
1998.00,0.2883
1997.00,0.2882
1996.00,0.2881
1995.00,0.2879
1994.00,0.2876
1993.00,0.2875
1992.00,0.2874
1991.00,0.2873
1990.00,0.2871
1989.00,0.2871
1988.00,0.2870
1987.00,0.2870
1986.00,0.2869
1985.00,0.2869
1984.00,0.2868
1983.00,0.2867
1982.00,0.2866
1981.00,0.2865
1980.00,0.2865
1979.00,0.2864
1978.00,0.2864
1977.00,0.2863
1976.00,0.2862
1975.00,0.2862
1974.00,0.2861
1973.00,0.2861
1972.00,0.2861
1971.00,0.2860
1970.00,0.2859
1969.00,0.2860
1968.00,0.2860
1967.00,0.2861
1966.00,0.2863
1965.00,0.2864
1964.00,0.2865
1963.00,0.2866
1962.00,0.2867
1961.00,0.2868
1960.00,0.2869
1959.00,0.2871
1958.00,0.2872
1957.00,0.2873
1956.00,0.2874
1955.00,0.2876
1954.00,0.2878
1953.00,0.2880
1952.00,0.2881
1951.00,0.2882
1950.00,0.2882
1949.00,0.2882
1948.00,0.2882
1947.00,0.2882
1946.00,0.2883
1945.00,0.2885
1944.00,0.2888
1943.00,0.2892
1942.00,0.2898
1941.00,0.2904
1940.00,0.2910
1939.00,0.2914
1938.00,0.2916
1937.00,0.2917
1936.00,0.2916
1935.00,0.2915
1934.00,0.2913
1933.00,0.2912
1932.00,0.2912
1931.00,0.2911
1930.00,0.2912
1929.00,0.2912
1928.00,0.2914
1927.00,0.2914
1926.00,0.2914
1925.00,0.2915
1924.00,0.2918
1923.00,0.2921
1922.00,0.2925
1921.00,0.2930
1920.00,0.2935
1919.00,0.2940
1918.00,0.2944
1917.00,0.2948
1916.00,0.2951
1915.00,0.2953
1914.00,0.2954
1913.00,0.2954
1912.00,0.2954
1911.00,0.2954
1910.00,0.2954
1909.00,0.2954
1908.00,0.2954
1907.00,0.2955
1906.00,0.2955
1905.00,0.2955
1904.00,0.2956
1903.00,0.2956
1902.00,0.2956
1901.00,0.2956
1900.00,0.2957
1899.00,0.2958
1898.00,0.2958
1897.00,0.2959
1896.00,0.2961
1895.00,0.2963
1894.00,0.2964
1893.00,0.2966
1892.00,0.2967
1891.00,0.2967
1890.00,0.2968
1889.00,0.2971
1888.00,0.2974
1887.00,0.2976
1886.00,0.2978
1885.00,0.2979
1884.00,0.2980
1883.00,0.2980
1882.00,0.2980
1881.00,0.2980
1880.00,0.2979
1879.00,0.2978
1878.00,0.2977
1877.00,0.2976
1876.00,0.2974
1875.00,0.2972
1874.00,0.2969
1873.00,0.2965
1872.00,0.2960
1871.00,0.2956
1870.00,0.2952
1869.00,0.2949
1868.00,0.2948
1867.00,0.2947
1866.00,0.2947
1865.00,0.2946
1864.00,0.2944
1863.00,0.2942
1862.00,0.2939
1861.00,0.2936
1860.00,0.2933
1859.00,0.2931
1858.00,0.2928
1857.00,0.2926
1856.00,0.2925
1855.00,0.2923
1854.00,0.2922
1853.00,0.2921
1852.00,0.2920
1851.00,0.2918
1850.00,0.2916
1849.00,0.2913
1848.00,0.2912
1847.00,0.2911
1846.00,0.2910
1845.00,0.2910
1844.00,0.2909
1843.00,0.2908
1842.00,0.2907
1841.00,0.2906
1840.00,0.2906
1839.00,0.2904
1838.00,0.2902
1837.00,0.2901
1836.00,0.2900
1835.00,0.2898
1834.00,0.2896
1833.00,0.2893
1832.00,0.2891
1831.00,0.2889
1830.00,0.2887
1829.00,0.2885
1828.00,0.2884
1827.00,0.2882
1826.00,0.2881
1825.00,0.2881
1824.00,0.2883
1823.00,0.2885
1822.00,0.2887
1821.00,0.2888
1820.00,0.2888
1819.00,0.2889
1818.00,0.2889
1817.00,0.2890
1816.00,0.2892
1815.00,0.2894
1814.00,0.2895
1813.00,0.2896
1812.00,0.2898
1811.00,0.2900
1810.00,0.2902
1809.00,0.2904
1808.00,0.2907
1807.00,0.2910
1806.00,0.2913
1805.00,0.2915
1804.00,0.2917
1803.00,0.2919
1802.00,0.2921
1801.00,0.2927
1800.00,0.2933
1799.00,0.2939
1798.00,0.2944
1797.00,0.2948
1796.00,0.2952
1795.00,0.2955
1794.00,0.2957
1793.00,0.2959
1792.00,0.2961
1791.00,0.2965
1790.00,0.2970
1789.00,0.2976
1788.00,0.2982
1787.00,0.2985
1786.00,0.2988
1785.00,0.2991
1784.00,0.2994
1783.00,0.2998
1782.00,0.3001
1781.00,0.3005
1780.00,0.3010
1779.00,0.3014
1778.00,0.3018
1777.00,0.3022
1776.00,0.3027
1775.00,0.3033
1774.00,0.3038
1773.00,0.3043
1772.00,0.3047
1771.00,0.3048
1770.00,0.3052
1769.00,0.3058
1768.00,0.3066
1767.00,0.3073
1766.00,0.3079
1765.00,0.3085
1764.00,0.3090
1763.00,0.3095
1762.00,0.3102
1761.00,0.3109
1760.00,0.3118
1759.00,0.3127
1758.00,0.3137
1757.00,0.3150
1756.00,0.3165
1755.00,0.3180
1754.00,0.3195
1753.00,0.3211
1752.00,0.3227
1751.00,0.3243
1750.00,0.3261
1749.00,0.3283
1748.00,0.3306
1747.00,0.3328
1746.00,0.3349
1745.00,0.3368
1744.00,0.3386
1743.00,0.3402
1742.00,0.3417
1741.00,0.3431
1740.00,0.3441
1739.00,0.3447
1738.00,0.3450
1737.00,0.3454
1736.00,0.3457
1735.00,0.3457
1734.00,0.3453
1733.00,0.3447
1732.00,0.3441
1731.00,0.3437
1730.00,0.3433
1729.00,0.3430
1728.00,0.3428
1727.00,0.3426
1726.00,0.3423
1725.00,0.3422
1724.00,0.3423
1723.00,0.3426
1722.00,0.3431
1721.00,0.3439
1720.00,0.3451
1719.00,0.3465
1718.00,0.3483
1717.00,0.3502
1716.00,0.3523
1715.00,0.3547
1714.00,0.3574
1713.00,0.3605
1712.00,0.3636
1711.00,0.3665
1710.00,0.3692
1709.00,0.3715
1708.00,0.3731
1707.00,0.3741
1706.00,0.3743
1705.00,0.3736
1704.00,0.3724
1703.00,0.3709
1702.00,0.3687
1701.00,0.3655
1700.00,0.3619
1699.00,0.3588
1698.00,0.3570
1697.00,0.3555
1696.00,0.3537
1695.00,0.3515
1694.00,0.3495
1693.00,0.3481
1692.00,0.3472
1691.00,0.3462
1690.00,0.3452
1689.00,0.3446
1688.00,0.3444
1687.00,0.3446
1686.00,0.3445
1685.00,0.3439
1684.00,0.3428
1683.00,0.3417
1682.00,0.3411
1681.00,0.3411
1680.00,0.3413
1679.00,0.3414
1678.00,0.3414
1677.00,0.3416
1676.00,0.3418
1675.00,0.3420
1674.00,0.3421
1673.00,0.3424
1672.00,0.3427
1671.00,0.3432
1670.00,0.3436
1669.00,0.3443
1668.00,0.3451
1667.00,0.3458
1666.00,0.3465
1665.00,0.3473
1664.00,0.3481
1663.00,0.3489
1662.00,0.3496
1661.00,0.3505
1660.00,0.3516
1659.00,0.3525
1658.00,0.3534
1657.00,0.3543
1656.00,0.3557
1655.00,0.3576
1654.00,0.3598
1653.00,0.3622
1652.00,0.3639
1651.00,0.3646
1650.00,0.3653
1649.00,0.3668
1648.00,0.3692
1647.00,0.3719
1646.00,0.3747
1645.00,0.3774
1644.00,0.3800
1643.00,0.3824
1642.00,0.3848
1641.00,0.3874
1640.00,0.3901
1639.00,0.3926
1638.00,0.3952
1637.00,0.3982
1636.00,0.4015
1635.00,0.4046
1634.00,0.4073
1633.00,0.4098
1632.00,0.4124
1631.00,0.4148
1630.00,0.4172
1629.00,0.4198
1628.00,0.4225
1627.00,0.4252
1626.00,0.4279
1625.00,0.4312
1624.00,0.4350
1623.00,0.4394
1622.00,0.4443
1621.00,0.4497
1620.00,0.4560
1619.00,0.4631
1618.00,0.4717
1617.00,0.4821
1616.00,0.4932
1615.00,0.5036
1614.00,0.5133
1613.00,0.5234
1612.00,0.5342
1611.00,0.5451
1610.00,0.5559
1609.00,0.5666
1608.00,0.5772
1607.00,0.5866
1606.00,0.5948
1605.00,0.6024
1604.00,0.6098
1603.00,0.6168
1602.00,0.6236
1601.00,0.6310
1600.00,0.6394
1599.00,0.6486
1598.00,0.6590
1597.00,0.6722
1596.00,0.6893
1595.00,0.7108
1594.00,0.7375
1593.00,0.7715
1592.00,0.8151
1591.00,0.8700
1590.00,0.9387
1589.00,1.0263
1588.00,1.1389
1587.00,1.2802
1586.00,1.4537
1585.00,1.6665
1584.00,1.9287
1583.00,2.2205
1582.00,2.4233
1581.00,2.4115
1580.00,2.2501
1579.00,2.0203
1578.00,1.7708
1577.00,1.5414
1576.00,1.3541
1575.00,1.2159
1574.00,1.1201
1573.00,1.0534
1572.00,1.0044
1571.00,0.9671
1570.00,0.9419
1569.00,0.9325
1568.00,0.9401
1567.00,0.9640
1566.00,1.0053
1565.00,1.0675
1564.00,1.1491
1563.00,1.2398
1562.00,1.3250
1561.00,1.3890
1560.00,1.3959
1559.00,1.3114
1558.00,1.1860
1557.00,1.0775
1556.00,0.9881
1555.00,0.9067
1554.00,0.8339
1553.00,0.7753
1552.00,0.7309
1551.00,0.6958
1550.00,0.6663
1549.00,0.6425
1548.00,0.6242
1547.00,0.6093
1546.00,0.5963
1545.00,0.5851
1544.00,0.5760
1543.00,0.5687
1542.00,0.5622
1541.00,0.5563
1540.00,0.5502
1539.00,0.5441
1538.00,0.5385
1537.00,0.5341
1536.00,0.5307
1535.00,0.5275
1534.00,0.5244
1533.00,0.5222
1532.00,0.5215
1531.00,0.5217
1530.00,0.5223
1529.00,0.5232
1528.00,0.5239
1527.00,0.5239
1526.00,0.5231
1525.00,0.5222
1524.00,0.5215
1523.00,0.5212
1522.00,0.5214
1521.00,0.5227
1520.00,0.5251
1519.00,0.5279
1518.00,0.5312
1517.00,0.5352
1516.00,0.5391
1515.00,0.5419
1514.00,0.5434
1513.00,0.5441
1512.00,0.5447
1511.00,0.5455
1510.00,0.5473
1509.00,0.5512
1508.00,0.5581
1507.00,0.5679
1506.00,0.5797
1505.00,0.5913
1504.00,0.6012
1503.00,0.6097
1502.00,0.6177
1501.00,0.6255
1500.00,0.6331
1499.00,0.6403
1498.00,0.6480
1497.00,0.6574
1496.00,0.6681
1495.00,0.6787
1494.00,0.6890
1493.00,0.7001
1492.00,0.7124
1491.00,0.7262
1490.00,0.7418
1489.00,0.7598
1488.00,0.7795
1487.00,0.8007
1486.00,0.8246
1485.00,0.8525
1484.00,0.8848
1483.00,0.9220
1482.00,0.9656
1481.00,1.0171
1480.00,1.0751
1479.00,1.1390
1478.00,1.2120
1477.00,1.2989
1476.00,1.4006
1475.00,1.5173
1474.00,1.6578
1473.00,1.8405
1472.00,2.0756
1471.00,2.3502
1470.00,2.6448
1469.00,2.9564
1468.00,3.2342
1467.00,3.3622
1466.00,3.4520
1465.00,3.7329
1464.00,4.2587
1463.00,4.5136
1462.00,4.2880
1461.00,3.7668
1460.00,3.5552
1459.00,3.5854
1458.00,3.7055
1457.00,3.9036
1456.00,4.2057
1455.00,3.9363
1454.00,3.8124
1453.00,4.0270
1452.00,3.8374
1451.00,3.5810
1450.00,3.5177
1449.00,3.5608
1448.00,3.5128
1447.00,3.2902
1446.00,3.1046
1445.00,2.9684
1444.00,2.8077
1443.00,2.6303
1442.00,2.4769
1441.00,2.3488
1440.00,2.2273
1439.00,2.1041
1438.00,1.9801
1437.00,1.8562
1436.00,1.7372
1435.00,1.6301
1434.00,1.5347
1433.00,1.4443
1432.00,1.3556
1431.00,1.2713
1430.00,1.1957
1429.00,1.1309
1428.00,1.0775
1427.00,1.0345
1426.00,0.9999
1425.00,0.9713
1424.00,0.9481
1423.00,0.9305
1422.00,0.9172
1421.00,0.9058
1420.00,0.8951
1419.00,0.8851
1418.00,0.8764
1417.00,0.8690
1416.00,0.8629
1415.00,0.8580
1414.00,0.8545
1413.00,0.8520
1412.00,0.8505
1411.00,0.8498
1410.00,0.8487
1409.00,0.8461
1408.00,0.8412
1407.00,0.8335
1406.00,0.8227
1405.00,0.8093
1404.00,0.7947
1403.00,0.7806
1402.00,0.7676
1401.00,0.7555
1400.00,0.7446
1399.00,0.7357
1398.00,0.7293
1397.00,0.7254
1396.00,0.7244
1395.00,0.7271
1394.00,0.7340
1393.00,0.7456
1392.00,0.7634
1391.00,0.7894
1390.00,0.8260
1389.00,0.8763
1388.00,0.9441
1387.00,1.0299
1386.00,1.1289
1385.00,1.2351
1384.00,1.3472
1383.00,1.4684
1382.00,1.6027
1381.00,1.7532
1380.00,1.9210
1379.00,2.0930
1378.00,2.2268
1377.00,2.2702
1376.00,2.2098
1375.00,2.0731
1374.00,1.9049
1373.00,1.7454
1372.00,1.6129
1371.00,1.5096
1370.00,1.4334
1369.00,1.3822
1368.00,1.3504
1367.00,1.3265
1366.00,1.2955
1365.00,1.2474
1364.00,1.1830
1363.00,1.1124
1362.00,1.0476
1361.00,0.9950
1360.00,0.9553
1359.00,0.9260
1358.00,0.9045
1357.00,0.8892
1356.00,0.8789
1355.00,0.8727
1354.00,0.8693
1353.00,0.8675
1352.00,0.8662
1351.00,0.8645
1350.00,0.8622
1349.00,0.8592
1348.00,0.8560
1347.00,0.8528
1346.00,0.8499
1345.00,0.8475
1344.00,0.8456
1343.00,0.8436
1342.00,0.8406
1341.00,0.8358
1340.00,0.8286
1339.00,0.8191
1338.00,0.8074
1337.00,0.7936
1336.00,0.7784
1335.00,0.7627
1334.00,0.7475
1333.00,0.7337
1332.00,0.7216
1331.00,0.7114
1330.00,0.7031
1329.00,0.6967
1328.00,0.6921
1327.00,0.6890
1326.00,0.6872
1325.00,0.6865
1324.00,0.6865
1323.00,0.6869
1322.00,0.6874
1321.00,0.6878
1320.00,0.6881
1319.00,0.6888
1318.00,0.6899
1317.00,0.6916
1316.00,0.6939
1315.00,0.6968
1314.00,0.7003
1313.00,0.7043
1312.00,0.7085
1311.00,0.7128
1310.00,0.7167
1309.00,0.7199
1308.00,0.7225
1307.00,0.7244
1306.00,0.7252
1305.00,0.7247
1304.00,0.7226
1303.00,0.7190
1302.00,0.7143
1301.00,0.7089
1300.00,0.7031
1299.00,0.6969
1298.00,0.6906
1297.00,0.6843
1296.00,0.6783
1295.00,0.6729
1294.00,0.6681
1293.00,0.6636
1292.00,0.6596
1291.00,0.6558
1290.00,0.6523
1289.00,0.6489
1288.00,0.6454
1287.00,0.6418
1286.00,0.6379
1285.00,0.6336
1284.00,0.6290
1283.00,0.6246
1282.00,0.6206
1281.00,0.6172
1280.00,0.6143
1279.00,0.6118
1278.00,0.6095
1277.00,0.6070
1276.00,0.6045
1275.00,0.6022
1274.00,0.6001
1273.00,0.5985
1272.00,0.5972
1271.00,0.5964
1270.00,0.5960
1269.00,0.5955
1268.00,0.5943
1267.00,0.5918
1266.00,0.5881
1265.00,0.5837
1264.00,0.5792
1263.00,0.5755
1262.00,0.5726
1261.00,0.5704
1260.00,0.5686
1259.00,0.5668
1258.00,0.5647
1257.00,0.5623
1256.00,0.5595
1255.00,0.5569
1254.00,0.5546
1253.00,0.5527
1252.00,0.5512
1251.00,0.5498
1250.00,0.5483
1249.00,0.5465
1248.00,0.5444
1247.00,0.5420
1246.00,0.5394
1245.00,0.5365
1244.00,0.5333
1243.00,0.5300
1242.00,0.5266
1241.00,0.5230
1240.00,0.5195
1239.00,0.5162
1238.00,0.5135
1237.00,0.5114
1236.00,0.5098
1235.00,0.5089
1234.00,0.5087
1233.00,0.5090
1232.00,0.5097
1231.00,0.5107
1230.00,0.5114
1229.00,0.5114
1228.00,0.5103
1227.00,0.5081
1226.00,0.5052
1225.00,0.5019
1224.00,0.4987
1223.00,0.4958
1222.00,0.4936
1221.00,0.4920
1220.00,0.4910
1219.00,0.4905
1218.00,0.4904
1217.00,0.4906
1216.00,0.4912
1215.00,0.4922
1214.00,0.4932
1213.00,0.4938
1212.00,0.4936
1211.00,0.4928
1210.00,0.4915
1209.00,0.4899
1208.00,0.4883
1207.00,0.4869
1206.00,0.4857
1205.00,0.4843
1204.00,0.4829
1203.00,0.4817
1202.00,0.4808
1201.00,0.4803
1200.00,0.4801
1199.00,0.4801
1198.00,0.4801
1197.00,0.4798
1196.00,0.4792
1195.00,0.4784
1194.00,0.4776
1193.00,0.4768
1192.00,0.4761
1191.00,0.4756
1190.00,0.4752
1189.00,0.4748
1188.00,0.4742
1187.00,0.4736
1186.00,0.4732
1185.00,0.4729
1184.00,0.4725
1183.00,0.4723
1182.00,0.4722
1181.00,0.4722
1180.00,0.4724
1179.00,0.4729
1178.00,0.4738
1177.00,0.4750
1176.00,0.4769
1175.00,0.4797
1174.00,0.4835
1173.00,0.4879
1172.00,0.4926
1171.00,0.4968
1170.00,0.5000
1169.00,0.5015
1168.00,0.5015
1167.00,0.5005
1166.00,0.4990
1165.00,0.4976
1164.00,0.4968
1163.00,0.4968
1162.00,0.4975
1161.00,0.4988
1160.00,0.5005
1159.00,0.5024
1158.00,0.5042
1157.00,0.5055
1156.00,0.5061
1155.00,0.5061
1154.00,0.5053
1153.00,0.5041
1152.00,0.5024
1151.00,0.5005
1150.00,0.4986
1149.00,0.4966
1148.00,0.4948
1147.00,0.4932
1146.00,0.4917
1145.00,0.4906
1144.00,0.4901
1143.00,0.4906
1142.00,0.4922
1141.00,0.4949
1140.00,0.4988
1139.00,0.5040
1138.00,0.5105
1137.00,0.5183
1136.00,0.5271
1135.00,0.5362
1134.00,0.5440
1133.00,0.5485
1132.00,0.5482
1131.00,0.5431
1130.00,0.5348
1129.00,0.5254
1128.00,0.5171
1127.00,0.5108
1126.00,0.5066
1125.00,0.5038
1124.00,0.5018
1123.00,0.5001
1122.00,0.4983
1121.00,0.4967
1120.00,0.4955
1119.00,0.4953
1118.00,0.4965
1117.00,0.4991
1116.00,0.5026
1115.00,0.5059
1114.00,0.5072
1113.00,0.5055
1112.00,0.5006
1111.00,0.4937
1110.00,0.4864
1109.00,0.4799
1108.00,0.4748
1107.00,0.4715
1106.00,0.4695
1105.00,0.4686
1104.00,0.4682
1103.00,0.4681
1102.00,0.4680
1101.00,0.4676
1100.00,0.4669
1099.00,0.4659
1098.00,0.4648
1097.00,0.4637
1096.00,0.4629
1095.00,0.4625
1094.00,0.4626
1093.00,0.4630
1092.00,0.4639
1091.00,0.4651
1090.00,0.4667
1089.00,0.4686
1088.00,0.4711
1087.00,0.4744
1086.00,0.4787
1085.00,0.4840
1084.00,0.4904
1083.00,0.4977
1082.00,0.5059
1081.00,0.5145
1080.00,0.5232
1079.00,0.5312
1078.00,0.5373
1077.00,0.5405
1076.00,0.5404
1075.00,0.5374
1074.00,0.5322
1073.00,0.5258
1072.00,0.5191
1071.00,0.5132
1070.00,0.5084
1069.00,0.5046
1068.00,0.5018
1067.00,0.4996
1066.00,0.4980
1065.00,0.4968
1064.00,0.4961
1063.00,0.4958
1062.00,0.4959
1061.00,0.4961
1060.00,0.4963
1059.00,0.4963
1058.00,0.4961
1057.00,0.4956
1056.00,0.4948
1055.00,0.4936
1054.00,0.4923
1053.00,0.4913
1052.00,0.4909
1051.00,0.4914
1050.00,0.4926
1049.00,0.4943
1048.00,0.4962
1047.00,0.4980
1046.00,0.4997
1045.00,0.5007
1044.00,0.5009
1043.00,0.5006
1042.00,0.5001
1041.00,0.4996
1040.00,0.4990
1039.00,0.4985
1038.00,0.4979
1037.00,0.4972
1036.00,0.4967
1035.00,0.4968
1034.00,0.4977
1033.00,0.4993
1032.00,0.5014
1031.00,0.5036
1030.00,0.5055
1029.00,0.5065
1028.00,0.5062
1027.00,0.5042
1026.00,0.5004
1025.00,0.4949
1024.00,0.4886
1023.00,0.4822
1022.00,0.4761
1021.00,0.4706
1020.00,0.4658
1019.00,0.4618
1018.00,0.4583
1017.00,0.4553
1016.00,0.4527
1015.00,0.4504
1014.00,0.4485
1013.00,0.4468
1012.00,0.4453
1011.00,0.4445
1010.00,0.4442
1009.00,0.4444
1008.00,0.4449
1007.00,0.4459
1006.00,0.4474
1005.00,0.4493
1004.00,0.4513
1003.00,0.4534
1002.00,0.4555
1001.00,0.4573
1000.00,0.4589
999.00,0.4601
998.00,0.4609
997.00,0.4608
996.00,0.4598
995.00,0.4580
994.00,0.4557
993.00,0.4528
992.00,0.4495
991.00,0.4461
990.00,0.4429
989.00,0.4401
988.00,0.4380
987.00,0.4368
986.00,0.4364
985.00,0.4368
984.00,0.4379
983.00,0.4396
982.00,0.4417
981.00,0.4441
980.00,0.4465
979.00,0.4489
978.00,0.4513
977.00,0.4535
976.00,0.4552
975.00,0.4563
974.00,0.4570
973.00,0.4572
972.00,0.4573
971.00,0.4574
970.00,0.4575
969.00,0.4575
968.00,0.4574
967.00,0.4572
966.00,0.4568
965.00,0.4559
964.00,0.4548
963.00,0.4534
962.00,0.4520
961.00,0.4506
960.00,0.4493
959.00,0.4482
958.00,0.4474
957.00,0.4467
956.00,0.4461
955.00,0.4454
954.00,0.4446
953.00,0.4434
952.00,0.4419
951.00,0.4405
950.00,0.4395
949.00,0.4389
948.00,0.4389
947.00,0.4393
946.00,0.4403
945.00,0.4415
944.00,0.4430
943.00,0.4446
942.00,0.4464
941.00,0.4481
940.00,0.4496
939.00,0.4505
938.00,0.4509
937.00,0.4505
936.00,0.4494
935.00,0.4477
934.00,0.4456
933.00,0.4431
932.00,0.4405
931.00,0.4382
930.00,0.4362
929.00,0.4348
928.00,0.4342
927.00,0.4349
926.00,0.4370
925.00,0.4407
924.00,0.4456
923.00,0.4514
922.00,0.4570
921.00,0.4607
920.00,0.4609
919.00,0.4573
918.00,0.4504
917.00,0.4417
916.00,0.4328
915.00,0.4247
914.00,0.4180
913.00,0.4127
912.00,0.4087
911.00,0.4057
910.00,0.4035
909.00,0.4019
908.00,0.4007
907.00,0.4000
906.00,0.3995
905.00,0.3993
904.00,0.3993
903.00,0.3999
902.00,0.4012
901.00,0.4032
900.00,0.4057
899.00,0.4089
898.00,0.4124
897.00,0.4161
896.00,0.4200
895.00,0.4241
894.00,0.4285
893.00,0.4329
892.00,0.4372
891.00,0.4411
890.00,0.4442
889.00,0.4459
888.00,0.4462
887.00,0.4449
886.00,0.4427
885.00,0.4401
884.00,0.4382
883.00,0.4372
882.00,0.4373
881.00,0.4381
880.00,0.4393
879.00,0.4405
878.00,0.4414
877.00,0.4417
876.00,0.4416
875.00,0.4415
874.00,0.4415
873.00,0.4419
872.00,0.4427
871.00,0.4438
870.00,0.4453
869.00,0.4471
868.00,0.4493
867.00,0.4523
866.00,0.4561
865.00,0.4604
864.00,0.4646
863.00,0.4678
862.00,0.4688
861.00,0.4666
860.00,0.4612
859.00,0.4539
858.00,0.4464
857.00,0.4399
856.00,0.4346
855.00,0.4308
854.00,0.4283
853.00,0.4265
852.00,0.4250
851.00,0.4236
850.00,0.4221
849.00,0.4203
848.00,0.4181
847.00,0.4155
846.00,0.4129
845.00,0.4104
844.00,0.4082
843.00,0.4067
842.00,0.4064
841.00,0.4079
840.00,0.4116
839.00,0.4176
838.00,0.4250
837.00,0.4324
836.00,0.4374
835.00,0.4386
834.00,0.4359
833.00,0.4308
832.00,0.4257
831.00,0.4222
830.00,0.4212
829.00,0.4223
828.00,0.4251
827.00,0.4292
826.00,0.4344
825.00,0.4403
824.00,0.4467
823.00,0.4534
822.00,0.4603
821.00,0.4673
820.00,0.4743
819.00,0.4810
818.00,0.4868
817.00,0.4912
816.00,0.4937
815.00,0.4941
814.00,0.4922
813.00,0.4883
812.00,0.4830
811.00,0.4769
810.00,0.4708
809.00,0.4648
808.00,0.4592
807.00,0.4542
806.00,0.4496
805.00,0.4451
804.00,0.4400
803.00,0.4343
802.00,0.4283
801.00,0.4224
800.00,0.4173
799.00,0.4133
798.00,0.4105
797.00,0.4084
796.00,0.4068
795.00,0.4059
794.00,0.4057
793.00,0.4062
792.00,0.4074
791.00,0.4092
790.00,0.4116
789.00,0.4142
788.00,0.4170
787.00,0.4201
786.00,0.4241
785.00,0.4287
784.00,0.4336
783.00,0.4381
782.00,0.4417
781.00,0.4442
780.00,0.4460
779.00,0.4474
778.00,0.4487
777.00,0.4501
776.00,0.4516
775.00,0.4535
774.00,0.4556
773.00,0.4581
772.00,0.4607
771.00,0.4634
770.00,0.4663
769.00,0.4694
768.00,0.4728
767.00,0.4763
766.00,0.4796
765.00,0.4824
764.00,0.4849
763.00,0.4876
762.00,0.4910
761.00,0.4952
760.00,0.4998
759.00,0.5044
758.00,0.5085
757.00,0.5116
756.00,0.5141
755.00,0.5167
754.00,0.5199
753.00,0.5241
752.00,0.5288
751.00,0.5341
750.00,0.5396
749.00,0.5449
748.00,0.5498
747.00,0.5543
746.00,0.5587
745.00,0.5631
744.00,0.5677
743.00,0.5728
742.00,0.5783
741.00,0.5841
740.00,0.5895
739.00,0.5942
738.00,0.5980
737.00,0.6015
736.00,0.6052
735.00,0.6096
734.00,0.6149
733.00,0.6209
732.00,0.6280
731.00,0.6372
730.00,0.6494
729.00,0.6655
728.00,0.6857
727.00,0.7101
726.00,0.7388
725.00,0.7711
724.00,0.8042
723.00,0.8324
722.00,0.8466
721.00,0.8381
720.00,0.8058
719.00,0.7585
718.00,0.7078
717.00,0.6614
716.00,0.6226
715.00,0.5915
714.00,0.5669
713.00,0.5472
712.00,0.5311
711.00,0.5182
710.00,0.5078
709.00,0.4992
708.00,0.4919
707.00,0.4858
706.00,0.4807
705.00,0.4763
704.00,0.4723
703.00,0.4694
702.00,0.4680
701.00,0.4674
700.00,0.4656
699.00,0.4602
698.00,0.4496
697.00,0.4343
696.00,0.4171
695.00,0.4011
694.00,0.3881
693.00,0.3781
692.00,0.3706
691.00,0.3650
690.00,0.3607
689.00,0.3575
688.00,0.3550
687.00,0.3531
686.00,0.3518
685.00,0.3509
684.00,0.3500
683.00,0.3495
682.00,0.3492
681.00,0.3490
680.00,0.3489
679.00,0.3488
678.00,0.3487
677.00,0.3488
676.00,0.3489
675.00,0.3490
674.00,0.3490
673.00,0.3492
672.00,0.3497
671.00,0.3503
670.00,0.3508
669.00,0.3511
668.00,0.3514
667.00,0.3520
666.00,0.3530
665.00,0.3541
664.00,0.3550
663.00,0.3558
662.00,0.3566
661.00,0.3575
660.00,0.3582
659.00,0.3590
658.00,0.3598
657.00,0.3607
656.00,0.3616
655.00,0.3627
654.00,0.3637
653.00,0.3648
652.00,0.3658
651.00,0.3668
650.00,0.3678
649.00,0.3690
648.00,0.3704
647.00,0.3721
646.00,0.3739
645.00,0.3757
644.00,0.3775
643.00,0.3792
642.00,0.3809
641.00,0.3825
640.00,0.3841
639.00,0.3857
638.00,0.3873
637.00,0.3886
636.00,0.3898
635.00,0.3910
634.00,0.3922
633.00,0.3934
632.00,0.3945
631.00,0.3958
630.00,0.3973
629.00,0.3990
628.00,0.4008
627.00,0.4029
626.00,0.4053
625.00,0.4079
624.00,0.4107
623.00,0.4134
622.00,0.4157
621.00,0.4176
620.00,0.4190
619.00,0.4202
618.00,0.4213
617.00,0.4221
616.00,0.4225
615.00,0.4224
614.00,0.4219
613.00,0.4213
612.00,0.4206
611.00,0.4200
610.00,0.4193
609.00,0.4188
608.00,0.4183
607.00,0.4179
606.00,0.4172
605.00,0.4164
604.00,0.4159
603.00,0.4160
602.00,0.4166
601.00,0.4175
600.00,0.4189
599.00,0.4206
598.00,0.4226
597.00,0.4245
596.00,0.4262
595.00,0.4280
594.00,0.4301
593.00,0.4327
592.00,0.4353
591.00,0.4377
590.00,0.4397
589.00,0.4415
588.00,0.4434
587.00,0.4456
586.00,0.4480
585.00,0.4502
584.00,0.4524
583.00,0.4548
582.00,0.4575
581.00,0.4603
580.00,0.4630
579.00,0.4655
578.00,0.4678
577.00,0.4701
576.00,0.4720
575.00,0.4736
574.00,0.4752
573.00,0.4772
572.00,0.4797
571.00,0.4823
570.00,0.4844
569.00,0.4861
568.00,0.4877
567.00,0.4893
566.00,0.4906
565.00,0.4913
564.00,0.4919
563.00,0.4930
562.00,0.4949
561.00,0.4969
560.00,0.4985
559.00,0.4997
558.00,0.5004
557.00,0.5009
556.00,0.5013
555.00,0.5018
554.00,0.5029
553.00,0.5044
552.00,0.5058
551.00,0.5069
550.00,0.5075
