Created as New Dataset,
cm-1,A
4000.00,0.3839
3999.00,0.3836
3998.00,0.3832
3997.00,0.3829
3996.00,0.3826
3995.00,0.3823
3994.00,0.3820
3993.00,0.3816
3992.00,0.3813
3991.00,0.3810
3990.00,0.3806
3989.00,0.3802
3988.00,0.3799
3987.00,0.3796
3986.00,0.3792
3985.00,0.3789
3984.00,0.3784
3983.00,0.3780
3982.00,0.3776
3981.00,0.3773
3980.00,0.3770
3979.00,0.3767
3978.00,0.3764
3977.00,0.3761
3976.00,0.3758
3975.00,0.3755
3974.00,0.3753
3973.00,0.3750
3972.00,0.3747
3971.00,0.3744
3970.00,0.3741
3969.00,0.3738
3968.00,0.3735
3967.00,0.3732
3966.00,0.3729
3965.00,0.3726
3964.00,0.3723
3963.00,0.3720
3962.00,0.3717
3961.00,0.3714
3960.00,0.3712
3959.00,0.3710
3958.00,0.3708
3957.00,0.3706
3956.00,0.3705
3955.00,0.3703
3954.00,0.3701
3953.00,0.3699
3952.00,0.3697
3951.00,0.3696
3950.00,0.3695
3949.00,0.3694
3948.00,0.3693
3947.00,0.3691
3946.00,0.3688
3945.00,0.3686
3944.00,0.3685
3943.00,0.3684
3942.00,0.3683
3941.00,0.3682
3940.00,0.3680
3939.00,0.3678
3938.00,0.3677
3937.00,0.3676
3936.00,0.3675
3935.00,0.3674
3934.00,0.3673
3933.00,0.3673
3932.00,0.3673
3931.00,0.3673
3930.00,0.3673
3929.00,0.3671
3928.00,0.3670
3927.00,0.3669
3926.00,0.3669
3925.00,0.3668
3924.00,0.3668
3923.00,0.3667
3922.00,0.3667
3921.00,0.3667
3920.00,0.3668
3919.00,0.3668
3918.00,0.3669
3917.00,0.3668
3916.00,0.3668
3915.00,0.3667
3914.00,0.3666
3913.00,0.3665
3912.00,0.3665
3911.00,0.3664
3910.00,0.3663
3909.00,0.3661
3908.00,0.3659
3907.00,0.3657
3906.00,0.3656
3905.00,0.3656
3904.00,0.3656
3903.00,0.3656
3902.00,0.3656
3901.00,0.3656
3900.00,0.3657
3899.00,0.3656
3898.00,0.3655
3897.00,0.3653
3896.00,0.3651
3895.00,0.3650
3894.00,0.3649
3893.00,0.3647
3892.00,0.3646
3891.00,0.3645
3890.00,0.3642
3889.00,0.3640
3888.00,0.3639
3887.00,0.3640
3886.00,0.3640
3885.00,0.3639
3884.00,0.3638
3883.00,0.3637
3882.00,0.3638
3881.00,0.3639
3880.00,0.3638
3879.00,0.3637
3878.00,0.3636
3877.00,0.3636
3876.00,0.3636
3875.00,0.3635
3874.00,0.3633
3873.00,0.3630
3872.00,0.3628
3871.00,0.3627
3870.00,0.3626
3869.00,0.3624
3868.00,0.3621
3867.00,0.3619
3866.00,0.3618
3865.00,0.3617
3864.00,0.3616
3863.00,0.3614
3862.00,0.3613
3861.00,0.3612
3860.00,0.3611
3859.00,0.3609
3858.00,0.3605
3857.00,0.3602
3856.00,0.3599
3855.00,0.3598
3854.00,0.3599
3853.00,0.3600
3852.00,0.3601
3851.00,0.3602
3850.00,0.3605
3849.00,0.3606
3848.00,0.3607
3847.00,0.3606
3846.00,0.3605
3845.00,0.3604
3844.00,0.3602
3843.00,0.3599
3842.00,0.3597
3841.00,0.3596
3840.00,0.3595
3839.00,0.3595
3838.00,0.3595
3837.00,0.3594
3836.00,0.3594
3835.00,0.3593
3834.00,0.3592
3833.00,0.3591
3832.00,0.3590
3831.00,0.3589
3830.00,0.3587
3829.00,0.3585
3828.00,0.3584
3827.00,0.3582
3826.00,0.3581
3825.00,0.3578
3824.00,0.3576
3823.00,0.3576
3822.00,0.3575
3821.00,0.3574
3820.00,0.3571
3819.00,0.3568
3818.00,0.3568
3817.00,0.3569
3816.00,0.3570
3815.00,0.3570
3814.00,0.3569
3813.00,0.3567
3812.00,0.3566
3811.00,0.3564
3810.00,0.3561
3809.00,0.3559
3808.00,0.3557
3807.00,0.3555
3806.00,0.3553
3805.00,0.3551
3804.00,0.3549
3803.00,0.3549
3802.00,0.3548
3801.00,0.3546
3800.00,0.3543
3799.00,0.3540
3798.00,0.3539
3797.00,0.3538
3796.00,0.3536
3795.00,0.3534
3794.00,0.3532
3793.00,0.3530
3792.00,0.3528
3791.00,0.3526
3790.00,0.3524
3789.00,0.3522
3788.00,0.3520
3787.00,0.3519
3786.00,0.3517
3785.00,0.3516
3784.00,0.3515
3783.00,0.3513
3782.00,0.3512
3781.00,0.3511
3780.00,0.3511
3779.00,0.3510
3778.00,0.3509
3777.00,0.3509
3776.00,0.3508
3775.00,0.3507
3774.00,0.3505
3773.00,0.3503
3772.00,0.3501
3771.00,0.3499
3770.00,0.3498
3769.00,0.3496
3768.00,0.3494
3767.00,0.3493
3766.00,0.3492
3765.00,0.3490
3764.00,0.3488
3763.00,0.3486
3762.00,0.3485
3761.00,0.3483
3760.00,0.3481
3759.00,0.3478
3758.00,0.3475
3757.00,0.3472
3756.00,0.3469
3755.00,0.3466
3754.00,0.3464
3753.00,0.3462
3752.00,0.3460
3751.00,0.3459
3750.00,0.3458
3749.00,0.3457
3748.00,0.3456
3747.00,0.3456
3746.00,0.3457
3745.00,0.3459
3744.00,0.3459
3743.00,0.3457
3742.00,0.3456
3741.00,0.3456
3740.00,0.3456
3739.00,0.3455
3738.00,0.3453
3737.00,0.3452
3736.00,0.3451
3735.00,0.3450
3734.00,0.3449
3733.00,0.3448
3732.00,0.3447
3731.00,0.3445
3730.00,0.3443
3729.00,0.3441
3728.00,0.3439
3727.00,0.3436
3726.00,0.3433
3725.00,0.3430
3724.00,0.3428
3723.00,0.3427
3722.00,0.3425
3721.00,0.3423
3720.00,0.3422
3719.00,0.3421
3718.00,0.3421
3717.00,0.3419
3716.00,0.3417
3715.00,0.3415
3714.00,0.3415
3713.00,0.3415
3712.00,0.3415
3711.00,0.3416
3710.00,0.3417
3709.00,0.3418
3708.00,0.3420
3707.00,0.3422
3706.00,0.3422
3705.00,0.3422
3704.00,0.3422
3703.00,0.3421
3702.00,0.3421
3701.00,0.3421
3700.00,0.3420
3699.00,0.3421
3698.00,0.3421
3697.00,0.3422
3696.00,0.3422
3695.00,0.3421
3694.00,0.3419
3693.00,0.3417
3692.00,0.3415
3691.00,0.3413
3690.00,0.3411
3689.00,0.3412
3688.00,0.3413
3687.00,0.3414
3686.00,0.3414
3685.00,0.3415
3684.00,0.3415
3683.00,0.3414
3682.00,0.3412
3681.00,0.3410
3680.00,0.3408
3679.00,0.3406
3678.00,0.3405
3677.00,0.3405
3676.00,0.3407
3675.00,0.3408
3674.00,0.3408
3673.00,0.3409
3672.00,0.3411
3671.00,0.3414
3670.00,0.3416
3669.00,0.3418
3668.00,0.3420
3667.00,0.3423
3666.00,0.3426
3665.00,0.3429
3664.00,0.3432
3663.00,0.3436
3662.00,0.3441
3661.00,0.3446
3660.00,0.3453
3659.00,0.3461
3658.00,0.3473
3657.00,0.3488
3656.00,0.3505
3655.00,0.3522
3654.00,0.3538
3653.00,0.3553
3652.00,0.3568
3651.00,0.3579
3650.00,0.3588
3649.00,0.3591
3648.00,0.3589
3647.00,0.3583
3646.00,0.3575
3645.00,0.3566
3644.00,0.3555
3643.00,0.3545
3642.00,0.3534
3641.00,0.3524
3640.00,0.3515
3639.00,0.3508
3638.00,0.3501
3637.00,0.3497
3636.00,0.3493
3635.00,0.3491
3634.00,0.3488
3633.00,0.3484
3632.00,0.3481
3631.00,0.3479
3630.00,0.3479
3629.00,0.3480
3628.00,0.3480
3627.00,0.3482
3626.00,0.3485
3625.00,0.3488
3624.00,0.3488
3623.00,0.3487
3622.00,0.3484
3621.00,0.3481
3620.00,0.3478
3619.00,0.3475
3618.00,0.3471
3617.00,0.3468
3616.00,0.3466
3615.00,0.3465
3614.00,0.3463
3613.00,0.3462
3612.00,0.3462
3611.00,0.3462
3610.00,0.3462
3609.00,0.3463
3608.00,0.3464
3607.00,0.3464
3606.00,0.3464
3605.00,0.3463
3604.00,0.3460
3603.00,0.3456
3602.00,0.3451
3601.00,0.3445
3600.00,0.3438
3599.00,0.3431
3598.00,0.3423
3597.00,0.3415
3596.00,0.3407
3595.00,0.3400
3594.00,0.3393
3593.00,0.3386
3592.00,0.3379
3591.00,0.3373
3590.00,0.3368
3589.00,0.3364
3588.00,0.3360
3587.00,0.3357
3586.00,0.3355
3585.00,0.3353
3584.00,0.3352
3583.00,0.3350
3582.00,0.3347
3581.00,0.3345
3580.00,0.3343
3579.00,0.3342
3578.00,0.3341
3577.00,0.3340
3576.00,0.3341
3575.00,0.3342
3574.00,0.3343
3573.00,0.3343
3572.00,0.3343
3571.00,0.3343
3570.00,0.3344
3569.00,0.3345
3568.00,0.3347
3567.00,0.3348
3566.00,0.3350
3565.00,0.3351
3564.00,0.3352
3563.00,0.3353
3562.00,0.3355
3561.00,0.3356
3560.00,0.3357
3559.00,0.3359
3558.00,0.3360
3557.00,0.3362
3556.00,0.3363
3555.00,0.3365
3554.00,0.3368
3553.00,0.3370
3552.00,0.3372
3551.00,0.3374
3550.00,0.3376
3549.00,0.3379
3548.00,0.3382
3547.00,0.3385
3546.00,0.3389
3545.00,0.3392
3544.00,0.3395
3543.00,0.3398
3542.00,0.3401
3541.00,0.3404
3540.00,0.3407
3539.00,0.3410
3538.00,0.3413
3537.00,0.3416
3536.00,0.3419
3535.00,0.3422
3534.00,0.3426
3533.00,0.3429
3532.00,0.3432
3531.00,0.3435
3530.00,0.3439
3529.00,0.3442
3528.00,0.3445
3527.00,0.3449
3526.00,0.3453
3525.00,0.3457
3524.00,0.3461
3523.00,0.3464
3522.00,0.3467
3521.00,0.3470
3520.00,0.3472
3519.00,0.3476
3518.00,0.3480
3517.00,0.3485
3516.00,0.3489
3515.00,0.3493
3514.00,0.3496
3513.00,0.3500
3512.00,0.3505
3511.00,0.3510
3510.00,0.3515
3509.00,0.3520
3508.00,0.3525
3507.00,0.3529
3506.00,0.3534
3505.00,0.3539
3504.00,0.3544
3503.00,0.3549
3502.00,0.3555
3501.00,0.3560
3500.00,0.3566
3499.00,0.3571
3498.00,0.3577
3497.00,0.3583
3496.00,0.3589
3495.00,0.3596
3494.00,0.3603
3493.00,0.3610
3492.00,0.3617
3491.00,0.3623
3490.00,0.3630
3489.00,0.3636
3488.00,0.3643
3487.00,0.3650
3486.00,0.3656
3485.00,0.3663
3484.00,0.3670
3483.00,0.3677
3482.00,0.3684
3481.00,0.3690
3480.00,0.3696
3479.00,0.3701
3478.00,0.3706
3477.00,0.3712
3476.00,0.3718
3475.00,0.3723
3474.00,0.3729
3473.00,0.3735
3472.00,0.3742
3471.00,0.3748
3470.00,0.3755
3469.00,0.3762
3468.00,0.3769
3467.00,0.3775
3466.00,0.3782
3465.00,0.3790
3464.00,0.3798
3463.00,0.3806
3462.00,0.3814
3461.00,0.3822
3460.00,0.3830
3459.00,0.3838
3458.00,0.3846
3457.00,0.3854
3456.00,0.3862
3455.00,0.3870
3454.00,0.3879
3453.00,0.3887
3452.00,0.3896
3451.00,0.3906
3450.00,0.3915
3449.00,0.3926
3448.00,0.3936
3447.00,0.3947
3446.00,0.3958
3445.00,0.3969
3444.00,0.3980
3443.00,0.3992
3442.00,0.4004
3441.00,0.4015
3440.00,0.4027
3439.00,0.4037
3438.00,0.4048
3437.00,0.4058
3436.00,0.4068
3435.00,0.4077
3434.00,0.4086
3433.00,0.4094
3432.00,0.4102
3431.00,0.4110
3430.00,0.4119
3429.00,0.4128
3428.00,0.4138
3427.00,0.4147
3426.00,0.4156
3425.00,0.4165
3424.00,0.4174
3423.00,0.4184
3422.00,0.4194
3421.00,0.4204
3420.00,0.4215
3419.00,0.4226
3418.00,0.4237
3417.00,0.4249
3416.00,0.4261
3415.00,0.4273
3414.00,0.4285
3413.00,0.4297
3412.00,0.4309
3411.00,0.4321
3410.00,0.4334
3409.00,0.4347
3408.00,0.4360
3407.00,0.4373
3406.00,0.4386
3405.00,0.4401
3404.00,0.4417
3403.00,0.4432
3402.00,0.4447
3401.00,0.4461
3400.00,0.4474
3399.00,0.4488
3398.00,0.4503
3397.00,0.4518
3396.00,0.4532
3395.00,0.4547
3394.00,0.4562
3393.00,0.4577
3392.00,0.4592
3391.00,0.4607
3390.00,0.4622
3389.00,0.4637
3388.00,0.4652
3387.00,0.4667
3386.00,0.4682
3385.00,0.4697
3384.00,0.4714
3383.00,0.4730
3382.00,0.4747
3381.00,0.4764
3380.00,0.4781
3379.00,0.4798
3378.00,0.4816
3377.00,0.4833
3376.00,0.4850
3375.00,0.4868
3374.00,0.4886
3373.00,0.4904
3372.00,0.4924
3371.00,0.4944
3370.00,0.4964
3369.00,0.4985
3368.00,0.5005
3367.00,0.5026
3366.00,0.5047
3365.00,0.5069
3364.00,0.5091
3363.00,0.5113
3362.00,0.5135
3361.00,0.5158
3360.00,0.5180
3359.00,0.5203
3358.00,0.5225
3357.00,0.5247
3356.00,0.5270
3355.00,0.5293
3354.00,0.5316
3353.00,0.5338
3352.00,0.5360
3351.00,0.5382
3350.00,0.5403
3349.00,0.5424
3348.00,0.5444
3347.00,0.5463
3346.00,0.5482
3345.00,0.5501
3344.00,0.5519
3343.00,0.5537
3342.00,0.5554
3341.00,0.5570
3340.00,0.5585
3339.00,0.5599
3338.00,0.5612
3337.00,0.5625
3336.00,0.5636
3335.00,0.5645
3334.00,0.5653
3333.00,0.5661
3332.00,0.5667
3331.00,0.5672
3330.00,0.5675
3329.00,0.5678
3328.00,0.5679
3327.00,0.5678
3326.00,0.5676
3325.00,0.5674
3324.00,0.5672
3323.00,0.5669
3322.00,0.5664
3321.00,0.5658
3320.00,0.5651
3319.00,0.5641
3318.00,0.5631
3317.00,0.5621
3316.00,0.5611
3315.00,0.5601
3314.00,0.5590
3313.00,0.5579
3312.00,0.5568
3311.00,0.5557
3310.00,0.5546
3309.00,0.5534
3308.00,0.5521
3307.00,0.5508
3306.00,0.5495
3305.00,0.5483
3304.00,0.5470
3303.00,0.5459
3302.00,0.5448
3301.00,0.5438
3300.00,0.5430
3299.00,0.5421
3298.00,0.5412
3297.00,0.5404
3296.00,0.5396
3295.00,0.5388
3294.00,0.5380
3293.00,0.5374
3292.00,0.5368
3291.00,0.5362
3290.00,0.5358
3289.00,0.5355
3288.00,0.5351
3287.00,0.5348
3286.00,0.5345
3285.00,0.5343
3284.00,0.5343
3283.00,0.5343
3282.00,0.5343
3281.00,0.5344
3280.00,0.5345
3279.00,0.5345
3278.00,0.5346
3277.00,0.5348
3276.00,0.5351
3275.00,0.5353
3274.00,0.5356
3273.00,0.5359
3272.00,0.5364
3271.00,0.5368
3270.00,0.5373
3269.00,0.5378
3268.00,0.5383
3267.00,0.5388
3266.00,0.5394
3265.00,0.5400
3264.00,0.5405
3263.00,0.5409
3262.00,0.5414
3261.00,0.5420
3260.00,0.5426
3259.00,0.5431
3258.00,0.5437
3257.00,0.5442
3256.00,0.5447
3255.00,0.5451
3254.00,0.5456
3253.00,0.5461
3252.00,0.5465
3251.00,0.5469
3250.00,0.5472
3249.00,0.5475
3248.00,0.5478
3247.00,0.5479
3246.00,0.5480
3245.00,0.5481
3244.00,0.5481
3243.00,0.5482
3242.00,0.5482
3241.00,0.5482
3240.00,0.5483
3239.00,0.5482
3238.00,0.5482
3237.00,0.5480
3236.00,0.5478
3235.00,0.5475
3234.00,0.5472
3233.00,0.5468
3232.00,0.5465
3231.00,0.5461
3230.00,0.5456
3229.00,0.5451
3228.00,0.5445
3227.00,0.5439
3226.00,0.5434
3225.00,0.5428
3224.00,0.5422
3223.00,0.5416
3222.00,0.5409
3221.00,0.5401
3220.00,0.5394
3219.00,0.5386
3218.00,0.5378
3217.00,0.5370
3216.00,0.5362
3215.00,0.5354
3214.00,0.5345
3213.00,0.5337
3212.00,0.5329
3211.00,0.5321
3210.00,0.5312
3209.00,0.5304
3208.00,0.5295
3207.00,0.5287
3206.00,0.5278
3205.00,0.5269
3204.00,0.5261
3203.00,0.5254
3202.00,0.5246
3201.00,0.5238
3200.00,0.5229
3199.00,0.5221
3198.00,0.5212
3197.00,0.5204
3196.00,0.5195
3195.00,0.5186
3194.00,0.5177
3193.00,0.5168
3192.00,0.5159
3191.00,0.5149
3190.00,0.5139
3189.00,0.5130
3188.00,0.5120
3187.00,0.5111
3186.00,0.5101
3185.00,0.5092
3184.00,0.5082
3183.00,0.5071
3182.00,0.5061
3181.00,0.5051
3180.00,0.5040
3179.00,0.5030
3178.00,0.5019
3177.00,0.5008
3176.00,0.4996
3175.00,0.4985
3174.00,0.4974
3173.00,0.4963
3172.00,0.4953
3171.00,0.4942
3170.00,0.4931
3169.00,0.4921
3168.00,0.4911
3167.00,0.4901
3166.00,0.4891
3165.00,0.4881
3164.00,0.4870
3163.00,0.4860
3162.00,0.4850
3161.00,0.4840
3160.00,0.4830
3159.00,0.4819
3158.00,0.4810
3157.00,0.4800
3156.00,0.4791
3155.00,0.4781
3154.00,0.4771
3153.00,0.4761
3152.00,0.4751
3151.00,0.4742
3150.00,0.4733
3149.00,0.4725
3148.00,0.4717
3147.00,0.4709
3146.00,0.4701
3145.00,0.4693
3144.00,0.4685
3143.00,0.4677
3142.00,0.4669
3141.00,0.4662
3140.00,0.4656
3139.00,0.4650
3138.00,0.4644
3137.00,0.4638
3136.00,0.4633
3135.00,0.4628
3134.00,0.4623
3133.00,0.4619
3132.00,0.4615
3131.00,0.4612
3130.00,0.4608
3129.00,0.4605
3128.00,0.4602
3127.00,0.4599
3126.00,0.4596
3125.00,0.4594
3124.00,0.4593
3123.00,0.4592
3122.00,0.4592
3121.00,0.4592
3120.00,0.4592
3119.00,0.4592
3118.00,0.4592
3117.00,0.4593
3116.00,0.4594
3115.00,0.4595
3114.00,0.4598
3113.00,0.4601
3112.00,0.4604
3111.00,0.4608
3110.00,0.4613
3109.00,0.4619
3108.00,0.4626
3107.00,0.4633
3106.00,0.4641
3105.00,0.4649
3104.00,0.4657
3103.00,0.4665
3102.00,0.4673
3101.00,0.4682
3100.00,0.4691
3099.00,0.4701
3098.00,0.4711
3097.00,0.4721
3096.00,0.4731
3095.00,0.4742
3094.00,0.4754
3093.00,0.4768
3092.00,0.4783
3091.00,0.4799
3090.00,0.4818
3089.00,0.4837
3088.00,0.4858
3087.00,0.4880
3086.00,0.4902
3085.00,0.4925
3084.00,0.4950
3083.00,0.4975
3082.00,0.5003
3081.00,0.5032
3080.00,0.5062
3079.00,0.5095
3078.00,0.5129
3077.00,0.5164
3076.00,0.5200
3075.00,0.5236
3074.00,0.5273
3073.00,0.5310
3072.00,0.5348
3071.00,0.5386
3070.00,0.5425
3069.00,0.5464
3068.00,0.5503
3067.00,0.5542
3066.00,0.5579
3065.00,0.5614
3064.00,0.5648
3063.00,0.5680
3062.00,0.5712
3061.00,0.5743
3060.00,0.5773
3059.00,0.5802
3058.00,0.5831
3057.00,0.5860
3056.00,0.5890
3055.00,0.5919
3054.00,0.5950
3053.00,0.5981
3052.00,0.6013
3051.00,0.6048
3050.00,0.6084
3049.00,0.6123
3048.00,0.6163
3047.00,0.6206
3046.00,0.6249
3045.00,0.6292
3044.00,0.6335
3043.00,0.6378
3042.00,0.6422
3041.00,0.6467
3040.00,0.6511
3039.00,0.6557
3038.00,0.6605
3037.00,0.6655
3036.00,0.6709
3035.00,0.6766
3034.00,0.6827
3033.00,0.6892
3032.00,0.6959
3031.00,0.7030
3030.00,0.7102
3029.00,0.7177
3028.00,0.7255
3027.00,0.7335
3026.00,0.7420
3025.00,0.7509
3024.00,0.7600
3023.00,0.7694
3022.00,0.7790
3021.00,0.7888
3020.00,0.7990
3019.00,0.8094
3018.00,0.8203
3017.00,0.8313
3016.00,0.8426
3015.00,0.8542
3014.00,0.8662
3013.00,0.8785
3012.00,0.8915
3011.00,0.9051
3010.00,0.9195
3009.00,0.9346
3008.00,0.9504
3007.00,0.9668
3006.00,0.9839
3005.00,1.0017
3004.00,1.0201
3003.00,1.0390
3002.00,1.0588
3001.00,1.0794
3000.00,1.1011
2999.00,1.1241
2998.00,1.1486
2997.00,1.1750
2996.00,1.2034
2995.00,1.2345
2994.00,1.2687
2993.00,1.3066
2992.00,1.3485
2991.00,1.3948
2990.00,1.4459
2989.00,1.5023
2988.00,1.5642
2987.00,1.6324
2986.00,1.7077
2985.00,1.7914
2984.00,1.8844
2983.00,1.9874
2982.00,2.1004
2981.00,2.2230
2980.00,2.3550
2979.00,2.4975
2978.00,2.6517
2977.00,2.8169
2976.00,2.9989
2975.00,3.2179
2974.00,3.5159
2973.00,3.9041
2972.00,4.1076
2971.00,3.9878
2970.00,3.8989
2969.00,3.9606
2968.00,4.1495
2967.00,4.4039
2966.00,4.4441
2965.00,4.2997
2964.00,4.2523
2963.00,4.2776
2962.00,4.3527
2961.00,4.3044
2960.00,4.0493
2959.00,3.8128
2958.00,3.6774
2957.00,3.6916
2956.00,3.8067
2955.00,4.0507
2954.00,4.4702
2953.00,4.2938
2952.00,4.0119
2951.00,3.8752
2950.00,3.9169
2949.00,3.9534
2948.00,3.9084
2947.00,3.8760
2946.00,3.9303
2945.00,4.0980
2944.00,3.9994
2943.00,3.7659
2942.00,3.6531
2941.00,3.7316
2940.00,4.0302
2939.00,4.4066
2938.00,4.5415
2937.00,4.5827
2936.00,4.3069
2935.00,4.0466
2934.00,3.8705
2933.00,3.8527
2932.00,3.9871
2931.00,4.0868
2930.00,4.0160
2929.00,3.8888
2928.00,3.8698
2927.00,3.9890
2926.00,4.0876
2925.00,4.0708
2924.00,4.0654
2923.00,4.1321
2922.00,4.2456
2921.00,4.2472
2920.00,4.0523
2919.00,3.8449
2918.00,3.7661
2917.00,3.7961
2916.00,3.9850
2915.00,4.3947
2914.00,4.9125
2913.00,4.9354
2912.00,4.3030
2911.00,4.1709
2910.00,4.1821
2909.00,4.3724
2908.00,4.6309
2907.00,4.4506
2906.00,4.2177
2905.00,3.9753
2904.00,3.8271
2903.00,3.7813
2902.00,3.8315
2901.00,3.9627
2900.00,4.0993
2899.00,4.2002
2898.00,4.3004
2897.00,4.3071
2896.00,4.2223
2895.00,4.0559
2894.00,3.8989
2893.00,3.8145
2892.00,3.8421
2891.00,3.9896
2890.00,4.0603
2889.00,3.9690
2888.00,3.9081
2887.00,3.9875
2886.00,4.1907
2885.00,4.2537
2884.00,4.1324
2883.00,4.0820
2882.00,4.1425
2881.00,4.1884
2880.00,4.2131
2879.00,4.2432
2878.00,4.2525
2877.00,4.2323
2876.00,4.3134
2875.00,4.6446
2874.00,4.6726
2873.00,4.2216
2872.00,3.9110
2871.00,3.7694
2870.00,3.7254
2869.00,3.7198
2868.00,3.7523
2867.00,3.8188
2866.00,3.8704
2865.00,3.8248
2864.00,3.7150
2863.00,3.6340
2862.00,3.6160
2861.00,3.6671
2860.00,3.7919
2859.00,3.9423
2858.00,4.0420
2857.00,4.1163
2856.00,4.1547
2855.00,4.1133
2854.00,4.0617
2853.00,4.1310
2852.00,4.3456
2851.00,4.5674
2850.00,4.5632
2849.00,4.3223
2848.00,4.1505
2847.00,4.1029
2846.00,4.1567
2845.00,4.2186
2844.00,4.3593
2843.00,4.4689
2842.00,4.4102
2841.00,4.3542
2840.00,4.0057
2839.00,3.6825
2838.00,3.4254
2837.00,3.2229
2836.00,3.0189
2835.00,2.8140
2834.00,2.6270
2833.00,2.4571
2832.00,2.3049
2831.00,2.1698
2830.00,2.0500
2829.00,1.9434
2828.00,1.8480
2827.00,1.7623
2826.00,1.6850
2825.00,1.6150
2824.00,1.5516
2823.00,1.4939
2822.00,1.4411
2821.00,1.3925
2820.00,1.3474
2819.00,1.3058
2818.00,1.2673
2817.00,1.2318
2816.00,1.1987
2815.00,1.1677
2814.00,1.1384
2813.00,1.1108
2812.00,1.0848
2811.00,1.0604
2810.00,1.0373
2809.00,1.0153
2808.00,0.9943
2807.00,0.9743
2806.00,0.9553
2805.00,0.9371
2804.00,0.9198
2803.00,0.9032
2802.00,0.8873
2801.00,0.8720
2800.00,0.8574
2799.00,0.8435
2798.00,0.8301
2797.00,0.8173
2796.00,0.8048
2795.00,0.7929
2794.00,0.7814
2793.00,0.7703
2792.00,0.7595
2791.00,0.7490
2790.00,0.7388
2789.00,0.7287
2788.00,0.7188
2787.00,0.7091
2786.00,0.6996
2785.00,0.6904
2784.00,0.6814
2783.00,0.6728
2782.00,0.6644
2781.00,0.6563
2780.00,0.6485
2779.00,0.6411
2778.00,0.6339
2777.00,0.6272
2776.00,0.6207
2775.00,0.6147
2774.00,0.6091
2773.00,0.6038
2772.00,0.5989
2771.00,0.5943
2770.00,0.5900
2769.00,0.5861
2768.00,0.5827
2767.00,0.5797
2766.00,0.5770
2765.00,0.5746
2764.00,0.5726
2763.00,0.5708
2762.00,0.5692
2761.00,0.5678
2760.00,0.5666
2759.00,0.5654
2758.00,0.5642
2757.00,0.5631
2756.00,0.5620
2755.00,0.5611
2754.00,0.5603
2753.00,0.5596
2752.00,0.5591
2751.00,0.5588
2750.00,0.5588
2749.00,0.5590
2748.00,0.5595
2747.00,0.5602
2746.00,0.5610
2745.00,0.5620
2744.00,0.5633
2743.00,0.5649
2742.00,0.5668
2741.00,0.5692
2740.00,0.5719
2739.00,0.5749
2738.00,0.5784
2737.00,0.5823
2736.00,0.5867
2735.00,0.5914
2734.00,0.5963
2733.00,0.6011
2732.00,0.6053
2731.00,0.6086
2730.00,0.6108
2729.00,0.6119
2728.00,0.6119
2727.00,0.6110
2726.00,0.6093
2725.00,0.6072
2724.00,0.6048
2723.00,0.6022
2722.00,0.5995
2721.00,0.5965
2720.00,0.5934
2719.00,0.5900
2718.00,0.5865
2717.00,0.5828
2716.00,0.5789
2715.00,0.5748
2714.00,0.5707
2713.00,0.5666
2712.00,0.5627
2711.00,0.5592
2710.00,0.5561
2709.00,0.5534
2708.00,0.5510
2707.00,0.5490
2706.00,0.5473
2705.00,0.5460
2704.00,0.5449
2703.00,0.5440
2702.00,0.5433
2701.00,0.5429
2700.00,0.5426
2699.00,0.5426
2698.00,0.5429
2697.00,0.5434
2696.00,0.5441
2695.00,0.5449
2694.00,0.5458
2693.00,0.5469
2692.00,0.5480
2691.00,0.5491
2690.00,0.5503
2689.00,0.5515
2688.00,0.5527
2687.00,0.5538
2686.00,0.5546
2685.00,0.5553
2684.00,0.5558
2683.00,0.5563
2682.00,0.5568
2681.00,0.5572
2680.00,0.5575
2679.00,0.5578
2678.00,0.5581
2677.00,0.5584
2676.00,0.5587
2675.00,0.5590
2674.00,0.5594
2673.00,0.5596
2672.00,0.5597
2671.00,0.5595
2670.00,0.5590
2669.00,0.5582
2668.00,0.5571
2667.00,0.5556
2666.00,0.5539
2665.00,0.5519
2664.00,0.5498
2663.00,0.5476
2662.00,0.5453
2661.00,0.5431
2660.00,0.5407
2659.00,0.5383
2658.00,0.5358
2657.00,0.5335
2656.00,0.5313
2655.00,0.5292
2654.00,0.5273
2653.00,0.5254
2652.00,0.5236
2651.00,0.5218
2650.00,0.5201
2649.00,0.5185
2648.00,0.5169
2647.00,0.5155
2646.00,0.5141
2645.00,0.5127
2644.00,0.5113
2643.00,0.5100
2642.00,0.5087
2641.00,0.5075
2640.00,0.5063
2639.00,0.5051
2638.00,0.5041
2637.00,0.5030
2636.00,0.5020
2635.00,0.5010
2634.00,0.5001
2633.00,0.4992
2632.00,0.4983
2631.00,0.4973
2630.00,0.4963
2629.00,0.4953
2628.00,0.4942
2627.00,0.4932
2626.00,0.4922
2625.00,0.4913
2624.00,0.4902
2623.00,0.4891
2622.00,0.4880
2621.00,0.4869
2620.00,0.4859
2619.00,0.4850
2618.00,0.4840
2617.00,0.4831
2616.00,0.4821
2615.00,0.4810
2614.00,0.4800
2613.00,0.4791
2612.00,0.4781
2611.00,0.4771
2610.00,0.4761
2609.00,0.4751
2608.00,0.4740
2607.00,0.4730
2606.00,0.4720
2605.00,0.4711
2604.00,0.4701
2603.00,0.4692
2602.00,0.4681
2601.00,0.4669
2600.00,0.4657
2599.00,0.4644
2598.00,0.4630
2597.00,0.4615
2596.00,0.4600
2595.00,0.4584
2594.00,0.4568
2593.00,0.4552
2592.00,0.4535
2591.00,0.4519
2590.00,0.4502
2589.00,0.4487
2588.00,0.4471
2587.00,0.4455
2586.00,0.4439
2585.00,0.4422
2584.00,0.4406
2583.00,0.4389
2582.00,0.4372
2581.00,0.4354
2580.00,0.4336
2579.00,0.4318
2578.00,0.4301
2577.00,0.4284
2576.00,0.4268
2575.00,0.4252
2574.00,0.4237
2573.00,0.4222
2572.00,0.4208
2571.00,0.4194
2570.00,0.4181
2569.00,0.4168
2568.00,0.4155
2567.00,0.4141
2566.00,0.4128
2565.00,0.4115
2564.00,0.4101
2563.00,0.4087
2562.00,0.4074
2561.00,0.4061
2560.00,0.4048
2559.00,0.4035
2558.00,0.4022
2557.00,0.4011
2556.00,0.3999
2555.00,0.3987
2554.00,0.3976
2553.00,0.3965
2552.00,0.3954
2551.00,0.3944
2550.00,0.3933
2549.00,0.3924
2548.00,0.3915
2547.00,0.3906
2546.00,0.3897
2545.00,0.3888
2544.00,0.3880
2543.00,0.3871
2542.00,0.3863
2541.00,0.3856
2540.00,0.3849
2539.00,0.3841
2538.00,0.3834
2537.00,0.3828
2536.00,0.3822
2535.00,0.3816
2534.00,0.3810
2533.00,0.3803
2532.00,0.3796
2531.00,0.3788
2530.00,0.3779
2529.00,0.3769
2528.00,0.3759
2527.00,0.3748
2526.00,0.3738
2525.00,0.3728
2524.00,0.3718
2523.00,0.3708
2522.00,0.3697
2521.00,0.3687
2520.00,0.3677
2519.00,0.3668
2518.00,0.3658
2517.00,0.3650
2516.00,0.3641
2515.00,0.3632
2514.00,0.3623
2513.00,0.3615
2512.00,0.3606
2511.00,0.3598
2510.00,0.3591
2509.00,0.3584
2508.00,0.3579
2507.00,0.3573
2506.00,0.3568
2505.00,0.3563
2504.00,0.3558
2503.00,0.3555
2502.00,0.3551
2501.00,0.3549
2500.00,0.3546
2499.00,0.3543
2498.00,0.3540
2497.00,0.3537
2496.00,0.3534
2495.00,0.3531
2494.00,0.3528
2493.00,0.3524
2492.00,0.3520
2491.00,0.3515
2490.00,0.3510
2489.00,0.3505
2488.00,0.3500
2487.00,0.3495
2486.00,0.3489
2485.00,0.3484
2484.00,0.3478
2483.00,0.3472
2482.00,0.3466
2481.00,0.3461
2480.00,0.3456
2479.00,0.3451
2478.00,0.3446
2477.00,0.3442
2476.00,0.3437
2475.00,0.3432
2474.00,0.3428
2473.00,0.3425
2472.00,0.3422
2471.00,0.3419
2470.00,0.3415
2469.00,0.3412
2468.00,0.3409
2467.00,0.3405
2466.00,0.3402
2465.00,0.3400
2464.00,0.3397
2463.00,0.3394
2462.00,0.3391
2461.00,0.3388
2460.00,0.3386
2459.00,0.3384
2458.00,0.3382
2457.00,0.3380
2456.00,0.3379
2455.00,0.3377
2454.00,0.3375
2453.00,0.3374
2452.00,0.3373
2451.00,0.3372
2450.00,0.3371
2449.00,0.3371
2448.00,0.3370
2447.00,0.3370
2446.00,0.3370
2445.00,0.3369
2444.00,0.3369
2443.00,0.3369
2442.00,0.3370
2441.00,0.3370
2440.00,0.3371
2439.00,0.3372
2438.00,0.3373
2437.00,0.3374
2436.00,0.3375
2435.00,0.3375
2434.00,0.3376
2433.00,0.3376
2432.00,0.3377
2431.00,0.3377
2430.00,0.3378
2429.00,0.3379
2428.00,0.3380
2427.00,0.3381
2426.00,0.3382
2425.00,0.3383
2424.00,0.3383
2423.00,0.3384
2422.00,0.3385
2421.00,0.3385
2420.00,0.3386
2419.00,0.3387
2418.00,0.3388
2417.00,0.3389
2416.00,0.3390
2415.00,0.3391
2414.00,0.3392
2413.00,0.3393
2412.00,0.3394
2411.00,0.3394
2410.00,0.3395
2409.00,0.3395
2408.00,0.3395
2407.00,0.3395
2406.00,0.3394
2405.00,0.3394
2404.00,0.3394
2403.00,0.3394
2402.00,0.3393
2401.00,0.3393
2400.00,0.3393
2399.00,0.3392
2398.00,0.3391
2397.00,0.3391
2396.00,0.3390
2395.00,0.3390
2394.00,0.3390
2393.00,0.3389
2392.00,0.3389
2391.00,0.3389
2390.00,0.3390
2389.00,0.3390
2388.00,0.3391
2387.00,0.3392
2386.00,0.3393
2385.00,0.3395
2384.00,0.3396
2383.00,0.3398
2382.00,0.3401
2381.00,0.3403
2380.00,0.3406
2379.00,0.3407
2378.00,0.3408
2377.00,0.3408
2376.00,0.3407
2375.00,0.3405
2374.00,0.3403
2373.00,0.3401
2372.00,0.3399
2371.00,0.3397
2370.00,0.3396
2369.00,0.3396
2368.00,0.3396
2367.00,0.3396
2366.00,0.3397
2365.00,0.3398
2364.00,0.3398
2363.00,0.3397
2362.00,0.3396
2361.00,0.3396
2360.00,0.3396
2359.00,0.3395
2358.00,0.3394
2357.00,0.3393
2356.00,0.3392
2355.00,0.3391
2354.00,0.3392
2353.00,0.3393
2352.00,0.3392
2351.00,0.3390
2350.00,0.3386
2349.00,0.3383
2348.00,0.3381
2347.00,0.3381
2346.00,0.3381
2345.00,0.3380
2344.00,0.3378
2343.00,0.3376
2342.00,0.3374
2341.00,0.3372
2340.00,0.3370
2339.00,0.3369
2338.00,0.3368
2337.00,0.3367
2336.00,0.3366
2335.00,0.3364
2334.00,0.3363
2333.00,0.3361
2332.00,0.3359
2331.00,0.3356
2330.00,0.3352
2329.00,0.3349
2328.00,0.3346
2327.00,0.3343
2326.00,0.3340
2325.00,0.3338
2324.00,0.3335
2323.00,0.3333
2322.00,0.3330
2321.00,0.3326
2320.00,0.3323
2319.00,0.3319
2318.00,0.3315
2317.00,0.3312
2316.00,0.3310
2315.00,0.3308
2314.00,0.3306
2313.00,0.3304
2312.00,0.3302
2311.00,0.3298
2310.00,0.3295
2309.00,0.3291
2308.00,0.3288
2307.00,0.3285
2306.00,0.3281
2305.00,0.3277
2304.00,0.3273
2303.00,0.3269
2302.00,0.3266
2301.00,0.3264
2300.00,0.3262
2299.00,0.3259
2298.00,0.3256
2297.00,0.3253
2296.00,0.3250
2295.00,0.3246
2294.00,0.3242
2293.00,0.3239
2292.00,0.3235
2291.00,0.3231
2290.00,0.3228
2289.00,0.3224
2288.00,0.3220
2287.00,0.3216
2286.00,0.3213
2285.00,0.3209
2284.00,0.3205
2283.00,0.3202
2282.00,0.3199
2281.00,0.3196
2280.00,0.3193
2279.00,0.3190
2278.00,0.3186
2277.00,0.3182
2276.00,0.3179
2275.00,0.3176
2274.00,0.3173
2273.00,0.3170
2272.00,0.3168
2271.00,0.3166
2270.00,0.3164
2269.00,0.3163
2268.00,0.3162
2267.00,0.3160
2266.00,0.3159
2265.00,0.3158
2264.00,0.3156
2263.00,0.3154
2262.00,0.3152
2261.00,0.3149
2260.00,0.3147
2259.00,0.3145
2258.00,0.3142
2257.00,0.3139
2256.00,0.3136
2255.00,0.3132
2254.00,0.3129
2253.00,0.3127
2252.00,0.3124
2251.00,0.3122
2250.00,0.3119
2249.00,0.3116
2248.00,0.3114
2247.00,0.3112
2246.00,0.3110
2245.00,0.3108
2244.00,0.3105
2243.00,0.3103
2242.00,0.3101
2241.00,0.3100
2240.00,0.3098
2239.00,0.3096
2238.00,0.3094
2237.00,0.3093
2236.00,0.3091
2235.00,0.3089
2234.00,0.3087
2233.00,0.3085
2232.00,0.3083
2231.00,0.3082
2230.00,0.3080
2229.00,0.3079
2228.00,0.3078
2227.00,0.3076
2226.00,0.3074
2225.00,0.3072
2224.00,0.3070
2223.00,0.3069
2222.00,0.3068
2221.00,0.3067
2220.00,0.3067
2219.00,0.3066
2218.00,0.3065
2217.00,0.3065
2216.00,0.3065
2215.00,0.3064
2214.00,0.3064
2213.00,0.3063
2212.00,0.3063
2211.00,0.3063
2210.00,0.3063
2209.00,0.3063
2208.00,0.3063
2207.00,0.3063
2206.00,0.3063
2205.00,0.3063
2204.00,0.3063
2203.00,0.3062
2202.00,0.3062
2201.00,0.3062
2200.00,0.3062
2199.00,0.3062
2198.00,0.3062
2197.00,0.3061
2196.00,0.3061
2195.00,0.3062
2194.00,0.3062
2193.00,0.3062
2192.00,0.3063
2191.00,0.3063
2190.00,0.3064
2189.00,0.3064
2188.00,0.3065
2187.00,0.3065
2186.00,0.3065
2185.00,0.3065
2184.00,0.3065
2183.00,0.3066
2182.00,0.3066
2181.00,0.3066
2180.00,0.3065
2179.00,0.3064
2178.00,0.3064
2177.00,0.3063
2176.00,0.3063
2175.00,0.3062
2174.00,0.3061
2173.00,0.3059
2172.00,0.3058
2171.00,0.3057
2170.00,0.3056
2169.00,0.3056
2168.00,0.3055
2167.00,0.3054
2166.00,0.3053
2165.00,0.3052
2164.00,0.3050
2163.00,0.3049
2162.00,0.3047
2161.00,0.3045
2160.00,0.3044
2159.00,0.3042
2158.00,0.3040
2157.00,0.3039
2156.00,0.3038
2155.00,0.3037
2154.00,0.3036
2153.00,0.3035
2152.00,0.3034
2151.00,0.3032
2150.00,0.3031
2149.00,0.3029
2148.00,0.3026
2147.00,0.3023
2146.00,0.3019
2145.00,0.3015
2144.00,0.3010
2143.00,0.3005
2142.00,0.3000
2141.00,0.2995
2140.00,0.2991
2139.00,0.2986
2138.00,0.2982
2137.00,0.2977
2136.00,0.2974
2135.00,0.2970
2134.00,0.2967
2133.00,0.2963
2132.00,0.2960
2131.00,0.2958
2130.00,0.2955
2129.00,0.2953
2128.00,0.2951
2127.00,0.2949
2126.00,0.2947
2125.00,0.2945
2124.00,0.2943
2123.00,0.2941
2122.00,0.2940
2121.00,0.2939
2120.00,0.2938
2119.00,0.2938
2118.00,0.2937
2117.00,0.2937
2116.00,0.2937
2115.00,0.2936
2114.00,0.2936
2113.00,0.2935
2112.00,0.2935
2111.00,0.2934
2110.00,0.2934
2109.00,0.2933
2108.00,0.2933
2107.00,0.2932
2106.00,0.2932
2105.00,0.2931
2104.00,0.2931
2103.00,0.2930
2102.00,0.2929
2101.00,0.2928
2100.00,0.2927
2099.00,0.2926
2098.00,0.2925
2097.00,0.2924
2096.00,0.2924
2095.00,0.2923
2094.00,0.2922
2093.00,0.2921
2092.00,0.2921
2091.00,0.2921
2090.00,0.2920
2089.00,0.2920
2088.00,0.2919
2087.00,0.2919
2086.00,0.2919
2085.00,0.2919
2084.00,0.2919
2083.00,0.2920
2082.00,0.2920
2081.00,0.2921
2080.00,0.2922
2079.00,0.2922
2078.00,0.2922
2077.00,0.2922
2076.00,0.2923
2075.00,0.2923
2074.00,0.2924
2073.00,0.2924
2072.00,0.2925
2071.00,0.2926
2070.00,0.2926
2069.00,0.2927
2068.00,0.2928
2067.00,0.2930
2066.00,0.2931
2065.00,0.2933
2064.00,0.2934
2063.00,0.2934
2062.00,0.2934
2061.00,0.2935
2060.00,0.2935
2059.00,0.2935
2058.00,0.2936
2057.00,0.2936
2056.00,0.2937
2055.00,0.2938
2054.00,0.2939
2053.00,0.2941
2052.00,0.2943
2051.00,0.2944
2050.00,0.2947
2049.00,0.2949
2048.00,0.2952
2047.00,0.2954
2046.00,0.2956
2045.00,0.2959
2044.00,0.2962
2043.00,0.2965
2042.00,0.2968
2041.00,0.2970
2040.00,0.2972
2039.00,0.2973
2038.00,0.2974
2037.00,0.2975
2036.00,0.2976
2035.00,0.2977
2034.00,0.2978
2033.00,0.2979
2032.00,0.2980
2031.00,0.2980
2030.00,0.2979
2029.00,0.2980
2028.00,0.2980
2027.00,0.2980
2026.00,0.2979
2025.00,0.2979
2024.00,0.2977
2023.00,0.2974
2022.00,0.2971
2021.00,0.2967
2020.00,0.2963
2019.00,0.2959
2018.00,0.2953
2017.00,0.2947
2016.00,0.2940
2015.00,0.2932
2014.00,0.2923
2013.00,0.2914
2012.00,0.2906
2011.00,0.2899
2010.00,0.2893
2009.00,0.2888
2008.00,0.2884
2007.00,0.2880
2006.00,0.2876
2005.00,0.2873
2004.00,0.2870
2003.00,0.2868
2002.00,0.2866
2001.00,0.2865
2000.00,0.2863
1999.00,0.2862
1998.00,0.2862
1997.00,0.2861
1996.00,0.2860
1995.00,0.2860
1994.00,0.2861
1993.00,0.2861
1992.00,0.2862
1991.00,0.2862
1990.00,0.2862
1989.00,0.2860
1988.00,0.2858
1987.00,0.2855
1986.00,0.2852
1985.00,0.2851
1984.00,0.2849
1983.00,0.2847
1982.00,0.2846
1981.00,0.2845
1980.00,0.2844
1979.00,0.2843
1978.00,0.2843
1977.00,0.2843
1976.00,0.2843
1975.00,0.2843
1974.00,0.2843
1973.00,0.2843
1972.00,0.2844
1971.00,0.2844
1970.00,0.2846
1969.00,0.2848
1968.00,0.2851
1967.00,0.2853
1966.00,0.2855
1965.00,0.2855
1964.00,0.2853
1963.00,0.2851
1962.00,0.2850
1961.00,0.2850
1960.00,0.2852
1959.00,0.2853
1958.00,0.2854
1957.00,0.2856
1956.00,0.2857
1955.00,0.2859
1954.00,0.2861
1953.00,0.2863
1952.00,0.2864
1951.00,0.2865
1950.00,0.2865
1949.00,0.2867
1948.00,0.2868
1947.00,0.2870
1946.00,0.2873
1945.00,0.2878
1944.00,0.2883
1943.00,0.2889
1942.00,0.2895
1941.00,0.2900
1940.00,0.2903
1939.00,0.2903
1938.00,0.2902
1937.00,0.2899
1936.00,0.2898
1935.00,0.2897
1934.00,0.2896
1933.00,0.2895
1932.00,0.2895
1931.00,0.2895
1930.00,0.2895
1929.00,0.2895
1928.00,0.2895
1927.00,0.2896
1926.00,0.2897
1925.00,0.2900
1924.00,0.2905
1923.00,0.2910
1922.00,0.2915
1921.00,0.2921
1920.00,0.2925
1919.00,0.2927
1918.00,0.2928
1917.00,0.2930
1916.00,0.2932
1915.00,0.2933
1914.00,0.2931
1913.00,0.2929
1912.00,0.2925
1911.00,0.2926
1910.00,0.2925
1909.00,0.2926
1908.00,0.2933
1907.00,0.2932
1906.00,0.2930
1905.00,0.2928
1904.00,0.2926
1903.00,0.2925
1902.00,0.2924
1901.00,0.2923
1900.00,0.2923
1899.00,0.2923
1898.00,0.2924
1897.00,0.2926
1896.00,0.2928
1895.00,0.2930
1894.00,0.2931
1893.00,0.2933
1892.00,0.2936
1891.00,0.2938
1890.00,0.2940
1889.00,0.2943
1888.00,0.2946
1887.00,0.2948
1886.00,0.2947
1885.00,0.2945
1884.00,0.2943
1883.00,0.2943
1882.00,0.2943
1881.00,0.2943
1880.00,0.2943
1879.00,0.2942
1878.00,0.2941
1877.00,0.2938
1876.00,0.2937
1875.00,0.2934
1874.00,0.2932
1873.00,0.2930
1872.00,0.2928
1871.00,0.2925
1870.00,0.2923
1869.00,0.2922
1868.00,0.2920
1867.00,0.2917
1866.00,0.2913
1865.00,0.2910
1864.00,0.2907
1863.00,0.2904
1862.00,0.2900
1861.00,0.2898
1860.00,0.2895
1859.00,0.2893
1858.00,0.2890
1857.00,0.2887
1856.00,0.2885
1855.00,0.2883
1854.00,0.2882
1853.00,0.2881
1852.00,0.2881
1851.00,0.2880
1850.00,0.2880
1849.00,0.2879
1848.00,0.2879
1847.00,0.2879
1846.00,0.2879
1845.00,0.2880
1844.00,0.2880
1843.00,0.2879
1842.00,0.2878
1841.00,0.2876
1840.00,0.2875
1839.00,0.2874
1838.00,0.2873
1837.00,0.2873
1836.00,0.2872
1835.00,0.2872
1834.00,0.2870
1833.00,0.2869
1832.00,0.2869
1831.00,0.2868
1830.00,0.2868
1829.00,0.2868
1828.00,0.2868
1827.00,0.2867
1826.00,0.2866
1825.00,0.2867
1824.00,0.2868
1823.00,0.2868
1822.00,0.2868
1821.00,0.2869
1820.00,0.2870
1819.00,0.2870
1818.00,0.2872
1817.00,0.2877
1816.00,0.2880
1815.00,0.2882
1814.00,0.2885
1813.00,0.2889
1812.00,0.2894
1811.00,0.2898
1810.00,0.2901
1809.00,0.2905
1808.00,0.2909
1807.00,0.2912
1806.00,0.2915
1805.00,0.2919
1804.00,0.2926
1803.00,0.2936
1802.00,0.2947
1801.00,0.2957
1800.00,0.2966
1799.00,0.2968
1798.00,0.2955
1797.00,0.2962
1796.00,0.2965
1795.00,0.2970
1794.00,0.2973
1793.00,0.2979
1792.00,0.2984
1791.00,0.2990
1790.00,0.2994
1789.00,0.2998
1788.00,0.3003
1787.00,0.3007
1786.00,0.3012
1785.00,0.3017
1784.00,0.3022
1783.00,0.3028
1782.00,0.3033
1781.00,0.3039
1780.00,0.3047
1779.00,0.3052
1778.00,0.3061
1777.00,0.3081
1776.00,0.3086
1775.00,0.3097
1774.00,0.3110
1773.00,0.3123
1772.00,0.3136
1771.00,0.3150
1770.00,0.3163
1769.00,0.3170
1768.00,0.3172
1767.00,0.3173
1766.00,0.3177
1765.00,0.3184
1764.00,0.3193
1763.00,0.3203
1762.00,0.3218
1761.00,0.3237
1760.00,0.3260
1759.00,0.3282
1758.00,0.3303
1757.00,0.3326
1756.00,0.3354
1755.00,0.3390
1754.00,0.3433
1753.00,0.3486
1752.00,0.3554
1751.00,0.3642
1750.00,0.3748
1749.00,0.3865
1748.00,0.3990
1747.00,0.4122
1746.00,0.4263
1745.00,0.4414
1744.00,0.4567
1743.00,0.4713
1742.00,0.4842
1741.00,0.4952
1740.00,0.5039
1739.00,0.5104
1738.00,0.5155
1737.00,0.5196
1736.00,0.5229
1735.00,0.5254
1734.00,0.5274
1733.00,0.5289
1732.00,0.5283
1731.00,0.5235
1730.00,0.5144
1729.00,0.5027
1728.00,0.4896
1727.00,0.4759
1726.00,0.4623
1725.00,0.4492
1724.00,0.4372
1723.00,0.4268
1722.00,0.4185
1721.00,0.4123
1720.00,0.4078
1719.00,0.4045
1718.00,0.4025
1717.00,0.4023
1716.00,0.4028
1715.00,0.4027
1714.00,0.4019
1713.00,0.4012
1712.00,0.4012
1711.00,0.4017
1710.00,0.4024
1709.00,0.4034
1708.00,0.4042
1707.00,0.4045
1706.00,0.4039
1705.00,0.4028
1704.00,0.4016
1703.00,0.4001
1702.00,0.3976
1701.00,0.3932
1700.00,0.3885
1699.00,0.3862
1698.00,0.3856
1697.00,0.3838
1696.00,0.3802
1695.00,0.3762
1694.00,0.3733
1693.00,0.3710
1692.00,0.3685
1691.00,0.3660
1690.00,0.3645
1689.00,0.3639
1688.00,0.3647
1687.00,0.3642
1686.00,0.3599
1685.00,0.3599
1684.00,0.3591
1683.00,0.3586
1682.00,0.3579
1681.00,0.3578
1680.00,0.3576
1679.00,0.3578
1678.00,0.3576
1677.00,0.3585
1676.00,0.3611
1675.00,0.3613
1674.00,0.3627
1673.00,0.3644
1672.00,0.3658
1671.00,0.3665
1670.00,0.3674
1669.00,0.3689
1668.00,0.3707
1667.00,0.3721
1666.00,0.3730
1665.00,0.3740
1664.00,0.3752
1663.00,0.3770
1662.00,0.3794
1661.00,0.3823
1660.00,0.3850
1659.00,0.3872
1658.00,0.3894
1657.00,0.3922
1656.00,0.3961
1655.00,0.4009
1654.00,0.4064
1653.00,0.4127
1652.00,0.4189
1651.00,0.4235
1650.00,0.4254
1649.00,0.4262
1648.00,0.4283
1647.00,0.4323
1646.00,0.4373
1645.00,0.4424
1644.00,0.4465
1643.00,0.4496
1642.00,0.4524
1641.00,0.4558
1640.00,0.4600
1639.00,0.4647
1638.00,0.4697
1637.00,0.4753
1636.00,0.4813
1635.00,0.4868
1634.00,0.4914
1633.00,0.4952
1632.00,0.4982
1631.00,0.5008
1630.00,0.5039
1629.00,0.5080
1628.00,0.5129
1627.00,0.5181
1626.00,0.5234
1625.00,0.5291
1624.00,0.5352
1623.00,0.5417
1622.00,0.5486
1621.00,0.5562
1620.00,0.5642
1619.00,0.5729
1618.00,0.5836
1617.00,0.5974
1616.00,0.6133
1615.00,0.6290
1614.00,0.6438
1613.00,0.6592
1612.00,0.6766
1611.00,0.6961
1610.00,0.7168
1609.00,0.7380
1608.00,0.7589
1607.00,0.7779
1606.00,0.7951
1605.00,0.8125
1604.00,0.8316
1603.00,0.8530
1602.00,0.8773
1601.00,0.9066
1600.00,0.9421
1599.00,0.9840
1598.00,1.0337
1597.00,1.0951
1596.00,1.1722
1595.00,1.2663
1594.00,1.3793
1593.00,1.5174
1592.00,1.6887
1591.00,1.8943
1590.00,2.1294
1589.00,2.4090
1588.00,2.7882
1587.00,3.3131
1586.00,3.7037
1585.00,3.9753
1584.00,3.9769
1583.00,3.8726
1582.00,4.0072
1581.00,3.6681
1580.00,3.8033
1579.00,3.5465
1578.00,2.9309
1577.00,2.5208
1576.00,2.2230
1575.00,1.9922
1574.00,1.8207
1573.00,1.6994
1572.00,1.6134
1571.00,1.5534
1570.00,1.5228
1569.00,1.5309
1568.00,1.5795
1567.00,1.6634
1566.00,1.7818
1565.00,1.9458
1564.00,2.1654
1563.00,2.4183
1562.00,2.6317
1561.00,2.7490
1560.00,2.6748
1559.00,2.3537
1558.00,2.0393
1557.00,1.8114
1556.00,1.6256
1555.00,1.4545
1554.00,1.3063
1553.00,1.1925
1552.00,1.1094
1551.00,1.0457
1550.00,0.9954
1549.00,0.9588
1548.00,0.9358
1547.00,0.9229
1546.00,0.9171
1545.00,0.9174
1544.00,0.9232
1543.00,0.9311
1542.00,0.9374
1541.00,0.9391
1540.00,0.9330
1539.00,0.9176
1538.00,0.8970
1537.00,0.8753
1536.00,0.8526
1535.00,0.8269
1534.00,0.7985
1533.00,0.7720
1532.00,0.7511
1531.00,0.7350
1530.00,0.7219
1529.00,0.7116
1528.00,0.7032
1527.00,0.6952
1526.00,0.6870
1525.00,0.6795
1524.00,0.6738
1523.00,0.6701
1522.00,0.6687
1521.00,0.6708
1520.00,0.6754
1519.00,0.6805
1518.00,0.6848
1517.00,0.6886
1516.00,0.6905
1515.00,0.6885
1514.00,0.6817
1513.00,0.6713
1512.00,0.6592
1511.00,0.6476
1510.00,0.6385
1509.00,0.6326
1508.00,0.6297
1507.00,0.6289
1506.00,0.6293
1505.00,0.6306
1504.00,0.6327
1503.00,0.6347
1502.00,0.6371
1501.00,0.6411
1500.00,0.6466
1499.00,0.6533
1498.00,0.6614
1497.00,0.6716
1496.00,0.6835
1495.00,0.6953
1494.00,0.7068
1493.00,0.7193
1492.00,0.7342
1491.00,0.7522
1490.00,0.7733
1489.00,0.7970
1488.00,0.8217
1487.00,0.8468
1486.00,0.8738
1485.00,0.9043
1484.00,0.9388
1483.00,0.9775
1482.00,1.0217
1481.00,1.0730
1480.00,1.1309
1479.00,1.1949
1478.00,1.2680
1477.00,1.3556
1476.00,1.4597
1475.00,1.5809
1474.00,1.7272
1473.00,1.9174
1472.00,2.1651
1471.00,2.4615
1470.00,2.7896
1469.00,3.1596
1468.00,3.5556
1467.00,3.7295
1466.00,3.7298
1465.00,3.9785
1464.00,4.7094
1463.00,4.3609
1462.00,4.1013
1461.00,3.9510
1460.00,3.7295
1459.00,3.8056
1458.00,4.0242
1457.00,3.8713
1456.00,3.8137
1455.00,3.7741
1454.00,3.9360
1453.00,4.3325
1452.00,3.9230
1451.00,3.9912
1450.00,4.3592
1449.00,4.4338
1448.00,4.5924
1447.00,3.9004
1446.00,3.6160
1445.00,3.6497
1444.00,3.7087
1443.00,3.5085
1442.00,3.3218
1441.00,3.2026
1440.00,3.0502
1439.00,2.8514
1438.00,2.6556
1437.00,2.4718
1436.00,2.2904
1435.00,2.1218
1434.00,1.9744
1433.00,1.8425
1432.00,1.7192
1431.00,1.6051
1430.00,1.5046
1429.00,1.4196
1428.00,1.3494
1427.00,1.2926
1426.00,1.2474
1425.00,1.2118
1424.00,1.1849
1423.00,1.1660
1422.00,1.1530
1421.00,1.1441
1420.00,1.1382
1419.00,1.1361
1418.00,1.1383
1417.00,1.1446
1416.00,1.1545
1415.00,1.1677
1414.00,1.1834
1413.00,1.1995
1412.00,1.2130
1411.00,1.2206
1410.00,1.2201
1409.00,1.2111
1408.00,1.1939
1407.00,1.1686
1406.00,1.1357
1405.00,1.0965
1404.00,1.0543
1403.00,1.0131
1402.00,0.9752
1401.00,0.9412
1400.00,0.9111
1399.00,0.8859
1398.00,0.8668
1397.00,0.8529
1396.00,0.8429
1395.00,0.8358
1394.00,0.8317
1393.00,0.8315
1392.00,0.8370
1391.00,0.8499
1390.00,0.8724
1389.00,0.9076
1388.00,0.9591
1387.00,1.0276
1386.00,1.1094
1385.00,1.1994
1384.00,1.2971
1383.00,1.4056
1382.00,1.5293
1381.00,1.6714
1380.00,1.8316
1379.00,1.9938
1378.00,2.1140
1377.00,2.1452
1376.00,2.0836
1375.00,1.9616
1374.00,1.8186
1373.00,1.6852
1372.00,1.5752
1371.00,1.4897
1370.00,1.4272
1369.00,1.3862
1368.00,1.3618
1367.00,1.3434
1366.00,1.3176
1365.00,1.2754
1364.00,1.2171
1363.00,1.1515
1362.00,1.0893
1361.00,1.0373
1360.00,0.9968
1359.00,0.9663
1358.00,0.9442
1357.00,0.9294
1356.00,0.9210
1355.00,0.9177
1354.00,0.9179
1353.00,0.9206
1352.00,0.9249
1351.00,0.9305
1350.00,0.9379
1349.00,0.9483
1348.00,0.9631
1347.00,0.9825
1346.00,1.0034
1345.00,1.0194
1344.00,1.0235
1343.00,1.0128
1342.00,0.9903
1341.00,0.9618
1340.00,0.9319
1339.00,0.9027
1338.00,0.8748
1337.00,0.8483
1336.00,0.8234
1335.00,0.8008
1334.00,0.7810
1333.00,0.7645
1332.00,0.7513
1331.00,0.7416
1330.00,0.7351
1329.00,0.7320
1328.00,0.7317
1327.00,0.7333
1326.00,0.7357
1325.00,0.7378
1324.00,0.7393
1323.00,0.7404
1322.00,0.7415
1321.00,0.7429
1320.00,0.7451
1319.00,0.7481
1318.00,0.7519
1317.00,0.7563
1316.00,0.7616
1315.00,0.7680
1314.00,0.7753
1313.00,0.7836
1312.00,0.7924
1311.00,0.8015
1310.00,0.8106
1309.00,0.8193
1308.00,0.8271
1307.00,0.8330
1306.00,0.8364
1305.00,0.8373
1304.00,0.8365
1303.00,0.8351
1302.00,0.8338
1301.00,0.8331
1300.00,0.8330
1299.00,0.8329
1298.00,0.8325
1297.00,0.8315
1296.00,0.8303
1295.00,0.8294
1294.00,0.8293
1293.00,0.8297
1292.00,0.8296
1291.00,0.8279
1290.00,0.8240
1289.00,0.8183
1288.00,0.8117
1287.00,0.8047
1286.00,0.7975
1285.00,0.7908
1284.00,0.7851
1283.00,0.7816
1282.00,0.7812
1281.00,0.7840
1280.00,0.7892
1279.00,0.7942
1278.00,0.7956
1277.00,0.7914
1276.00,0.7821
1275.00,0.7702
1274.00,0.7586
1273.00,0.7489
1272.00,0.7414
1271.00,0.7358
1270.00,0.7310
1269.00,0.7264
1268.00,0.7209
1267.00,0.7140
1266.00,0.7058
1265.00,0.6971
1264.00,0.6888
1263.00,0.6816
1262.00,0.6755
1261.00,0.6704
1260.00,0.6661
1259.00,0.6628
1258.00,0.6602
1257.00,0.6580
1256.00,0.6560
1255.00,0.6544
1254.00,0.6531
1253.00,0.6520
1252.00,0.6506
1251.00,0.6483
1250.00,0.6450
1249.00,0.6409
1248.00,0.6364
1247.00,0.6316
1246.00,0.6268
1245.00,0.6221
1244.00,0.6176
1243.00,0.6134
1242.00,0.6095
1241.00,0.6055
1240.00,0.6014
1239.00,0.5975
1238.00,0.5948
1237.00,0.5940
1236.00,0.5955
1235.00,0.5991
1234.00,0.6042
1233.00,0.6096
1232.00,0.6147
1231.00,0.6182
1230.00,0.6193
1229.00,0.6168
1228.00,0.6107
1227.00,0.6013
1226.00,0.5899
1225.00,0.5779
1224.00,0.5667
1223.00,0.5572
1222.00,0.5497
1221.00,0.5442
1220.00,0.5403
1219.00,0.5380
1218.00,0.5369
1217.00,0.5368
1216.00,0.5372
1215.00,0.5378
1214.00,0.5382
1213.00,0.5379
1212.00,0.5365
1211.00,0.5340
1210.00,0.5305
1209.00,0.5263
1208.00,0.5216
1207.00,0.5171
1206.00,0.5131
1205.00,0.5103
1204.00,0.5091
1203.00,0.5100
1202.00,0.5130
1201.00,0.5172
1200.00,0.5211
1199.00,0.5227
1198.00,0.5214
1197.00,0.5178
1196.00,0.5137
1195.00,0.5108
1194.00,0.5098
1193.00,0.5104
1192.00,0.5121
1191.00,0.5141
1190.00,0.5154
1189.00,0.5154
1188.00,0.5140
1187.00,0.5118
1186.00,0.5093
1185.00,0.5069
1184.00,0.5049
1183.00,0.5033
1182.00,0.5018
1181.00,0.5005
1180.00,0.4993
1179.00,0.4984
1178.00,0.4979
1177.00,0.4979
1176.00,0.4985
1175.00,0.5001
1174.00,0.5027
1173.00,0.5060
1172.00,0.5096
1171.00,0.5130
1170.00,0.5158
1169.00,0.5174
1168.00,0.5181
1167.00,0.5184
1166.00,0.5186
1165.00,0.5189
1164.00,0.5194
1163.00,0.5203
1162.00,0.5213
1161.00,0.5225
1160.00,0.5239
1159.00,0.5254
1158.00,0.5271
1157.00,0.5286
1156.00,0.5300
1155.00,0.5314
1154.00,0.5327
1153.00,0.5338
1152.00,0.5345
1151.00,0.5351
1150.00,0.5357
1149.00,0.5364
1148.00,0.5374
1147.00,0.5387
1146.00,0.5406
1145.00,0.5432
1144.00,0.5465
1143.00,0.5510
1142.00,0.5565
1141.00,0.5632
1140.00,0.5712
1139.00,0.5806
1138.00,0.5912
1137.00,0.6028
1136.00,0.6152
1135.00,0.6274
1134.00,0.6377
1133.00,0.6437
1132.00,0.6438
1131.00,0.6386
1130.00,0.6308
1129.00,0.6236
1128.00,0.6193
1127.00,0.6187
1126.00,0.6205
1125.00,0.6223
1124.00,0.6220
1123.00,0.6187
1122.00,0.6131
1121.00,0.6070
1120.00,0.6016
1119.00,0.5979
1118.00,0.5961
1117.00,0.5959
1116.00,0.5965
1115.00,0.5961
1114.00,0.5928
1113.00,0.5855
1112.00,0.5745
1111.00,0.5615
1110.00,0.5486
1109.00,0.5375
1108.00,0.5288
1107.00,0.5231
1106.00,0.5203
1105.00,0.5202
1104.00,0.5224
1103.00,0.5263
1102.00,0.5312
1101.00,0.5360
1100.00,0.5395
1099.00,0.5407
1098.00,0.5388
1097.00,0.5345
1096.00,0.5293
1095.00,0.5248
1094.00,0.5217
1093.00,0.5198
1092.00,0.5186
1091.00,0.5178
1090.00,0.5173
1089.00,0.5174
1088.00,0.5185
1087.00,0.5211
1086.00,0.5253
1085.00,0.5313
1084.00,0.5389
1083.00,0.5482
1082.00,0.5588
1081.00,0.5704
1080.00,0.5821
1079.00,0.5930
1078.00,0.6016
1077.00,0.6068
1076.00,0.6079
1075.00,0.6051
1074.00,0.5991
1073.00,0.5912
1072.00,0.5823
1071.00,0.5734
1070.00,0.5650
1069.00,0.5570
1068.00,0.5496
1067.00,0.5426
1066.00,0.5361
1065.00,0.5303
1064.00,0.5253
1063.00,0.5210
1062.00,0.5175
1061.00,0.5144
1060.00,0.5115
1059.00,0.5087
1058.00,0.5056
1057.00,0.5022
1056.00,0.4987
1055.00,0.4954
1054.00,0.4923
1053.00,0.4895
1052.00,0.4870
1051.00,0.4852
1050.00,0.4842
1049.00,0.4841
1048.00,0.4846
1047.00,0.4857
1046.00,0.4869
1045.00,0.4879
1044.00,0.4887
1043.00,0.4894
1042.00,0.4902
1041.00,0.4910
1040.00,0.4914
1039.00,0.4912
1038.00,0.4905
1037.00,0.4896
1036.00,0.4890
1035.00,0.4892
1034.00,0.4907
1033.00,0.4933
1032.00,0.4968
1031.00,0.5009
1030.00,0.5049
1029.00,0.5080
1028.00,0.5094
1027.00,0.5083
1026.00,0.5045
1025.00,0.4984
1024.00,0.4908
1023.00,0.4830
1022.00,0.4757
1021.00,0.4694
1020.00,0.4644
1019.00,0.4604
1018.00,0.4575
1017.00,0.4553
1016.00,0.4535
1015.00,0.4521
1014.00,0.4508
1013.00,0.4495
1012.00,0.4483
1011.00,0.4474
1010.00,0.4471
1009.00,0.4475
1008.00,0.4488
1007.00,0.4509
1006.00,0.4534
1005.00,0.4556
1004.00,0.4575
1003.00,0.4591
1002.00,0.4607
1001.00,0.4624
1000.00,0.4640
999.00,0.4651
998.00,0.4656
997.00,0.4651
996.00,0.4637
995.00,0.4618
994.00,0.4595
993.00,0.4573
992.00,0.4551
991.00,0.4530
990.00,0.4510
989.00,0.4490
988.00,0.4470
987.00,0.4452
986.00,0.4436
985.00,0.4426
984.00,0.4426
983.00,0.4441
982.00,0.4469
981.00,0.4508
980.00,0.4557
979.00,0.4618
978.00,0.4698
977.00,0.4810
976.00,0.4964
975.00,0.5177
974.00,0.5463
973.00,0.5834
972.00,0.6295
971.00,0.6823
970.00,0.7355
969.00,0.7780
968.00,0.7967
967.00,0.7849
966.00,0.7469
965.00,0.6954
964.00,0.6426
963.00,0.5965
962.00,0.5604
961.00,0.5354
960.00,0.5210
959.00,0.5158
958.00,0.5171
957.00,0.5214
956.00,0.5246
955.00,0.5237
954.00,0.5176
953.00,0.5074
952.00,0.4952
951.00,0.4830
950.00,0.4724
949.00,0.4642
948.00,0.4587
947.00,0.4558
946.00,0.4552
945.00,0.4563
944.00,0.4588
943.00,0.4622
942.00,0.4660
941.00,0.4694
940.00,0.4720
939.00,0.4736
938.00,0.4739
937.00,0.4730
936.00,0.4712
935.00,0.4689
934.00,0.4662
933.00,0.4633
932.00,0.4603
931.00,0.4573
930.00,0.4545
929.00,0.4521
928.00,0.4505
927.00,0.4503
926.00,0.4521
925.00,0.4561
924.00,0.4620
923.00,0.4692
922.00,0.4760
921.00,0.4804
920.00,0.4803
919.00,0.4753
918.00,0.4665
917.00,0.4559
916.00,0.4454
915.00,0.4363
914.00,0.4289
913.00,0.4233
912.00,0.4192
911.00,0.4163
910.00,0.4148
909.00,0.4144
908.00,0.4153
907.00,0.4177
906.00,0.4216
905.00,0.4262
904.00,0.4301
903.00,0.4318
902.00,0.4307
901.00,0.4278
900.00,0.4249
899.00,0.4234
898.00,0.4237
897.00,0.4254
896.00,0.4279
895.00,0.4313
894.00,0.4354
893.00,0.4401
892.00,0.4450
891.00,0.4495
890.00,0.4532
889.00,0.4552
888.00,0.4553
887.00,0.4535
886.00,0.4504
885.00,0.4467
884.00,0.4433
883.00,0.4406
882.00,0.4389
881.00,0.4380
880.00,0.4378
879.00,0.4380
878.00,0.4383
877.00,0.4387
876.00,0.4391
875.00,0.4396
874.00,0.4402
873.00,0.4407
872.00,0.4412
871.00,0.4420
870.00,0.4433
869.00,0.4452
868.00,0.4477
867.00,0.4513
866.00,0.4561
865.00,0.4619
864.00,0.4681
863.00,0.4733
862.00,0.4757
861.00,0.4740
860.00,0.4680
859.00,0.4590
858.00,0.4493
857.00,0.4406
856.00,0.4337
855.00,0.4284
854.00,0.4247
853.00,0.4222
852.00,0.4205
851.00,0.4194
850.00,0.4184
849.00,0.4172
848.00,0.4160
847.00,0.4148
846.00,0.4137
845.00,0.4127
844.00,0.4121
843.00,0.4125
842.00,0.4143
841.00,0.4183
840.00,0.4250
839.00,0.4346
838.00,0.4459
837.00,0.4563
836.00,0.4628
835.00,0.4634
834.00,0.4585
833.00,0.4506
832.00,0.4429
831.00,0.4377
830.00,0.4360
829.00,0.4373
828.00,0.4408
827.00,0.4453
826.00,0.4501
825.00,0.4554
824.00,0.4612
823.00,0.4673
822.00,0.4728
821.00,0.4767
820.00,0.4786
819.00,0.4787
818.00,0.4774
817.00,0.4751
816.00,0.4726
815.00,0.4699
814.00,0.4669
813.00,0.4631
812.00,0.4586
811.00,0.4535
810.00,0.4483
809.00,0.4432
808.00,0.4386
807.00,0.4345
806.00,0.4307
805.00,0.4270
804.00,0.4233
803.00,0.4198
802.00,0.4165
801.00,0.4137
800.00,0.4119
799.00,0.4111
798.00,0.4111
797.00,0.4114
796.00,0.4118
795.00,0.4125
794.00,0.4135
793.00,0.4150
792.00,0.4170
791.00,0.4194
790.00,0.4218
789.00,0.4236
788.00,0.4249
787.00,0.4263
786.00,0.4287
785.00,0.4325
784.00,0.4379
783.00,0.4448
782.00,0.4529
781.00,0.4623
780.00,0.4727
779.00,0.4828
778.00,0.4901
777.00,0.4925
776.00,0.4894
775.00,0.4829
774.00,0.4760
773.00,0.4708
772.00,0.4683
771.00,0.4684
770.00,0.4701
769.00,0.4727
768.00,0.4757
767.00,0.4786
766.00,0.4812
765.00,0.4834
764.00,0.4856
763.00,0.4886
762.00,0.4928
761.00,0.4980
760.00,0.5036
759.00,0.5088
758.00,0.5128
757.00,0.5153
756.00,0.5170
755.00,0.5189
754.00,0.5217
753.00,0.5256
752.00,0.5305
751.00,0.5362
750.00,0.5425
749.00,0.5493
748.00,0.5562
747.00,0.5635
746.00,0.5714
745.00,0.5801
744.00,0.5894
743.00,0.5994
742.00,0.6097
741.00,0.6200
740.00,0.6299
739.00,0.6396
738.00,0.6493
737.00,0.6593
736.00,0.6695
735.00,0.6799
734.00,0.6904
733.00,0.7015
732.00,0.7138
731.00,0.7287
730.00,0.7473
729.00,0.7707
728.00,0.8002
727.00,0.8372
726.00,0.8830
725.00,0.9371
724.00,0.9950
723.00,1.0465
722.00,1.0761
721.00,1.0696
720.00,1.0277
719.00,0.9661
718.00,0.9018
717.00,0.8443
716.00,0.7971
715.00,0.7607
714.00,0.7336
713.00,0.7130
712.00,0.6961
711.00,0.6809
710.00,0.6662
709.00,0.6517
708.00,0.6373
707.00,0.6236
706.00,0.6106
705.00,0.5979
704.00,0.5854
703.00,0.5733
702.00,0.5623
701.00,0.5523
700.00,0.5424
699.00,0.5313
698.00,0.5184
697.00,0.5037
696.00,0.4887
695.00,0.4748
694.00,0.4631
693.00,0.4537
692.00,0.4461
691.00,0.4402
690.00,0.4354
689.00,0.4311
688.00,0.4272
687.00,0.4235
686.00,0.4204
685.00,0.4178
684.00,0.4158
683.00,0.4143
682.00,0.4134
681.00,0.4126
680.00,0.4119
679.00,0.4114
678.00,0.4111
677.00,0.4111
676.00,0.4114
675.00,0.4116
674.00,0.4118
673.00,0.4121
672.00,0.4123
671.00,0.4123
670.00,0.4120
669.00,0.4119
668.00,0.4120
667.00,0.4127
666.00,0.4144
665.00,0.4162
664.00,0.4173
663.00,0.4180
662.00,0.4189
661.00,0.4202
660.00,0.4216
659.00,0.4228
658.00,0.4238
657.00,0.4246
656.00,0.4253
655.00,0.4261
654.00,0.4270
653.00,0.4278
652.00,0.4286
651.00,0.4291
650.00,0.4294
649.00,0.4295
648.00,0.4297
647.00,0.4304
646.00,0.4315
645.00,0.4331
644.00,0.4353
643.00,0.4379
642.00,0.4405
641.00,0.4429
640.00,0.4450
639.00,0.4469
638.00,0.4489
637.00,0.4510
636.00,0.4530
635.00,0.4547
634.00,0.4560
633.00,0.4573
632.00,0.4590
631.00,0.4612
630.00,0.4634
629.00,0.4654
628.00,0.4676
627.00,0.4703
626.00,0.4736
625.00,0.4771
624.00,0.4803
623.00,0.4831
622.00,0.4855
621.00,0.4875
620.00,0.4892
619.00,0.4907
618.00,0.4921
617.00,0.4930
616.00,0.4933
615.00,0.4933
614.00,0.4931
613.00,0.4928
612.00,0.4921
611.00,0.4912
610.00,0.4905
609.00,0.4903
608.00,0.4908
607.00,0.4917
606.00,0.4924
605.00,0.4926
604.00,0.4924
603.00,0.4922
602.00,0.4923
601.00,0.4923
600.00,0.4922
599.00,0.4919
598.00,0.4915
597.00,0.4914
596.00,0.4919
595.00,0.4931
594.00,0.4948
593.00,0.4967
592.00,0.4984
591.00,0.4998
590.00,0.5010
589.00,0.5023
588.00,0.5039
587.00,0.5058
586.00,0.5081
585.00,0.5108
584.00,0.5140
583.00,0.5176
582.00,0.5211
581.00,0.5243
580.00,0.5273
579.00,0.5301
578.00,0.5328
577.00,0.5357
576.00,0.5384
575.00,0.5411
574.00,0.5434
573.00,0.5458
572.00,0.5484
571.00,0.5517
570.00,0.5555
569.00,0.5595
568.00,0.5631
567.00,0.5658
566.00,0.5676
565.00,0.5691
564.00,0.5711
563.00,0.5737
562.00,0.5765
561.00,0.5791
560.00,0.5816
559.00,0.5847
558.00,0.5888
557.00,0.5939
556.00,0.5994
555.00,0.6049
554.00,0.6097
553.00,0.6137
552.00,0.6169
551.00,0.6195
550.00,0.6219
