Created as New Dataset,
cm-1,A
4000.00,0.3584
3999.00,0.3581
3998.00,0.3578
3997.00,0.3576
3996.00,0.3572
3995.00,0.3568
3994.00,0.3564
3993.00,0.3559
3992.00,0.3555
3991.00,0.3551
3990.00,0.3547
3989.00,0.3543
3988.00,0.3539
3987.00,0.3536
3986.00,0.3532
3985.00,0.3528
3984.00,0.3524
3983.00,0.3520
3982.00,0.3516
3981.00,0.3513
3980.00,0.3509
3979.00,0.3506
3978.00,0.3503
3977.00,0.3501
3976.00,0.3499
3975.00,0.3496
3974.00,0.3494
3973.00,0.3491
3972.00,0.3488
3971.00,0.3486
3970.00,0.3484
3969.00,0.3482
3968.00,0.3480
3967.00,0.3478
3966.00,0.3476
3965.00,0.3474
3964.00,0.3471
3963.00,0.3468
3962.00,0.3466
3961.00,0.3465
3960.00,0.3463
3959.00,0.3462
3958.00,0.3460
3957.00,0.3457
3956.00,0.3455
3955.00,0.3454
3954.00,0.3452
3953.00,0.3451
3952.00,0.3450
3951.00,0.3448
3950.00,0.3445
3949.00,0.3443
3948.00,0.3441
3947.00,0.3440
3946.00,0.3439
3945.00,0.3439
3944.00,0.3438
3943.00,0.3437
3942.00,0.3437
3941.00,0.3436
3940.00,0.3435
3939.00,0.3434
3938.00,0.3434
3937.00,0.3433
3936.00,0.3432
3935.00,0.3432
3934.00,0.3431
3933.00,0.3431
3932.00,0.3431
3931.00,0.3430
3930.00,0.3430
3929.00,0.3429
3928.00,0.3429
3927.00,0.3429
3926.00,0.3428
3925.00,0.3428
3924.00,0.3427
3923.00,0.3426
3922.00,0.3425
3921.00,0.3424
3920.00,0.3424
3919.00,0.3424
3918.00,0.3424
3917.00,0.3423
3916.00,0.3423
3915.00,0.3423
3914.00,0.3423
3913.00,0.3423
3912.00,0.3422
3911.00,0.3421
3910.00,0.3419
3909.00,0.3418
3908.00,0.3417
3907.00,0.3417
3906.00,0.3418
3905.00,0.3418
3904.00,0.3419
3903.00,0.3421
3902.00,0.3421
3901.00,0.3421
3900.00,0.3420
3899.00,0.3420
3898.00,0.3419
3897.00,0.3418
3896.00,0.3417
3895.00,0.3415
3894.00,0.3414
3893.00,0.3412
3892.00,0.3410
3891.00,0.3409
3890.00,0.3408
3889.00,0.3408
3888.00,0.3407
3887.00,0.3405
3886.00,0.3404
3885.00,0.3404
3884.00,0.3404
3883.00,0.3403
3882.00,0.3402
3881.00,0.3401
3880.00,0.3400
3879.00,0.3400
3878.00,0.3400
3877.00,0.3399
3876.00,0.3397
3875.00,0.3397
3874.00,0.3397
3873.00,0.3396
3872.00,0.3395
3871.00,0.3394
3870.00,0.3394
3869.00,0.3395
3868.00,0.3394
3867.00,0.3393
3866.00,0.3391
3865.00,0.3389
3864.00,0.3389
3863.00,0.3387
3862.00,0.3385
3861.00,0.3383
3860.00,0.3382
3859.00,0.3382
3858.00,0.3382
3857.00,0.3382
3856.00,0.3381
3855.00,0.3379
3854.00,0.3377
3853.00,0.3377
3852.00,0.3376
3851.00,0.3374
3850.00,0.3372
3849.00,0.3371
3848.00,0.3370
3847.00,0.3370
3846.00,0.3370
3845.00,0.3369
3844.00,0.3369
3843.00,0.3369
3842.00,0.3370
3841.00,0.3371
3840.00,0.3371
3839.00,0.3371
3838.00,0.3371
3837.00,0.3372
3836.00,0.3371
3835.00,0.3370
3834.00,0.3368
3833.00,0.3366
3832.00,0.3364
3831.00,0.3363
3830.00,0.3362
3829.00,0.3362
3828.00,0.3361
3827.00,0.3360
3826.00,0.3360
3825.00,0.3359
3824.00,0.3358
3823.00,0.3356
3822.00,0.3354
3821.00,0.3353
3820.00,0.3352
3819.00,0.3350
3818.00,0.3347
3817.00,0.3344
3816.00,0.3342
3815.00,0.3340
3814.00,0.3337
3813.00,0.3334
3812.00,0.3331
3811.00,0.3330
3810.00,0.3329
3809.00,0.3328
3808.00,0.3326
3807.00,0.3326
3806.00,0.3326
3805.00,0.3327
3804.00,0.3327
3803.00,0.3325
3802.00,0.3323
3801.00,0.3322
3800.00,0.3321
3799.00,0.3318
3798.00,0.3315
3797.00,0.3313
3796.00,0.3311
3795.00,0.3309
3794.00,0.3307
3793.00,0.3305
3792.00,0.3303
3791.00,0.3301
3790.00,0.3299
3789.00,0.3297
3788.00,0.3294
3787.00,0.3292
3786.00,0.3289
3785.00,0.3288
3784.00,0.3287
3783.00,0.3286
3782.00,0.3284
3781.00,0.3281
3780.00,0.3279
3779.00,0.3276
3778.00,0.3275
3777.00,0.3273
3776.00,0.3271
3775.00,0.3269
3774.00,0.3268
3773.00,0.3268
3772.00,0.3267
3771.00,0.3266
3770.00,0.3265
3769.00,0.3264
3768.00,0.3263
3767.00,0.3262
3766.00,0.3261
3765.00,0.3260
3764.00,0.3259
3763.00,0.3259
3762.00,0.3258
3761.00,0.3256
3760.00,0.3254
3759.00,0.3252
3758.00,0.3250
3757.00,0.3249
3756.00,0.3248
3755.00,0.3247
3754.00,0.3246
3753.00,0.3244
3752.00,0.3242
3751.00,0.3240
3750.00,0.3238
3749.00,0.3237
3748.00,0.3237
3747.00,0.3235
3746.00,0.3232
3745.00,0.3229
3744.00,0.3228
3743.00,0.3227
3742.00,0.3225
3741.00,0.3223
3740.00,0.3221
3739.00,0.3221
3738.00,0.3220
3737.00,0.3219
3736.00,0.3219
3735.00,0.3219
3734.00,0.3219
3733.00,0.3217
3732.00,0.3215
3731.00,0.3214
3730.00,0.3213
3729.00,0.3211
3728.00,0.3210
3727.00,0.3208
3726.00,0.3207
3725.00,0.3206
3724.00,0.3204
3723.00,0.3202
3722.00,0.3200
3721.00,0.3198
3720.00,0.3196
3719.00,0.3194
3718.00,0.3191
3717.00,0.3189
3716.00,0.3188
3715.00,0.3187
3714.00,0.3185
3713.00,0.3184
3712.00,0.3183
3711.00,0.3182
3710.00,0.3182
3709.00,0.3181
3708.00,0.3180
3707.00,0.3179
3706.00,0.3179
3705.00,0.3178
3704.00,0.3177
3703.00,0.3177
3702.00,0.3177
3701.00,0.3178
3700.00,0.3178
3699.00,0.3177
3698.00,0.3177
3697.00,0.3178
3696.00,0.3179
3695.00,0.3180
3694.00,0.3181
3693.00,0.3182
3692.00,0.3183
3691.00,0.3183
3690.00,0.3182
3689.00,0.3182
3688.00,0.3182
3687.00,0.3181
3686.00,0.3180
3685.00,0.3178
3684.00,0.3176
3683.00,0.3175
3682.00,0.3174
3681.00,0.3172
3680.00,0.3171
3679.00,0.3170
3678.00,0.3170
3677.00,0.3170
3676.00,0.3169
3675.00,0.3169
3674.00,0.3169
3673.00,0.3168
3672.00,0.3166
3671.00,0.3164
3670.00,0.3163
3669.00,0.3163
3668.00,0.3162
3667.00,0.3161
3666.00,0.3161
3665.00,0.3162
3664.00,0.3163
3663.00,0.3163
3662.00,0.3164
3661.00,0.3165
3660.00,0.3167
3659.00,0.3169
3658.00,0.3171
3657.00,0.3173
3656.00,0.3175
3655.00,0.3177
3654.00,0.3180
3653.00,0.3182
3652.00,0.3183
3651.00,0.3185
3650.00,0.3188
3649.00,0.3189
3648.00,0.3190
3647.00,0.3191
3646.00,0.3190
3645.00,0.3190
3644.00,0.3189
3643.00,0.3188
3642.00,0.3188
3641.00,0.3188
3640.00,0.3188
3639.00,0.3189
3638.00,0.3190
3637.00,0.3192
3636.00,0.3194
3635.00,0.3196
3634.00,0.3199
3633.00,0.3201
3632.00,0.3204
3631.00,0.3207
3630.00,0.3211
3629.00,0.3217
3628.00,0.3223
3627.00,0.3228
3626.00,0.3232
3625.00,0.3236
3624.00,0.3239
3623.00,0.3241
3622.00,0.3241
3621.00,0.3240
3620.00,0.3237
3619.00,0.3234
3618.00,0.3231
3617.00,0.3228
3616.00,0.3225
3615.00,0.3223
3614.00,0.3220
3613.00,0.3219
3612.00,0.3218
3611.00,0.3217
3610.00,0.3217
3609.00,0.3216
3608.00,0.3215
3607.00,0.3213
3606.00,0.3211
3605.00,0.3209
3604.00,0.3207
3603.00,0.3204
3602.00,0.3201
3601.00,0.3197
3600.00,0.3192
3599.00,0.3187
3598.00,0.3181
3597.00,0.3175
3596.00,0.3170
3595.00,0.3164
3594.00,0.3159
3593.00,0.3154
3592.00,0.3150
3591.00,0.3146
3590.00,0.3144
3589.00,0.3141
3588.00,0.3140
3587.00,0.3138
3586.00,0.3137
3585.00,0.3135
3584.00,0.3134
3583.00,0.3133
3582.00,0.3132
3581.00,0.3131
3580.00,0.3130
3579.00,0.3129
3578.00,0.3129
3577.00,0.3129
3576.00,0.3129
3575.00,0.3129
3574.00,0.3129
3573.00,0.3129
3572.00,0.3130
3571.00,0.3131
3570.00,0.3133
3569.00,0.3134
3568.00,0.3136
3567.00,0.3137
3566.00,0.3139
3565.00,0.3139
3564.00,0.3140
3563.00,0.3142
3562.00,0.3144
3561.00,0.3146
3560.00,0.3148
3559.00,0.3150
3558.00,0.3153
3557.00,0.3156
3556.00,0.3159
3555.00,0.3163
3554.00,0.3167
3553.00,0.3170
3552.00,0.3174
3551.00,0.3177
3550.00,0.3180
3549.00,0.3184
3548.00,0.3188
3547.00,0.3192
3546.00,0.3196
3545.00,0.3200
3544.00,0.3204
3543.00,0.3208
3542.00,0.3212
3541.00,0.3215
3540.00,0.3219
3539.00,0.3222
3538.00,0.3225
3537.00,0.3227
3536.00,0.3229
3535.00,0.3231
3534.00,0.3233
3533.00,0.3235
3532.00,0.3238
3531.00,0.3241
3530.00,0.3244
3529.00,0.3247
3528.00,0.3250
3527.00,0.3252
3526.00,0.3255
3525.00,0.3258
3524.00,0.3261
3523.00,0.3264
3522.00,0.3267
3521.00,0.3270
3520.00,0.3274
3519.00,0.3278
3518.00,0.3282
3517.00,0.3287
3516.00,0.3291
3515.00,0.3296
3514.00,0.3301
3513.00,0.3305
3512.00,0.3310
3511.00,0.3314
3510.00,0.3319
3509.00,0.3323
3508.00,0.3327
3507.00,0.3332
3506.00,0.3336
3505.00,0.3341
3504.00,0.3346
3503.00,0.3351
3502.00,0.3357
3501.00,0.3362
3500.00,0.3368
3499.00,0.3374
3498.00,0.3380
3497.00,0.3386
3496.00,0.3392
3495.00,0.3399
3494.00,0.3406
3493.00,0.3413
3492.00,0.3420
3491.00,0.3427
3490.00,0.3435
3489.00,0.3443
3488.00,0.3450
3487.00,0.3458
3486.00,0.3465
3485.00,0.3471
3484.00,0.3478
3483.00,0.3485
3482.00,0.3491
3481.00,0.3496
3480.00,0.3501
3479.00,0.3506
3478.00,0.3511
3477.00,0.3516
3476.00,0.3521
3475.00,0.3525
3474.00,0.3529
3473.00,0.3534
3472.00,0.3539
3471.00,0.3545
3470.00,0.3551
3469.00,0.3557
3468.00,0.3563
3467.00,0.3568
3466.00,0.3573
3465.00,0.3579
3464.00,0.3584
3463.00,0.3590
3462.00,0.3596
3461.00,0.3603
3460.00,0.3609
3459.00,0.3615
3458.00,0.3621
3457.00,0.3627
3456.00,0.3634
3455.00,0.3640
3454.00,0.3647
3453.00,0.3654
3452.00,0.3661
3451.00,0.3669
3450.00,0.3677
3449.00,0.3684
3448.00,0.3692
3447.00,0.3700
3446.00,0.3707
3445.00,0.3715
3444.00,0.3723
3443.00,0.3731
3442.00,0.3739
3441.00,0.3748
3440.00,0.3756
3439.00,0.3763
3438.00,0.3771
3437.00,0.3778
3436.00,0.3786
3435.00,0.3794
3434.00,0.3802
3433.00,0.3810
3432.00,0.3817
3431.00,0.3824
3430.00,0.3831
3429.00,0.3839
3428.00,0.3847
3427.00,0.3857
3426.00,0.3866
3425.00,0.3875
3424.00,0.3883
3423.00,0.3890
3422.00,0.3898
3421.00,0.3907
3420.00,0.3917
3419.00,0.3927
3418.00,0.3936
3417.00,0.3946
3416.00,0.3956
3415.00,0.3966
3414.00,0.3975
3413.00,0.3985
3412.00,0.3995
3411.00,0.4005
3410.00,0.4016
3409.00,0.4026
3408.00,0.4037
3407.00,0.4047
3406.00,0.4057
3405.00,0.4068
3404.00,0.4078
3403.00,0.4088
3402.00,0.4098
3401.00,0.4108
3400.00,0.4119
3399.00,0.4129
3398.00,0.4139
3397.00,0.4150
3396.00,0.4161
3395.00,0.4172
3394.00,0.4183
3393.00,0.4194
3392.00,0.4205
3391.00,0.4216
3390.00,0.4227
3389.00,0.4238
3388.00,0.4250
3387.00,0.4261
3386.00,0.4272
3385.00,0.4283
3384.00,0.4295
3383.00,0.4306
3382.00,0.4318
3381.00,0.4330
3380.00,0.4342
3379.00,0.4355
3378.00,0.4367
3377.00,0.4380
3376.00,0.4392
3375.00,0.4405
3374.00,0.4419
3373.00,0.4432
3372.00,0.4446
3371.00,0.4459
3370.00,0.4473
3369.00,0.4486
3368.00,0.4500
3367.00,0.4514
3366.00,0.4529
3365.00,0.4544
3364.00,0.4560
3363.00,0.4576
3362.00,0.4591
3361.00,0.4606
3360.00,0.4622
3359.00,0.4639
3358.00,0.4656
3357.00,0.4673
3356.00,0.4690
3355.00,0.4706
3354.00,0.4722
3353.00,0.4739
3352.00,0.4755
3351.00,0.4771
3350.00,0.4787
3349.00,0.4802
3348.00,0.4818
3347.00,0.4833
3346.00,0.4848
3345.00,0.4863
3344.00,0.4878
3343.00,0.4892
3342.00,0.4905
3341.00,0.4918
3340.00,0.4931
3339.00,0.4944
3338.00,0.4956
3337.00,0.4967
3336.00,0.4977
3335.00,0.4985
3334.00,0.4993
3333.00,0.5001
3332.00,0.5008
3331.00,0.5014
3330.00,0.5019
3329.00,0.5023
3328.00,0.5026
3327.00,0.5028
3326.00,0.5029
3325.00,0.5028
3324.00,0.5027
3323.00,0.5026
3322.00,0.5024
3321.00,0.5022
3320.00,0.5019
3319.00,0.5015
3318.00,0.5010
3317.00,0.5004
3316.00,0.4999
3315.00,0.4992
3314.00,0.4986
3313.00,0.4979
3312.00,0.4972
3311.00,0.4964
3310.00,0.4956
3309.00,0.4947
3308.00,0.4939
3307.00,0.4930
3306.00,0.4922
3305.00,0.4914
3304.00,0.4906
3303.00,0.4897
3302.00,0.4889
3301.00,0.4881
3300.00,0.4874
3299.00,0.4867
3298.00,0.4860
3297.00,0.4854
3296.00,0.4849
3295.00,0.4843
3294.00,0.4838
3293.00,0.4832
3292.00,0.4828
3291.00,0.4824
3290.00,0.4820
3289.00,0.4817
3288.00,0.4813
3287.00,0.4811
3286.00,0.4810
3285.00,0.4811
3284.00,0.4811
3283.00,0.4812
3282.00,0.4812
3281.00,0.4813
3280.00,0.4813
3279.00,0.4813
3278.00,0.4814
3277.00,0.4816
3276.00,0.4819
3275.00,0.4822
3274.00,0.4826
3273.00,0.4829
3272.00,0.4833
3271.00,0.4837
3270.00,0.4840
3269.00,0.4844
3268.00,0.4848
3267.00,0.4852
3266.00,0.4857
3265.00,0.4862
3264.00,0.4868
3263.00,0.4873
3262.00,0.4878
3261.00,0.4883
3260.00,0.4889
3259.00,0.4894
3258.00,0.4900
3257.00,0.4906
3256.00,0.4911
3255.00,0.4916
3254.00,0.4920
3253.00,0.4925
3252.00,0.4930
3251.00,0.4935
3250.00,0.4940
3249.00,0.4944
3248.00,0.4949
3247.00,0.4953
3246.00,0.4957
3245.00,0.4961
3244.00,0.4965
3243.00,0.4968
3242.00,0.4972
3241.00,0.4975
3240.00,0.4977
3239.00,0.4979
3238.00,0.4980
3237.00,0.4982
3236.00,0.4983
3235.00,0.4984
3234.00,0.4985
3233.00,0.4985
3232.00,0.4985
3231.00,0.4984
3230.00,0.4983
3229.00,0.4983
3228.00,0.4982
3227.00,0.4982
3226.00,0.4982
3225.00,0.4981
3224.00,0.4979
3223.00,0.4978
3222.00,0.4976
3221.00,0.4974
3220.00,0.4971
3219.00,0.4969
3218.00,0.4966
3217.00,0.4963
3216.00,0.4961
3215.00,0.4959
3214.00,0.4956
3213.00,0.4954
3212.00,0.4951
3211.00,0.4947
3210.00,0.4944
3209.00,0.4941
3208.00,0.4938
3207.00,0.4935
3206.00,0.4933
3205.00,0.4930
3204.00,0.4927
3203.00,0.4924
3202.00,0.4920
3201.00,0.4915
3200.00,0.4911
3199.00,0.4908
3198.00,0.4904
3197.00,0.4901
3196.00,0.4897
3195.00,0.4893
3194.00,0.4888
3193.00,0.4883
3192.00,0.4878
3191.00,0.4873
3190.00,0.4869
3189.00,0.4864
3188.00,0.4859
3187.00,0.4855
3186.00,0.4850
3185.00,0.4844
3184.00,0.4838
3183.00,0.4832
3182.00,0.4826
3181.00,0.4819
3180.00,0.4812
3179.00,0.4805
3178.00,0.4798
3177.00,0.4791
3176.00,0.4783
3175.00,0.4776
3174.00,0.4768
3173.00,0.4760
3172.00,0.4752
3171.00,0.4745
3170.00,0.4737
3169.00,0.4730
3168.00,0.4722
3167.00,0.4713
3166.00,0.4705
3165.00,0.4696
3164.00,0.4688
3163.00,0.4680
3162.00,0.4672
3161.00,0.4664
3160.00,0.4656
3159.00,0.4649
3158.00,0.4642
3157.00,0.4636
3156.00,0.4628
3155.00,0.4620
3154.00,0.4612
3153.00,0.4605
3152.00,0.4598
3151.00,0.4590
3150.00,0.4583
3149.00,0.4576
3148.00,0.4568
3147.00,0.4560
3146.00,0.4553
3145.00,0.4547
3144.00,0.4542
3143.00,0.4536
3142.00,0.4531
3141.00,0.4526
3140.00,0.4520
3139.00,0.4515
3138.00,0.4509
3137.00,0.4504
3136.00,0.4500
3135.00,0.4497
3134.00,0.4494
3133.00,0.4491
3132.00,0.4489
3131.00,0.4487
3130.00,0.4485
3129.00,0.4484
3128.00,0.4483
3127.00,0.4483
3126.00,0.4484
3125.00,0.4486
3124.00,0.4487
3123.00,0.4489
3122.00,0.4490
3121.00,0.4492
3120.00,0.4494
3119.00,0.4496
3118.00,0.4499
3117.00,0.4503
3116.00,0.4507
3115.00,0.4511
3114.00,0.4516
3113.00,0.4521
3112.00,0.4527
3111.00,0.4533
3110.00,0.4540
3109.00,0.4548
3108.00,0.4556
3107.00,0.4565
3106.00,0.4573
3105.00,0.4582
3104.00,0.4590
3103.00,0.4598
3102.00,0.4607
3101.00,0.4616
3100.00,0.4626
3099.00,0.4636
3098.00,0.4647
3097.00,0.4660
3096.00,0.4673
3095.00,0.4688
3094.00,0.4705
3093.00,0.4723
3092.00,0.4743
3091.00,0.4765
3090.00,0.4789
3089.00,0.4815
3088.00,0.4842
3087.00,0.4869
3086.00,0.4898
3085.00,0.4926
3084.00,0.4956
3083.00,0.4986
3082.00,0.5019
3081.00,0.5054
3080.00,0.5091
3079.00,0.5130
3078.00,0.5171
3077.00,0.5214
3076.00,0.5259
3075.00,0.5303
3074.00,0.5349
3073.00,0.5394
3072.00,0.5440
3071.00,0.5487
3070.00,0.5533
3069.00,0.5579
3068.00,0.5625
3067.00,0.5671
3066.00,0.5716
3065.00,0.5760
3064.00,0.5800
3063.00,0.5838
3062.00,0.5873
3061.00,0.5905
3060.00,0.5935
3059.00,0.5963
3058.00,0.5991
3057.00,0.6018
3056.00,0.6047
3055.00,0.6077
3054.00,0.6109
3053.00,0.6144
3052.00,0.6181
3051.00,0.6221
3050.00,0.6262
3049.00,0.6305
3048.00,0.6351
3047.00,0.6398
3046.00,0.6447
3045.00,0.6497
3044.00,0.6545
3043.00,0.6594
3042.00,0.6641
3041.00,0.6688
3040.00,0.6736
3039.00,0.6785
3038.00,0.6836
3037.00,0.6890
3036.00,0.6947
3035.00,0.7008
3034.00,0.7073
3033.00,0.7143
3032.00,0.7218
3031.00,0.7298
3030.00,0.7383
3029.00,0.7472
3028.00,0.7565
3027.00,0.7661
3026.00,0.7758
3025.00,0.7859
3024.00,0.7962
3023.00,0.8070
3022.00,0.8181
3021.00,0.8295
3020.00,0.8412
3019.00,0.8531
3018.00,0.8652
3017.00,0.8773
3016.00,0.8894
3015.00,0.9015
3014.00,0.9138
3013.00,0.9263
3012.00,0.9390
3011.00,0.9521
3010.00,0.9660
3009.00,0.9806
3008.00,0.9960
3007.00,1.0120
3006.00,1.0286
3005.00,1.0457
3004.00,1.0632
3003.00,1.0812
3002.00,1.0998
3001.00,1.1192
3000.00,1.1394
2999.00,1.1608
2998.00,1.1837
2997.00,1.2087
2996.00,1.2363
2995.00,1.2669
2994.00,1.3012
2993.00,1.3397
2992.00,1.3829
2991.00,1.4311
2990.00,1.4848
2989.00,1.5446
2988.00,1.6111
2987.00,1.6846
2986.00,1.7657
2985.00,1.8551
2984.00,1.9545
2983.00,2.0667
2982.00,2.1938
2981.00,2.3357
2980.00,2.4890
2979.00,2.6505
2978.00,2.8203
2977.00,3.0007
2976.00,3.1968
2975.00,3.4222
2974.00,3.6861
2973.00,3.8524
2972.00,3.8413
2971.00,3.8221
2970.00,3.9337
2969.00,4.1262
2968.00,4.1502
2967.00,4.1169
2966.00,4.1600
2965.00,4.3395
2964.00,4.4483
2963.00,4.3136
2962.00,4.2565
2961.00,4.4219
2960.00,4.6640
2959.00,4.5388
2958.00,4.2636
2957.00,4.1477
2956.00,4.2276
2955.00,4.5382
2954.00,4.5825
2953.00,4.2638
2952.00,4.0368
2951.00,3.9891
2950.00,3.9832
2949.00,3.9765
2948.00,4.0732
2947.00,4.3921
2946.00,4.3458
2945.00,4.1214
2944.00,3.9292
2943.00,3.9022
2942.00,3.8741
2941.00,3.8195
2940.00,3.8025
2939.00,3.8416
2938.00,4.0146
2937.00,4.4124
2936.00,4.4296
2935.00,4.5227
2934.00,4.3284
2933.00,4.1623
2932.00,4.0514
2931.00,4.1262
2930.00,4.2572
2929.00,4.2794
2928.00,4.3183
2927.00,4.3324
2926.00,4.1335
2925.00,4.0310
2924.00,4.1552
2923.00,4.2751
2922.00,4.1972
2921.00,4.1062
2920.00,4.1354
2919.00,4.2860
2918.00,4.0872
2917.00,3.8676
2916.00,3.7656
2915.00,3.7907
2914.00,3.8355
2913.00,3.8456
2912.00,3.8860
2911.00,4.0439
2910.00,4.5292
2909.00,4.2303
2908.00,3.9869
2907.00,3.8313
2906.00,3.9560
2905.00,4.0661
2904.00,3.9882
2903.00,3.8737
2902.00,3.7873
2901.00,3.7560
2900.00,3.7299
2899.00,3.7228
2898.00,3.7578
2897.00,3.8258
2896.00,3.9181
2895.00,4.0457
2894.00,4.2206
2893.00,4.3415
2892.00,4.2554
2891.00,4.1538
2890.00,4.2142
2889.00,4.4155
2888.00,4.3087
2887.00,4.1955
2886.00,4.1399
2885.00,4.1984
2884.00,4.2098
2883.00,4.2613
2882.00,4.3767
2881.00,4.3327
2880.00,4.1735
2879.00,4.0828
2878.00,4.0851
2877.00,4.0924
2876.00,4.0014
2875.00,3.9127
2874.00,3.9281
2873.00,4.0996
2872.00,4.5646
2871.00,4.6666
2870.00,4.2645
2869.00,3.8938
2868.00,3.7375
2867.00,3.6939
2866.00,3.7874
2865.00,3.9569
2864.00,3.9840
2863.00,3.9598
2862.00,4.0007
2861.00,4.0921
2860.00,4.0578
2859.00,3.9951
2858.00,3.9874
2857.00,4.0261
2856.00,4.1446
2855.00,4.3080
2854.00,4.2632
2853.00,4.0995
2852.00,4.0314
2851.00,4.1586
2850.00,4.2518
2849.00,4.0933
2848.00,3.9194
2847.00,3.8537
2846.00,3.8700
2845.00,3.9084
2844.00,4.0439
2843.00,4.3582
2842.00,4.3079
2841.00,4.0634
2840.00,3.8838
2839.00,3.8236
2838.00,3.6357
2837.00,3.3492
2836.00,3.0764
2835.00,2.8443
2834.00,2.6468
2833.00,2.4733
2832.00,2.3181
2831.00,2.1791
2830.00,2.0550
2829.00,1.9441
2828.00,1.8449
2827.00,1.7563
2826.00,1.6769
2825.00,1.6057
2824.00,1.5412
2823.00,1.4822
2822.00,1.4279
2821.00,1.3778
2820.00,1.3316
2819.00,1.2890
2818.00,1.2495
2817.00,1.2130
2816.00,1.1789
2815.00,1.1470
2814.00,1.1171
2813.00,1.0889
2812.00,1.0624
2811.00,1.0375
2810.00,1.0139
2809.00,0.9914
2808.00,0.9699
2807.00,0.9494
2806.00,0.9300
2805.00,0.9116
2804.00,0.8941
2803.00,0.8776
2802.00,0.8620
2801.00,0.8471
2800.00,0.8328
2799.00,0.8193
2798.00,0.8062
2797.00,0.7937
2796.00,0.7817
2795.00,0.7701
2794.00,0.7588
2793.00,0.7479
2792.00,0.7373
2791.00,0.7270
2790.00,0.7168
2789.00,0.7067
2788.00,0.6969
2787.00,0.6873
2786.00,0.6780
2785.00,0.6691
2784.00,0.6604
2783.00,0.6520
2782.00,0.6438
2781.00,0.6358
2780.00,0.6282
2779.00,0.6209
2778.00,0.6140
2777.00,0.6074
2776.00,0.6012
2775.00,0.5953
2774.00,0.5898
2773.00,0.5847
2772.00,0.5799
2771.00,0.5754
2770.00,0.5713
2769.00,0.5676
2768.00,0.5641
2767.00,0.5611
2766.00,0.5584
2765.00,0.5560
2764.00,0.5540
2763.00,0.5522
2762.00,0.5506
2761.00,0.5492
2760.00,0.5479
2759.00,0.5467
2758.00,0.5455
2757.00,0.5443
2756.00,0.5431
2755.00,0.5420
2754.00,0.5411
2753.00,0.5404
2752.00,0.5399
2751.00,0.5396
2750.00,0.5395
2749.00,0.5395
2748.00,0.5398
2747.00,0.5403
2746.00,0.5410
2745.00,0.5420
2744.00,0.5434
2743.00,0.5451
2742.00,0.5471
2741.00,0.5496
2740.00,0.5526
2739.00,0.5560
2738.00,0.5600
2737.00,0.5644
2736.00,0.5693
2735.00,0.5745
2734.00,0.5799
2733.00,0.5852
2732.00,0.5900
2731.00,0.5941
2730.00,0.5971
2729.00,0.5991
2728.00,0.5998
2727.00,0.5996
2726.00,0.5986
2725.00,0.5969
2724.00,0.5948
2723.00,0.5923
2722.00,0.5894
2721.00,0.5863
2720.00,0.5829
2719.00,0.5792
2718.00,0.5752
2717.00,0.5709
2716.00,0.5664
2715.00,0.5617
2714.00,0.5570
2713.00,0.5524
2712.00,0.5481
2711.00,0.5443
2710.00,0.5408
2709.00,0.5378
2708.00,0.5352
2707.00,0.5330
2706.00,0.5312
2705.00,0.5297
2704.00,0.5284
2703.00,0.5275
2702.00,0.5268
2701.00,0.5265
2700.00,0.5263
2699.00,0.5264
2698.00,0.5266
2697.00,0.5270
2696.00,0.5275
2695.00,0.5282
2694.00,0.5289
2693.00,0.5298
2692.00,0.5307
2691.00,0.5317
2690.00,0.5326
2689.00,0.5336
2688.00,0.5344
2687.00,0.5352
2686.00,0.5359
2685.00,0.5364
2684.00,0.5369
2683.00,0.5372
2682.00,0.5375
2681.00,0.5379
2680.00,0.5382
2679.00,0.5386
2678.00,0.5390
2677.00,0.5395
2676.00,0.5400
2675.00,0.5404
2674.00,0.5408
2673.00,0.5412
2672.00,0.5414
2671.00,0.5414
2670.00,0.5411
2669.00,0.5406
2668.00,0.5398
2667.00,0.5387
2666.00,0.5372
2665.00,0.5356
2664.00,0.5338
2663.00,0.5319
2662.00,0.5299
2661.00,0.5278
2660.00,0.5256
2659.00,0.5234
2658.00,0.5212
2657.00,0.5190
2656.00,0.5169
2655.00,0.5148
2654.00,0.5129
2653.00,0.5111
2652.00,0.5094
2651.00,0.5077
2650.00,0.5060
2649.00,0.5044
2648.00,0.5030
2647.00,0.5016
2646.00,0.5002
2645.00,0.4989
2644.00,0.4977
2643.00,0.4966
2642.00,0.4955
2641.00,0.4945
2640.00,0.4935
2639.00,0.4925
2638.00,0.4915
2637.00,0.4906
2636.00,0.4897
2635.00,0.4888
2634.00,0.4879
2633.00,0.4870
2632.00,0.4861
2631.00,0.4852
2630.00,0.4843
2629.00,0.4834
2628.00,0.4825
2627.00,0.4816
2626.00,0.4808
2625.00,0.4799
2624.00,0.4789
2623.00,0.4780
2622.00,0.4770
2621.00,0.4761
2620.00,0.4751
2619.00,0.4742
2618.00,0.4733
2617.00,0.4724
2616.00,0.4715
2615.00,0.4706
2614.00,0.4697
2613.00,0.4688
2612.00,0.4678
2611.00,0.4668
2610.00,0.4658
2609.00,0.4648
2608.00,0.4638
2607.00,0.4628
2606.00,0.4617
2605.00,0.4608
2604.00,0.4598
2603.00,0.4587
2602.00,0.4576
2601.00,0.4564
2600.00,0.4551
2599.00,0.4538
2598.00,0.4525
2597.00,0.4512
2596.00,0.4498
2595.00,0.4483
2594.00,0.4467
2593.00,0.4451
2592.00,0.4435
2591.00,0.4419
2590.00,0.4402
2589.00,0.4385
2588.00,0.4369
2587.00,0.4353
2586.00,0.4336
2585.00,0.4320
2584.00,0.4302
2583.00,0.4284
2582.00,0.4265
2581.00,0.4247
2580.00,0.4230
2579.00,0.4212
2578.00,0.4195
2577.00,0.4178
2576.00,0.4161
2575.00,0.4144
2574.00,0.4127
2573.00,0.4111
2572.00,0.4095
2571.00,0.4080
2570.00,0.4065
2569.00,0.4050
2568.00,0.4036
2567.00,0.4021
2566.00,0.4007
2565.00,0.3992
2564.00,0.3978
2563.00,0.3963
2562.00,0.3949
2561.00,0.3935
2560.00,0.3922
2559.00,0.3909
2558.00,0.3897
2557.00,0.3885
2556.00,0.3872
2555.00,0.3860
2554.00,0.3848
2553.00,0.3837
2552.00,0.3826
2551.00,0.3816
2550.00,0.3806
2549.00,0.3796
2548.00,0.3786
2547.00,0.3776
2546.00,0.3767
2545.00,0.3758
2544.00,0.3749
2543.00,0.3741
2542.00,0.3733
2541.00,0.3725
2540.00,0.3717
2539.00,0.3710
2538.00,0.3702
2537.00,0.3695
2536.00,0.3688
2535.00,0.3681
2534.00,0.3674
2533.00,0.3667
2532.00,0.3659
2531.00,0.3651
2530.00,0.3642
2529.00,0.3634
2528.00,0.3625
2527.00,0.3616
2526.00,0.3607
2525.00,0.3596
2524.00,0.3586
2523.00,0.3575
2522.00,0.3565
2521.00,0.3555
2520.00,0.3545
2519.00,0.3536
2518.00,0.3528
2517.00,0.3519
2516.00,0.3511
2515.00,0.3503
2514.00,0.3494
2513.00,0.3486
2512.00,0.3479
2511.00,0.3471
2510.00,0.3464
2509.00,0.3456
2508.00,0.3450
2507.00,0.3443
2506.00,0.3437
2505.00,0.3432
2504.00,0.3426
2503.00,0.3421
2502.00,0.3416
2501.00,0.3412
2500.00,0.3407
2499.00,0.3403
2498.00,0.3398
2497.00,0.3393
2496.00,0.3389
2495.00,0.3385
2494.00,0.3381
2493.00,0.3377
2492.00,0.3373
2491.00,0.3368
2490.00,0.3364
2489.00,0.3359
2488.00,0.3355
2487.00,0.3350
2486.00,0.3346
2485.00,0.3343
2484.00,0.3339
2483.00,0.3336
2482.00,0.3333
2481.00,0.3329
2480.00,0.3326
2479.00,0.3322
2478.00,0.3319
2477.00,0.3316
2476.00,0.3313
2475.00,0.3309
2474.00,0.3306
2473.00,0.3303
2472.00,0.3300
2471.00,0.3298
2470.00,0.3295
2469.00,0.3292
2468.00,0.3289
2467.00,0.3286
2466.00,0.3283
2465.00,0.3280
2464.00,0.3277
2463.00,0.3274
2462.00,0.3271
2461.00,0.3269
2460.00,0.3267
2459.00,0.3265
2458.00,0.3263
2457.00,0.3261
2456.00,0.3260
2455.00,0.3258
2454.00,0.3256
2453.00,0.3254
2452.00,0.3253
2451.00,0.3252
2450.00,0.3252
2449.00,0.3251
2448.00,0.3251
2447.00,0.3251
2446.00,0.3250
2445.00,0.3249
2444.00,0.3249
2443.00,0.3249
2442.00,0.3249
2441.00,0.3249
2440.00,0.3250
2439.00,0.3250
2438.00,0.3250
2437.00,0.3251
2436.00,0.3252
2435.00,0.3253
2434.00,0.3254
2433.00,0.3254
2432.00,0.3255
2431.00,0.3255
2430.00,0.3255
2429.00,0.3255
2428.00,0.3256
2427.00,0.3256
2426.00,0.3257
2425.00,0.3258
2424.00,0.3259
2423.00,0.3259
2422.00,0.3259
2421.00,0.3259
2420.00,0.3260
2419.00,0.3261
2418.00,0.3261
2417.00,0.3262
2416.00,0.3262
2415.00,0.3262
2414.00,0.3263
2413.00,0.3264
2412.00,0.3264
2411.00,0.3265
2410.00,0.3265
2409.00,0.3264
2408.00,0.3264
2407.00,0.3264
2406.00,0.3264
2405.00,0.3264
2404.00,0.3263
2403.00,0.3262
2402.00,0.3261
2401.00,0.3260
2400.00,0.3259
2399.00,0.3257
2398.00,0.3256
2397.00,0.3254
2396.00,0.3253
2395.00,0.3251
2394.00,0.3250
2393.00,0.3248
2392.00,0.3247
2391.00,0.3245
2390.00,0.3244
2389.00,0.3243
2388.00,0.3241
2387.00,0.3240
2386.00,0.3239
2385.00,0.3238
2384.00,0.3238
2383.00,0.3239
2382.00,0.3239
2381.00,0.3239
2380.00,0.3240
2379.00,0.3240
2378.00,0.3241
2377.00,0.3241
2376.00,0.3241
2375.00,0.3240
2374.00,0.3239
2373.00,0.3237
2372.00,0.3236
2371.00,0.3236
2370.00,0.3235
2369.00,0.3235
2368.00,0.3234
2367.00,0.3233
2366.00,0.3232
2365.00,0.3232
2364.00,0.3231
2363.00,0.3230
2362.00,0.3229
2361.00,0.3229
2360.00,0.3229
2359.00,0.3229
2358.00,0.3229
2357.00,0.3228
2356.00,0.3227
2355.00,0.3226
2354.00,0.3225
2353.00,0.3225
2352.00,0.3224
2351.00,0.3223
2350.00,0.3222
2349.00,0.3221
2348.00,0.3220
2347.00,0.3219
2346.00,0.3218
2345.00,0.3218
2344.00,0.3217
2343.00,0.3216
2342.00,0.3214
2341.00,0.3213
2340.00,0.3213
2339.00,0.3212
2338.00,0.3212
2337.00,0.3212
2336.00,0.3212
2335.00,0.3210
2334.00,0.3209
2333.00,0.3207
2332.00,0.3205
2331.00,0.3203
2330.00,0.3200
2329.00,0.3198
2328.00,0.3195
2327.00,0.3192
2326.00,0.3189
2325.00,0.3186
2324.00,0.3184
2323.00,0.3183
2322.00,0.3182
2321.00,0.3180
2320.00,0.3177
2319.00,0.3173
2318.00,0.3170
2317.00,0.3167
2316.00,0.3164
2315.00,0.3162
2314.00,0.3160
2313.00,0.3158
2312.00,0.3155
2311.00,0.3153
2310.00,0.3149
2309.00,0.3146
2308.00,0.3143
2307.00,0.3139
2306.00,0.3136
2305.00,0.3133
2304.00,0.3130
2303.00,0.3127
2302.00,0.3124
2301.00,0.3121
2300.00,0.3118
2299.00,0.3115
2298.00,0.3111
2297.00,0.3108
2296.00,0.3104
2295.00,0.3101
2294.00,0.3098
2293.00,0.3096
2292.00,0.3092
2291.00,0.3089
2290.00,0.3086
2289.00,0.3083
2288.00,0.3080
2287.00,0.3077
2286.00,0.3074
2285.00,0.3071
2284.00,0.3069
2283.00,0.3066
2282.00,0.3063
2281.00,0.3060
2280.00,0.3057
2279.00,0.3053
2278.00,0.3049
2277.00,0.3046
2276.00,0.3043
2275.00,0.3041
2274.00,0.3038
2273.00,0.3036
2272.00,0.3034
2271.00,0.3032
2270.00,0.3030
2269.00,0.3028
2268.00,0.3027
2267.00,0.3025
2266.00,0.3023
2265.00,0.3021
2264.00,0.3019
2263.00,0.3016
2262.00,0.3013
2261.00,0.3010
2260.00,0.3008
2259.00,0.3006
2258.00,0.3003
2257.00,0.3000
2256.00,0.2997
2255.00,0.2994
2254.00,0.2991
2253.00,0.2988
2252.00,0.2986
2251.00,0.2984
2250.00,0.2982
2249.00,0.2980
2248.00,0.2978
2247.00,0.2976
2246.00,0.2974
2245.00,0.2972
2244.00,0.2971
2243.00,0.2969
2242.00,0.2968
2241.00,0.2966
2240.00,0.2964
2239.00,0.2963
2238.00,0.2961
2237.00,0.2960
2236.00,0.2958
2235.00,0.2957
2234.00,0.2956
2233.00,0.2955
2232.00,0.2954
2231.00,0.2952
2230.00,0.2951
2229.00,0.2950
2228.00,0.2949
2227.00,0.2948
2226.00,0.2946
2225.00,0.2944
2224.00,0.2942
2223.00,0.2941
2222.00,0.2940
2221.00,0.2939
2220.00,0.2938
2219.00,0.2937
2218.00,0.2935
2217.00,0.2934
2216.00,0.2933
2215.00,0.2933
2214.00,0.2932
2213.00,0.2932
2212.00,0.2932
2211.00,0.2932
2210.00,0.2932
2209.00,0.2932
2208.00,0.2932
2207.00,0.2931
2206.00,0.2931
2205.00,0.2931
2204.00,0.2931
2203.00,0.2931
2202.00,0.2930
2201.00,0.2931
2200.00,0.2932
2199.00,0.2932
2198.00,0.2933
2197.00,0.2932
2196.00,0.2931
2195.00,0.2931
2194.00,0.2930
2193.00,0.2931
2192.00,0.2931
2191.00,0.2932
2190.00,0.2931
2189.00,0.2931
2188.00,0.2930
2187.00,0.2929
2186.00,0.2929
2185.00,0.2928
2184.00,0.2928
2183.00,0.2927
2182.00,0.2926
2181.00,0.2925
2180.00,0.2924
2179.00,0.2923
2178.00,0.2922
2177.00,0.2921
2176.00,0.2920
2175.00,0.2919
2174.00,0.2918
2173.00,0.2918
2172.00,0.2917
2171.00,0.2916
2170.00,0.2915
2169.00,0.2914
2168.00,0.2913
2167.00,0.2911
2166.00,0.2910
2165.00,0.2909
2164.00,0.2908
2163.00,0.2906
2162.00,0.2904
2161.00,0.2902
2160.00,0.2900
2159.00,0.2898
2158.00,0.2896
2157.00,0.2894
2156.00,0.2893
2155.00,0.2891
2154.00,0.2889
2153.00,0.2888
2152.00,0.2885
2151.00,0.2883
2150.00,0.2880
2149.00,0.2877
2148.00,0.2874
2147.00,0.2871
2146.00,0.2867
2145.00,0.2863
2144.00,0.2859
2143.00,0.2855
2142.00,0.2851
2141.00,0.2847
2140.00,0.2844
2139.00,0.2840
2138.00,0.2838
2137.00,0.2835
2136.00,0.2832
2135.00,0.2830
2134.00,0.2828
2133.00,0.2826
2132.00,0.2825
2131.00,0.2823
2130.00,0.2821
2129.00,0.2819
2128.00,0.2817
2127.00,0.2816
2126.00,0.2814
2125.00,0.2812
2124.00,0.2811
2123.00,0.2810
2122.00,0.2808
2121.00,0.2806
2120.00,0.2805
2119.00,0.2803
2118.00,0.2801
2117.00,0.2800
2116.00,0.2798
2115.00,0.2797
2114.00,0.2796
2113.00,0.2796
2112.00,0.2795
2111.00,0.2794
2110.00,0.2793
2109.00,0.2792
2108.00,0.2791
2107.00,0.2792
2106.00,0.2792
2105.00,0.2792
2104.00,0.2792
2103.00,0.2792
2102.00,0.2791
2101.00,0.2791
2100.00,0.2790
2099.00,0.2790
2098.00,0.2789
2097.00,0.2788
2096.00,0.2787
2095.00,0.2786
2094.00,0.2786
2093.00,0.2786
2092.00,0.2786
2091.00,0.2786
2090.00,0.2785
2089.00,0.2785
2088.00,0.2784
2087.00,0.2784
2086.00,0.2783
2085.00,0.2783
2084.00,0.2783
2083.00,0.2782
2082.00,0.2782
2081.00,0.2782
2080.00,0.2782
2079.00,0.2782
2078.00,0.2782
2077.00,0.2782
2076.00,0.2782
2075.00,0.2783
2074.00,0.2783
2073.00,0.2784
2072.00,0.2785
2071.00,0.2786
2070.00,0.2786
2069.00,0.2786
2068.00,0.2787
2067.00,0.2788
2066.00,0.2790
2065.00,0.2792
2064.00,0.2793
2063.00,0.2795
2062.00,0.2796
2061.00,0.2797
2060.00,0.2798
2059.00,0.2799
2058.00,0.2800
2057.00,0.2801
2056.00,0.2803
2055.00,0.2804
2054.00,0.2805
2053.00,0.2806
2052.00,0.2807
2051.00,0.2808
2050.00,0.2809
2049.00,0.2810
2048.00,0.2812
2047.00,0.2813
2046.00,0.2815
2045.00,0.2817
2044.00,0.2818
2043.00,0.2820
2042.00,0.2821
2041.00,0.2823
2040.00,0.2824
2039.00,0.2826
2038.00,0.2827
2037.00,0.2828
2036.00,0.2828
2035.00,0.2829
2034.00,0.2830
2033.00,0.2830
2032.00,0.2831
2031.00,0.2831
2030.00,0.2831
2029.00,0.2832
2028.00,0.2832
2027.00,0.2832
2026.00,0.2830
2025.00,0.2829
2024.00,0.2827
2023.00,0.2825
2022.00,0.2821
2021.00,0.2817
2020.00,0.2812
2019.00,0.2807
2018.00,0.2802
2017.00,0.2797
2016.00,0.2792
2015.00,0.2787
2014.00,0.2782
2013.00,0.2777
2012.00,0.2772
2011.00,0.2766
2010.00,0.2761
2009.00,0.2756
2008.00,0.2752
2007.00,0.2749
2006.00,0.2745
2005.00,0.2742
2004.00,0.2740
2003.00,0.2738
2002.00,0.2735
2001.00,0.2734
2000.00,0.2733
1999.00,0.2732
1998.00,0.2731
1997.00,0.2730
1996.00,0.2728
1995.00,0.2726
1994.00,0.2725
1993.00,0.2724
1992.00,0.2724
1991.00,0.2724
1990.00,0.2723
1989.00,0.2722
1988.00,0.2722
1987.00,0.2721
1986.00,0.2721
1985.00,0.2721
1984.00,0.2721
1983.00,0.2721
1982.00,0.2721
1981.00,0.2721
1980.00,0.2721
1979.00,0.2720
1978.00,0.2719
1977.00,0.2719
1976.00,0.2718
1975.00,0.2718
1974.00,0.2717
1973.00,0.2717
1972.00,0.2717
1971.00,0.2716
1970.00,0.2714
1969.00,0.2714
1968.00,0.2715
1967.00,0.2716
1966.00,0.2717
1965.00,0.2718
1964.00,0.2718
1963.00,0.2719
1962.00,0.2719
1961.00,0.2721
1960.00,0.2722
1959.00,0.2724
1958.00,0.2726
1957.00,0.2727
1956.00,0.2729
1955.00,0.2731
1954.00,0.2733
1953.00,0.2735
1952.00,0.2736
1951.00,0.2737
1950.00,0.2737
1949.00,0.2737
1948.00,0.2738
1947.00,0.2739
1946.00,0.2740
1945.00,0.2743
1944.00,0.2747
1943.00,0.2753
1942.00,0.2760
1941.00,0.2767
1940.00,0.2772
1939.00,0.2776
1938.00,0.2777
1937.00,0.2778
1936.00,0.2777
1935.00,0.2775
1934.00,0.2773
1933.00,0.2772
1932.00,0.2772
1931.00,0.2771
1930.00,0.2771
1929.00,0.2772
1928.00,0.2773
1927.00,0.2772
1926.00,0.2771
1925.00,0.2771
1924.00,0.2774
1923.00,0.2778
1922.00,0.2783
1921.00,0.2789
1920.00,0.2794
1919.00,0.2800
1918.00,0.2805
1917.00,0.2809
1916.00,0.2812
1915.00,0.2813
1914.00,0.2814
1913.00,0.2814
1912.00,0.2813
1911.00,0.2813
1910.00,0.2814
1909.00,0.2816
1908.00,0.2819
1907.00,0.2820
1906.00,0.2821
1905.00,0.2821
1904.00,0.2821
1903.00,0.2821
1902.00,0.2820
1901.00,0.2820
1900.00,0.2820
1899.00,0.2821
1898.00,0.2821
1897.00,0.2822
1896.00,0.2824
1895.00,0.2825
1894.00,0.2827
1893.00,0.2827
1892.00,0.2828
1891.00,0.2829
1890.00,0.2830
1889.00,0.2833
1888.00,0.2836
1887.00,0.2837
1886.00,0.2838
1885.00,0.2838
1884.00,0.2839
1883.00,0.2839
1882.00,0.2840
1881.00,0.2840
1880.00,0.2840
1879.00,0.2840
1878.00,0.2839
1877.00,0.2838
1876.00,0.2838
1875.00,0.2836
1874.00,0.2832
1873.00,0.2828
1872.00,0.2824
1871.00,0.2819
1870.00,0.2815
1869.00,0.2813
1868.00,0.2813
1867.00,0.2814
1866.00,0.2813
1865.00,0.2812
1864.00,0.2811
1863.00,0.2808
1862.00,0.2805
1861.00,0.2802
1860.00,0.2800
1859.00,0.2797
1858.00,0.2795
1857.00,0.2793
1856.00,0.2792
1855.00,0.2790
1854.00,0.2788
1853.00,0.2786
1852.00,0.2784
1851.00,0.2781
1850.00,0.2779
1849.00,0.2776
1848.00,0.2775
1847.00,0.2775
1846.00,0.2775
1845.00,0.2776
1844.00,0.2776
1843.00,0.2776
1842.00,0.2775
1841.00,0.2774
1840.00,0.2773
1839.00,0.2771
1838.00,0.2770
1837.00,0.2769
1836.00,0.2769
1835.00,0.2768
1834.00,0.2766
1833.00,0.2764
1832.00,0.2762
1831.00,0.2761
1830.00,0.2760
1829.00,0.2759
1828.00,0.2758
1827.00,0.2757
1826.00,0.2757
1825.00,0.2758
1824.00,0.2760
1823.00,0.2761
1822.00,0.2760
1821.00,0.2760
1820.00,0.2759
1819.00,0.2759
1818.00,0.2760
1817.00,0.2762
1816.00,0.2764
1815.00,0.2765
1814.00,0.2765
1813.00,0.2766
1812.00,0.2767
1811.00,0.2770
1810.00,0.2773
1809.00,0.2777
1808.00,0.2781
1807.00,0.2784
1806.00,0.2787
1805.00,0.2789
1804.00,0.2792
1803.00,0.2795
1802.00,0.2800
1801.00,0.2807
1800.00,0.2814
1799.00,0.2820
1798.00,0.2824
1797.00,0.2828
1796.00,0.2833
1795.00,0.2837
1794.00,0.2840
1793.00,0.2844
1792.00,0.2850
1791.00,0.2856
1790.00,0.2862
1789.00,0.2868
1788.00,0.2873
1787.00,0.2876
1786.00,0.2879
1785.00,0.2882
1784.00,0.2885
1783.00,0.2888
1782.00,0.2890
1781.00,0.2894
1780.00,0.2899
1779.00,0.2903
1778.00,0.2906
1777.00,0.2910
1776.00,0.2914
1775.00,0.2918
1774.00,0.2923
1773.00,0.2928
1772.00,0.2936
1771.00,0.2943
1770.00,0.2951
1769.00,0.2960
1768.00,0.2970
1767.00,0.2979
1766.00,0.2986
1765.00,0.2994
1764.00,0.3003
1763.00,0.3013
1762.00,0.3025
1761.00,0.3037
1760.00,0.3050
1759.00,0.3064
1758.00,0.3079
1757.00,0.3096
1756.00,0.3114
1755.00,0.3130
1754.00,0.3146
1753.00,0.3163
1752.00,0.3183
1751.00,0.3206
1750.00,0.3232
1749.00,0.3262
1748.00,0.3293
1747.00,0.3323
1746.00,0.3351
1745.00,0.3379
1744.00,0.3407
1743.00,0.3433
1742.00,0.3455
1741.00,0.3475
1740.00,0.3490
1739.00,0.3501
1738.00,0.3507
1737.00,0.3512
1736.00,0.3515
1735.00,0.3515
1734.00,0.3514
1733.00,0.3514
1732.00,0.3516
1731.00,0.3518
1730.00,0.3520
1729.00,0.3522
1728.00,0.3524
1727.00,0.3526
1726.00,0.3530
1725.00,0.3540
1724.00,0.3557
1723.00,0.3579
1722.00,0.3606
1721.00,0.3638
1720.00,0.3677
1719.00,0.3729
1718.00,0.3804
1717.00,0.3901
1716.00,0.4013
1715.00,0.4136
1714.00,0.4267
1713.00,0.4402
1712.00,0.4533
1711.00,0.4655
1710.00,0.4761
1709.00,0.4839
1708.00,0.4879
1707.00,0.4879
1706.00,0.4842
1705.00,0.4773
1704.00,0.4687
1703.00,0.4597
1702.00,0.4493
1701.00,0.4357
1700.00,0.4205
1699.00,0.4078
1698.00,0.3988
1697.00,0.3914
1696.00,0.3839
1695.00,0.3767
1694.00,0.3709
1693.00,0.3665
1692.00,0.3627
1691.00,0.3590
1690.00,0.3556
1689.00,0.3528
1688.00,0.3505
1687.00,0.3485
1686.00,0.3465
1685.00,0.3446
1684.00,0.3430
1683.00,0.3415
1682.00,0.3404
1681.00,0.3397
1680.00,0.3392
1679.00,0.3387
1678.00,0.3383
1677.00,0.3380
1676.00,0.3375
1675.00,0.3369
1674.00,0.3363
1673.00,0.3361
1672.00,0.3360
1671.00,0.3361
1670.00,0.3363
1669.00,0.3367
1668.00,0.3370
1667.00,0.3372
1666.00,0.3374
1665.00,0.3377
1664.00,0.3380
1663.00,0.3383
1662.00,0.3387
1661.00,0.3391
1660.00,0.3396
1659.00,0.3398
1658.00,0.3401
1657.00,0.3404
1656.00,0.3409
1655.00,0.3414
1654.00,0.3425
1653.00,0.3440
1652.00,0.3450
1651.00,0.3457
1650.00,0.3464
1649.00,0.3474
1648.00,0.3489
1647.00,0.3510
1646.00,0.3532
1645.00,0.3552
1644.00,0.3570
1643.00,0.3587
1642.00,0.3603
1641.00,0.3620
1640.00,0.3638
1639.00,0.3655
1638.00,0.3673
1637.00,0.3697
1636.00,0.3727
1635.00,0.3756
1634.00,0.3780
1633.00,0.3802
1632.00,0.3824
1631.00,0.3845
1630.00,0.3867
1629.00,0.3892
1628.00,0.3918
1627.00,0.3945
1626.00,0.3972
1625.00,0.4003
1624.00,0.4041
1623.00,0.4085
1622.00,0.4132
1621.00,0.4185
1620.00,0.4242
1619.00,0.4307
1618.00,0.4387
1617.00,0.4489
1616.00,0.4605
1615.00,0.4716
1614.00,0.4818
1613.00,0.4921
1612.00,0.5027
1611.00,0.5134
1610.00,0.5241
1609.00,0.5348
1608.00,0.5452
1607.00,0.5545
1606.00,0.5625
1605.00,0.5698
1604.00,0.5769
1603.00,0.5836
1602.00,0.5900
1601.00,0.5970
1600.00,0.6047
1599.00,0.6130
1598.00,0.6222
1597.00,0.6338
1596.00,0.6490
1595.00,0.6681
1594.00,0.6920
1593.00,0.7226
1592.00,0.7617
1591.00,0.8107
1590.00,0.8718
1589.00,0.9495
1588.00,1.0487
1587.00,1.1730
1586.00,1.3259
1585.00,1.5143
1584.00,1.7472
1583.00,2.0169
1582.00,2.2661
1581.00,2.3991
1580.00,2.3606
1579.00,2.1676
1578.00,1.9058
1577.00,1.6555
1576.00,1.4491
1575.00,1.2944
1574.00,1.1848
1573.00,1.1069
1572.00,1.0486
1571.00,1.0030
1570.00,0.9706
1569.00,0.9550
1568.00,0.9574
1567.00,0.9765
1566.00,1.0132
1565.00,1.0701
1564.00,1.1451
1563.00,1.2272
1562.00,1.3016
1561.00,1.3528
1560.00,1.3496
1559.00,1.2655
1558.00,1.1469
1557.00,1.0453
1556.00,0.9622
1555.00,0.8873
1554.00,0.8205
1553.00,0.7671
1552.00,0.7271
1551.00,0.6960
1550.00,0.6705
1549.00,0.6503
1548.00,0.6349
1547.00,0.6225
1546.00,0.6114
1545.00,0.6014
1544.00,0.5926
1543.00,0.5844
1542.00,0.5759
1541.00,0.5671
1540.00,0.5581
1539.00,0.5490
1538.00,0.5408
1537.00,0.5344
1536.00,0.5291
1535.00,0.5237
1534.00,0.5185
1533.00,0.5144
1532.00,0.5121
1531.00,0.5110
1530.00,0.5107
1529.00,0.5110
1528.00,0.5115
1527.00,0.5116
1526.00,0.5109
1525.00,0.5100
1524.00,0.5092
1523.00,0.5089
1522.00,0.5096
1521.00,0.5119
1520.00,0.5152
1519.00,0.5187
1518.00,0.5227
1517.00,0.5273
1516.00,0.5318
1515.00,0.5349
1514.00,0.5364
1513.00,0.5371
1512.00,0.5374
1511.00,0.5379
1510.00,0.5392
1509.00,0.5422
1508.00,0.5486
1507.00,0.5591
1506.00,0.5717
1505.00,0.5836
1504.00,0.5939
1503.00,0.6027
1502.00,0.6108
1501.00,0.6186
1500.00,0.6261
1499.00,0.6330
1498.00,0.6404
1497.00,0.6496
1496.00,0.6605
1495.00,0.6713
1494.00,0.6818
1493.00,0.6930
1492.00,0.7053
1491.00,0.7191
1490.00,0.7351
1489.00,0.7535
1488.00,0.7734
1487.00,0.7946
1486.00,0.8184
1485.00,0.8462
1484.00,0.8784
1483.00,0.9154
1482.00,0.9591
1481.00,1.0107
1480.00,1.0690
1479.00,1.1334
1478.00,1.2071
1477.00,1.2950
1476.00,1.3978
1475.00,1.5155
1474.00,1.6572
1473.00,1.8422
1472.00,2.0817
1471.00,2.3661
1470.00,2.6884
1469.00,3.0812
1468.00,3.5834
1467.00,3.9548
1466.00,3.9325
1465.00,4.0793
1464.00,4.1443
1463.00,3.9099
1462.00,3.9145
1461.00,4.2099
1460.00,4.4476
1459.00,3.9308
1458.00,3.6587
1457.00,3.6169
1456.00,3.5538
1455.00,3.5593
1454.00,3.6204
1453.00,3.7222
1452.00,3.9078
1451.00,4.1826
1450.00,3.8279
1449.00,3.8127
1448.00,3.6444
1447.00,3.3703
1446.00,3.1694
1445.00,3.0133
1444.00,2.8342
1443.00,2.6484
1442.00,2.4924
1441.00,2.3618
1440.00,2.2372
1439.00,2.1127
1438.00,1.9901
1437.00,1.8682
1436.00,1.7498
1435.00,1.6422
1434.00,1.5459
1433.00,1.4547
1432.00,1.3655
1431.00,1.2810
1430.00,1.2057
1429.00,1.1414
1428.00,1.0882
1427.00,1.0450
1426.00,1.0096
1425.00,0.9799
1424.00,0.9551
1423.00,0.9357
1422.00,0.9209
1421.00,0.9082
1420.00,0.8960
1419.00,0.8845
1418.00,0.8742
1417.00,0.8653
1416.00,0.8579
1415.00,0.8518
1414.00,0.8471
1413.00,0.8436
1412.00,0.8413
1411.00,0.8398
1410.00,0.8380
1409.00,0.8345
1408.00,0.8285
1407.00,0.8194
1406.00,0.8073
1405.00,0.7925
1404.00,0.7764
1403.00,0.7608
1402.00,0.7464
1401.00,0.7332
1400.00,0.7215
1399.00,0.7123
1398.00,0.7057
1397.00,0.7019
1396.00,0.7012
1395.00,0.7044
1394.00,0.7118
1393.00,0.7238
1392.00,0.7421
1391.00,0.7686
1390.00,0.8059
1389.00,0.8571
1388.00,0.9261
1387.00,1.0137
1386.00,1.1152
1385.00,1.2239
1384.00,1.3378
1383.00,1.4598
1382.00,1.5933
1381.00,1.7419
1380.00,1.9077
1379.00,2.0796
1378.00,2.2175
1377.00,2.2682
1376.00,2.2117
1375.00,2.0740
1374.00,1.9029
1373.00,1.7407
1372.00,1.6062
1371.00,1.5013
1370.00,1.4243
1369.00,1.3731
1368.00,1.3420
1367.00,1.3190
1366.00,1.2887
1365.00,1.2407
1364.00,1.1761
1363.00,1.1054
1362.00,1.0401
1361.00,0.9868
1360.00,0.9461
1359.00,0.9158
1358.00,0.8938
1357.00,0.8783
1356.00,0.8680
1355.00,0.8618
1354.00,0.8583
1353.00,0.8564
1352.00,0.8550
1351.00,0.8532
1350.00,0.8506
1349.00,0.8476
1348.00,0.8443
1347.00,0.8414
1346.00,0.8389
1345.00,0.8368
1344.00,0.8351
1343.00,0.8331
1342.00,0.8300
1341.00,0.8254
1340.00,0.8188
1339.00,0.8100
1338.00,0.7989
1337.00,0.7858
1336.00,0.7714
1335.00,0.7564
1334.00,0.7417
1333.00,0.7283
1332.00,0.7166
1331.00,0.7070
1330.00,0.6993
1329.00,0.6935
1328.00,0.6893
1327.00,0.6866
1326.00,0.6852
1325.00,0.6847
1324.00,0.6849
1323.00,0.6854
1322.00,0.6861
1321.00,0.6867
1320.00,0.6872
1319.00,0.6879
1318.00,0.6890
1317.00,0.6907
1316.00,0.6930
1315.00,0.6960
1314.00,0.6996
1313.00,0.7037
1312.00,0.7080
1311.00,0.7123
1310.00,0.7163
1309.00,0.7198
1308.00,0.7227
1307.00,0.7248
1306.00,0.7259
1305.00,0.7257
1304.00,0.7242
1303.00,0.7213
1302.00,0.7173
1301.00,0.7126
1300.00,0.7074
1299.00,0.7018
1298.00,0.6961
1297.00,0.6903
1296.00,0.6848
1295.00,0.6799
1294.00,0.6755
1293.00,0.6713
1292.00,0.6674
1291.00,0.6638
1290.00,0.6603
1289.00,0.6570
1288.00,0.6536
1287.00,0.6500
1286.00,0.6461
1285.00,0.6416
1284.00,0.6369
1283.00,0.6324
1282.00,0.6285
1281.00,0.6252
1280.00,0.6224
1279.00,0.6199
1278.00,0.6175
1277.00,0.6149
1276.00,0.6122
1275.00,0.6095
1274.00,0.6071
1273.00,0.6052
1272.00,0.6039
1271.00,0.6031
1270.00,0.6025
1269.00,0.6016
1268.00,0.5999
1267.00,0.5970
1266.00,0.5931
1265.00,0.5883
1264.00,0.5836
1263.00,0.5795
1262.00,0.5764
1261.00,0.5741
1260.00,0.5721
1259.00,0.5704
1258.00,0.5687
1257.00,0.5668
1256.00,0.5644
1255.00,0.5620
1254.00,0.5598
1253.00,0.5580
1252.00,0.5566
1251.00,0.5554
1250.00,0.5540
1249.00,0.5523
1248.00,0.5503
1247.00,0.5480
1246.00,0.5454
1245.00,0.5426
1244.00,0.5395
1243.00,0.5362
1242.00,0.5328
1241.00,0.5294
1240.00,0.5261
1239.00,0.5233
1238.00,0.5211
1237.00,0.5192
1236.00,0.5177
1235.00,0.5168
1234.00,0.5164
1233.00,0.5166
1232.00,0.5172
1231.00,0.5181
1230.00,0.5189
1229.00,0.5192
1228.00,0.5184
1227.00,0.5166
1226.00,0.5137
1225.00,0.5104
1224.00,0.5069
1223.00,0.5038
1222.00,0.5012
1221.00,0.4991
1220.00,0.4975
1219.00,0.4964
1218.00,0.4960
1217.00,0.4961
1216.00,0.4967
1215.00,0.4976
1214.00,0.4986
1213.00,0.4990
1212.00,0.4987
1211.00,0.4977
1210.00,0.4964
1209.00,0.4948
1208.00,0.4934
1207.00,0.4920
1206.00,0.4907
1205.00,0.4892
1204.00,0.4876
1203.00,0.4862
1202.00,0.4849
1201.00,0.4840
1200.00,0.4835
1199.00,0.4833
1198.00,0.4831
1197.00,0.4827
1196.00,0.4820
1195.00,0.4810
1194.00,0.4800
1193.00,0.4792
1192.00,0.4785
1191.00,0.4780
1190.00,0.4775
1189.00,0.4769
1188.00,0.4762
1187.00,0.4756
1186.00,0.4749
1185.00,0.4742
1184.00,0.4736
1183.00,0.4732
1182.00,0.4730
1181.00,0.4729
1180.00,0.4731
1179.00,0.4736
1178.00,0.4744
1177.00,0.4756
1176.00,0.4774
1175.00,0.4802
1174.00,0.4840
1173.00,0.4885
1172.00,0.4933
1171.00,0.4977
1170.00,0.5009
1169.00,0.5023
1168.00,0.5020
1167.00,0.5007
1166.00,0.4991
1165.00,0.4977
1164.00,0.4967
1163.00,0.4966
1162.00,0.4971
1161.00,0.4983
1160.00,0.4999
1159.00,0.5019
1158.00,0.5037
1157.00,0.5050
1156.00,0.5056
1155.00,0.5056
1154.00,0.5050
1153.00,0.5038
1152.00,0.5022
1151.00,0.5003
1150.00,0.4982
1149.00,0.4962
1148.00,0.4942
1147.00,0.4927
1146.00,0.4915
1145.00,0.4907
1144.00,0.4904
1143.00,0.4909
1142.00,0.4926
1141.00,0.4954
1140.00,0.4996
1139.00,0.5051
1138.00,0.5118
1137.00,0.5195
1136.00,0.5280
1135.00,0.5366
1134.00,0.5442
1133.00,0.5489
1132.00,0.5491
1131.00,0.5447
1130.00,0.5372
1129.00,0.5287
1128.00,0.5211
1127.00,0.5152
1126.00,0.5110
1125.00,0.5083
1124.00,0.5065
1123.00,0.5051
1122.00,0.5037
1121.00,0.5023
1120.00,0.5014
1119.00,0.5012
1118.00,0.5024
1117.00,0.5049
1116.00,0.5084
1115.00,0.5117
1114.00,0.5133
1113.00,0.5117
1112.00,0.5069
1111.00,0.5000
1110.00,0.4926
1109.00,0.4859
1108.00,0.4806
1107.00,0.4768
1106.00,0.4745
1105.00,0.4732
1104.00,0.4724
1103.00,0.4718
1102.00,0.4713
1101.00,0.4705
1100.00,0.4694
1099.00,0.4682
1098.00,0.4669
1097.00,0.4657
1096.00,0.4649
1095.00,0.4645
1094.00,0.4647
1093.00,0.4652
1092.00,0.4658
1091.00,0.4667
1090.00,0.4679
1089.00,0.4696
1088.00,0.4718
1087.00,0.4748
1086.00,0.4787
1085.00,0.4836
1084.00,0.4895
1083.00,0.4963
1082.00,0.5038
1081.00,0.5119
1080.00,0.5202
1079.00,0.5278
1078.00,0.5337
1077.00,0.5369
1076.00,0.5370
1075.00,0.5340
1074.00,0.5287
1073.00,0.5222
1072.00,0.5157
1071.00,0.5101
1070.00,0.5059
1069.00,0.5028
1068.00,0.5005
1067.00,0.4986
1066.00,0.4972
1065.00,0.4962
1064.00,0.4955
1063.00,0.4954
1062.00,0.4958
1061.00,0.4965
1060.00,0.4971
1059.00,0.4974
1058.00,0.4973
1057.00,0.4968
1056.00,0.4958
1055.00,0.4945
1054.00,0.4930
1053.00,0.4918
1052.00,0.4911
1051.00,0.4914
1050.00,0.4926
1049.00,0.4942
1048.00,0.4959
1047.00,0.4973
1046.00,0.4984
1045.00,0.4991
1044.00,0.4994
1043.00,0.4994
1042.00,0.4992
1041.00,0.4989
1040.00,0.4986
1039.00,0.4981
1038.00,0.4975
1037.00,0.4967
1036.00,0.4961
1035.00,0.4962
1034.00,0.4970
1033.00,0.4983
1032.00,0.4999
1031.00,0.5015
1030.00,0.5029
1029.00,0.5036
1028.00,0.5031
1027.00,0.5009
1026.00,0.4970
1025.00,0.4918
1024.00,0.4858
1023.00,0.4799
1022.00,0.4743
1021.00,0.4692
1020.00,0.4646
1019.00,0.4607
1018.00,0.4574
1017.00,0.4545
1016.00,0.4519
1015.00,0.4494
1014.00,0.4472
1013.00,0.4453
1012.00,0.4438
1011.00,0.4429
1010.00,0.4425
1009.00,0.4425
1008.00,0.4429
1007.00,0.4437
1006.00,0.4449
1005.00,0.4464
1004.00,0.4483
1003.00,0.4503
1002.00,0.4523
1001.00,0.4541
1000.00,0.4557
999.00,0.4568
998.00,0.4572
997.00,0.4568
996.00,0.4557
995.00,0.4538
994.00,0.4514
993.00,0.4484
992.00,0.4453
991.00,0.4421
990.00,0.4391
989.00,0.4364
988.00,0.4342
987.00,0.4329
986.00,0.4324
985.00,0.4329
984.00,0.4341
983.00,0.4359
982.00,0.4382
981.00,0.4408
980.00,0.4434
979.00,0.4459
978.00,0.4482
977.00,0.4502
976.00,0.4519
975.00,0.4534
974.00,0.4546
973.00,0.4553
972.00,0.4558
971.00,0.4561
970.00,0.4564
969.00,0.4567
968.00,0.4570
967.00,0.4570
966.00,0.4567
965.00,0.4560
964.00,0.4549
963.00,0.4536
962.00,0.4522
961.00,0.4507
960.00,0.4494
959.00,0.4484
958.00,0.4478
957.00,0.4473
956.00,0.4468
955.00,0.4462
954.00,0.4454
953.00,0.4443
952.00,0.4430
951.00,0.4417
950.00,0.4408
949.00,0.4403
948.00,0.4404
947.00,0.4410
946.00,0.4420
945.00,0.4433
944.00,0.4448
943.00,0.4464
942.00,0.4480
941.00,0.4496
940.00,0.4510
939.00,0.4521
938.00,0.4525
937.00,0.4522
936.00,0.4511
935.00,0.4495
934.00,0.4475
933.00,0.4452
932.00,0.4426
931.00,0.4402
930.00,0.4381
929.00,0.4366
928.00,0.4359
927.00,0.4362
926.00,0.4379
925.00,0.4411
924.00,0.4457
923.00,0.4513
922.00,0.4567
921.00,0.4603
920.00,0.4606
919.00,0.4571
918.00,0.4503
917.00,0.4416
916.00,0.4327
915.00,0.4247
914.00,0.4180
913.00,0.4126
912.00,0.4083
911.00,0.4049
910.00,0.4024
909.00,0.4005
908.00,0.3991
907.00,0.3983
906.00,0.3977
905.00,0.3972
904.00,0.3971
903.00,0.3975
902.00,0.3988
901.00,0.4008
900.00,0.4035
899.00,0.4066
898.00,0.4102
897.00,0.4140
896.00,0.4178
895.00,0.4217
894.00,0.4257
893.00,0.4299
892.00,0.4341
891.00,0.4382
890.00,0.4414
889.00,0.4430
888.00,0.4428
887.00,0.4412
886.00,0.4390
885.00,0.4368
884.00,0.4349
883.00,0.4340
882.00,0.4341
881.00,0.4353
880.00,0.4369
879.00,0.4385
878.00,0.4395
877.00,0.4397
876.00,0.4395
875.00,0.4393
874.00,0.4393
873.00,0.4395
872.00,0.4399
871.00,0.4409
870.00,0.4423
869.00,0.4441
868.00,0.4464
867.00,0.4493
866.00,0.4530
865.00,0.4571
864.00,0.4611
863.00,0.4642
862.00,0.4651
861.00,0.4630
860.00,0.4578
859.00,0.4508
858.00,0.4435
857.00,0.4371
856.00,0.4320
855.00,0.4283
854.00,0.4257
853.00,0.4238
852.00,0.4224
851.00,0.4211
850.00,0.4196
849.00,0.4176
848.00,0.4151
847.00,0.4123
846.00,0.4095
845.00,0.4067
844.00,0.4042
843.00,0.4024
842.00,0.4018
841.00,0.4029
840.00,0.4063
839.00,0.4120
838.00,0.4193
837.00,0.4264
836.00,0.4311
835.00,0.4322
834.00,0.4297
833.00,0.4250
832.00,0.4202
831.00,0.4172
830.00,0.4166
829.00,0.4182
828.00,0.4213
827.00,0.4254
826.00,0.4304
825.00,0.4360
824.00,0.4424
823.00,0.4494
822.00,0.4566
821.00,0.4637
820.00,0.4705
819.00,0.4769
818.00,0.4824
817.00,0.4866
816.00,0.4890
815.00,0.4894
814.00,0.4877
813.00,0.4841
812.00,0.4790
811.00,0.4730
810.00,0.4669
809.00,0.4610
808.00,0.4554
807.00,0.4503
806.00,0.4455
805.00,0.4407
804.00,0.4356
803.00,0.4301
802.00,0.4243
801.00,0.4185
800.00,0.4131
799.00,0.4088
798.00,0.4056
797.00,0.4034
796.00,0.4020
795.00,0.4014
794.00,0.4014
793.00,0.4019
792.00,0.4030
791.00,0.4049
790.00,0.4074
789.00,0.4103
788.00,0.4134
787.00,0.4169
786.00,0.4211
785.00,0.4258
784.00,0.4307
783.00,0.4352
782.00,0.4389
781.00,0.4416
780.00,0.4434
779.00,0.4449
778.00,0.4464
777.00,0.4480
776.00,0.4497
775.00,0.4516
774.00,0.4537
773.00,0.4561
772.00,0.4586
771.00,0.4614
770.00,0.4645
769.00,0.4679
768.00,0.4715
767.00,0.4749
766.00,0.4779
765.00,0.4803
764.00,0.4822
763.00,0.4844
762.00,0.4873
761.00,0.4910
760.00,0.4953
759.00,0.4997
758.00,0.5038
757.00,0.5073
756.00,0.5102
755.00,0.5132
754.00,0.5166
753.00,0.5206
752.00,0.5250
751.00,0.5299
750.00,0.5348
749.00,0.5398
748.00,0.5447
747.00,0.5497
746.00,0.5548
745.00,0.5598
744.00,0.5648
743.00,0.5698
742.00,0.5751
741.00,0.5805
740.00,0.5853
739.00,0.5895
738.00,0.5930
737.00,0.5961
736.00,0.5992
735.00,0.6029
734.00,0.6076
733.00,0.6135
732.00,0.6210
731.00,0.6308
730.00,0.6434
729.00,0.6591
728.00,0.6781
727.00,0.7011
726.00,0.7285
725.00,0.7594
724.00,0.7905
723.00,0.8160
722.00,0.8276
721.00,0.8179
720.00,0.7861
719.00,0.7402
718.00,0.6909
717.00,0.6456
716.00,0.6076
715.00,0.5774
714.00,0.5537
713.00,0.5349
712.00,0.5195
711.00,0.5069
710.00,0.4966
709.00,0.4882
708.00,0.4814
707.00,0.4760
706.00,0.4718
705.00,0.4683
704.00,0.4651
703.00,0.4626
702.00,0.4614
701.00,0.4610
700.00,0.4592
699.00,0.4537
698.00,0.4427
697.00,0.4269
696.00,0.4091
695.00,0.3927
694.00,0.3795
693.00,0.3697
692.00,0.3623
691.00,0.3569
690.00,0.3528
689.00,0.3495
688.00,0.3469
687.00,0.3448
686.00,0.3433
685.00,0.3422
684.00,0.3413
683.00,0.3407
682.00,0.3405
681.00,0.3406
680.00,0.3408
679.00,0.3411
678.00,0.3413
677.00,0.3414
676.00,0.3414
675.00,0.3416
674.00,0.3419
673.00,0.3423
672.00,0.3428
671.00,0.3434
670.00,0.3440
669.00,0.3446
668.00,0.3449
667.00,0.3450
666.00,0.3455
665.00,0.3463
664.00,0.3470
663.00,0.3476
662.00,0.3482
661.00,0.3487
660.00,0.3492
659.00,0.3498
658.00,0.3506
657.00,0.3514
656.00,0.3521
655.00,0.3528
654.00,0.3535
653.00,0.3543
652.00,0.3550
651.00,0.3556
650.00,0.3561
649.00,0.3566
648.00,0.3571
647.00,0.3580
646.00,0.3593
645.00,0.3609
644.00,0.3626
643.00,0.3642
642.00,0.3659
641.00,0.3673
640.00,0.3686
639.00,0.3695
638.00,0.3702
637.00,0.3707
636.00,0.3710
635.00,0.3713
634.00,0.3716
633.00,0.3722
632.00,0.3733
631.00,0.3749
630.00,0.3767
629.00,0.3784
628.00,0.3802
627.00,0.3819
626.00,0.3838
625.00,0.3857
624.00,0.3877
623.00,0.3900
622.00,0.3922
621.00,0.3943
620.00,0.3961
619.00,0.3975
618.00,0.3983
617.00,0.3984
616.00,0.3979
615.00,0.3973
614.00,0.3967
613.00,0.3962
612.00,0.3955
611.00,0.3946
610.00,0.3934
609.00,0.3921
608.00,0.3910
607.00,0.3900
606.00,0.3892
605.00,0.3886
604.00,0.3881
603.00,0.3879
602.00,0.3878
601.00,0.3877
600.00,0.3878
599.00,0.3887
598.00,0.3902
597.00,0.3920
596.00,0.3940
595.00,0.3963
594.00,0.3989
593.00,0.4012
592.00,0.4030
591.00,0.4045
590.00,0.4063
589.00,0.4084
588.00,0.4106
587.00,0.4130
586.00,0.4157
585.00,0.4184
584.00,0.4209
583.00,0.4229
582.00,0.4249
581.00,0.4272
580.00,0.4300
579.00,0.4328
578.00,0.4352
577.00,0.4369
576.00,0.4384
575.00,0.4401
574.00,0.4421
573.00,0.4444
572.00,0.4466
571.00,0.4487
570.00,0.4506
569.00,0.4523
568.00,0.4537
567.00,0.4548
566.00,0.4558
565.00,0.4569
564.00,0.4584
563.00,0.4602
562.00,0.4621
561.00,0.4637
560.00,0.4650
559.00,0.4663
558.00,0.4678
557.00,0.4694
556.00,0.4710
555.00,0.4725
554.00,0.4737
553.00,0.4748
552.00,0.4759
551.00,0.4772
550.00,0.4787
