Created as New Dataset,
cm-1,A
4000.00,0.4407
3999.00,0.4404
3998.00,0.4401
3997.00,0.4399
3996.00,0.4397
3995.00,0.4394
3994.00,0.4391
3993.00,0.4388
3992.00,0.4384
3991.00,0.4381
3990.00,0.4377
3989.00,0.4373
3988.00,0.4369
3987.00,0.4365
3986.00,0.4361
3985.00,0.4357
3984.00,0.4354
3983.00,0.4351
3982.00,0.4347
3981.00,0.4343
3980.00,0.4339
3979.00,0.4335
3978.00,0.4332
3977.00,0.4329
3976.00,0.4326
3975.00,0.4324
3974.00,0.4321
3973.00,0.4318
3972.00,0.4315
3971.00,0.4312
3970.00,0.4310
3969.00,0.4307
3968.00,0.4305
3967.00,0.4303
3966.00,0.4301
3965.00,0.4298
3964.00,0.4294
3963.00,0.4292
3962.00,0.4289
3961.00,0.4288
3960.00,0.4286
3959.00,0.4285
3958.00,0.4283
3957.00,0.4282
3956.00,0.4281
3955.00,0.4280
3954.00,0.4279
3953.00,0.4279
3952.00,0.4277
3951.00,0.4276
3950.00,0.4274
3949.00,0.4272
3948.00,0.4270
3947.00,0.4268
3946.00,0.4267
3945.00,0.4266
3944.00,0.4265
3943.00,0.4264
3942.00,0.4262
3941.00,0.4261
3940.00,0.4259
3939.00,0.4257
3938.00,0.4256
3937.00,0.4255
3936.00,0.4255
3935.00,0.4254
3934.00,0.4252
3933.00,0.4252
3932.00,0.4251
3931.00,0.4251
3930.00,0.4251
3929.00,0.4251
3928.00,0.4251
3927.00,0.4250
3926.00,0.4249
3925.00,0.4249
3924.00,0.4249
3923.00,0.4249
3922.00,0.4249
3921.00,0.4248
3920.00,0.4247
3919.00,0.4247
3918.00,0.4248
3917.00,0.4248
3916.00,0.4248
3915.00,0.4247
3914.00,0.4246
3913.00,0.4244
3912.00,0.4243
3911.00,0.4242
3910.00,0.4241
3909.00,0.4240
3908.00,0.4239
3907.00,0.4238
3906.00,0.4237
3905.00,0.4236
3904.00,0.4236
3903.00,0.4237
3902.00,0.4237
3901.00,0.4236
3900.00,0.4235
3899.00,0.4235
3898.00,0.4235
3897.00,0.4234
3896.00,0.4232
3895.00,0.4231
3894.00,0.4229
3893.00,0.4227
3892.00,0.4226
3891.00,0.4225
3890.00,0.4226
3889.00,0.4226
3888.00,0.4225
3887.00,0.4223
3886.00,0.4222
3885.00,0.4222
3884.00,0.4223
3883.00,0.4223
3882.00,0.4223
3881.00,0.4222
3880.00,0.4221
3879.00,0.4220
3878.00,0.4219
3877.00,0.4217
3876.00,0.4214
3875.00,0.4212
3874.00,0.4211
3873.00,0.4210
3872.00,0.4208
3871.00,0.4206
3870.00,0.4204
3869.00,0.4203
3868.00,0.4203
3867.00,0.4201
3866.00,0.4198
3865.00,0.4196
3864.00,0.4196
3863.00,0.4195
3862.00,0.4194
3861.00,0.4192
3860.00,0.4191
3859.00,0.4189
3858.00,0.4188
3857.00,0.4188
3856.00,0.4186
3855.00,0.4184
3854.00,0.4184
3853.00,0.4186
3852.00,0.4188
3851.00,0.4188
3850.00,0.4187
3849.00,0.4186
3848.00,0.4185
3847.00,0.4185
3846.00,0.4184
3845.00,0.4182
3844.00,0.4181
3843.00,0.4180
3842.00,0.4180
3841.00,0.4180
3840.00,0.4179
3839.00,0.4178
3838.00,0.4177
3837.00,0.4175
3836.00,0.4174
3835.00,0.4172
3834.00,0.4171
3833.00,0.4170
3832.00,0.4168
3831.00,0.4166
3830.00,0.4165
3829.00,0.4163
3828.00,0.4162
3827.00,0.4161
3826.00,0.4161
3825.00,0.4162
3824.00,0.4162
3823.00,0.4160
3822.00,0.4159
3821.00,0.4158
3820.00,0.4159
3819.00,0.4159
3818.00,0.4158
3817.00,0.4156
3816.00,0.4155
3815.00,0.4154
3814.00,0.4151
3813.00,0.4147
3812.00,0.4144
3811.00,0.4142
3810.00,0.4140
3809.00,0.4137
3808.00,0.4134
3807.00,0.4131
3806.00,0.4129
3805.00,0.4129
3804.00,0.4128
3803.00,0.4125
3802.00,0.4123
3801.00,0.4122
3800.00,0.4121
3799.00,0.4119
3798.00,0.4116
3797.00,0.4113
3796.00,0.4112
3795.00,0.4110
3794.00,0.4108
3793.00,0.4105
3792.00,0.4102
3791.00,0.4100
3790.00,0.4098
3789.00,0.4097
3788.00,0.4096
3787.00,0.4095
3786.00,0.4094
3785.00,0.4093
3784.00,0.4092
3783.00,0.4091
3782.00,0.4090
3781.00,0.4089
3780.00,0.4087
3779.00,0.4087
3778.00,0.4086
3777.00,0.4084
3776.00,0.4082
3775.00,0.4080
3774.00,0.4079
3773.00,0.4078
3772.00,0.4076
3771.00,0.4073
3770.00,0.4070
3769.00,0.4068
3768.00,0.4066
3767.00,0.4064
3766.00,0.4062
3765.00,0.4060
3764.00,0.4059
3763.00,0.4058
3762.00,0.4055
3761.00,0.4053
3760.00,0.4051
3759.00,0.4049
3758.00,0.4047
3757.00,0.4045
3756.00,0.4043
3755.00,0.4042
3754.00,0.4041
3753.00,0.4040
3752.00,0.4039
3751.00,0.4038
3750.00,0.4037
3749.00,0.4037
3748.00,0.4037
3747.00,0.4036
3746.00,0.4033
3745.00,0.4031
3744.00,0.4031
3743.00,0.4030
3742.00,0.4029
3741.00,0.4027
3740.00,0.4025
3739.00,0.4024
3738.00,0.4023
3737.00,0.4021
3736.00,0.4019
3735.00,0.4018
3734.00,0.4017
3733.00,0.4014
3732.00,0.4011
3731.00,0.4009
3730.00,0.4008
3729.00,0.4006
3728.00,0.4004
3727.00,0.4002
3726.00,0.4000
3725.00,0.3998
3724.00,0.3996
3723.00,0.3993
3722.00,0.3991
3721.00,0.3990
3720.00,0.3989
3719.00,0.3986
3718.00,0.3984
3717.00,0.3983
3716.00,0.3983
3715.00,0.3983
3714.00,0.3983
3713.00,0.3984
3712.00,0.3984
3711.00,0.3985
3710.00,0.3985
3709.00,0.3984
3708.00,0.3983
3707.00,0.3982
3706.00,0.3982
3705.00,0.3982
3704.00,0.3982
3703.00,0.3981
3702.00,0.3980
3701.00,0.3979
3700.00,0.3978
3699.00,0.3977
3698.00,0.3976
3697.00,0.3975
3696.00,0.3975
3695.00,0.3975
3694.00,0.3975
3693.00,0.3975
3692.00,0.3975
3691.00,0.3975
3690.00,0.3975
3689.00,0.3975
3688.00,0.3974
3687.00,0.3973
3686.00,0.3972
3685.00,0.3971
3684.00,0.3971
3683.00,0.3970
3682.00,0.3968
3681.00,0.3966
3680.00,0.3966
3679.00,0.3966
3678.00,0.3967
3677.00,0.3966
3676.00,0.3966
3675.00,0.3966
3674.00,0.3966
3673.00,0.3966
3672.00,0.3966
3671.00,0.3965
3670.00,0.3965
3669.00,0.3965
3668.00,0.3963
3667.00,0.3962
3666.00,0.3961
3665.00,0.3960
3664.00,0.3960
3663.00,0.3960
3662.00,0.3960
3661.00,0.3961
3660.00,0.3961
3659.00,0.3962
3658.00,0.3962
3657.00,0.3962
3656.00,0.3962
3655.00,0.3964
3654.00,0.3965
3653.00,0.3967
3652.00,0.3968
3651.00,0.3969
3650.00,0.3972
3649.00,0.3974
3648.00,0.3976
3647.00,0.3978
3646.00,0.3979
3645.00,0.3980
3644.00,0.3981
3643.00,0.3982
3642.00,0.3983
3641.00,0.3985
3640.00,0.3986
3639.00,0.3988
3638.00,0.3990
3637.00,0.3992
3636.00,0.3993
3635.00,0.3994
3634.00,0.3995
3633.00,0.3998
3632.00,0.4000
3631.00,0.4002
3630.00,0.4004
3629.00,0.4006
3628.00,0.4009
3627.00,0.4011
3626.00,0.4012
3625.00,0.4014
3624.00,0.4015
3623.00,0.4016
3622.00,0.4017
3621.00,0.4017
3620.00,0.4017
3619.00,0.4016
3618.00,0.4016
3617.00,0.4015
3616.00,0.4014
3615.00,0.4013
3614.00,0.4012
3613.00,0.4012
3612.00,0.4013
3611.00,0.4014
3610.00,0.4015
3609.00,0.4016
3608.00,0.4017
3607.00,0.4018
3606.00,0.4018
3605.00,0.4016
3604.00,0.4014
3603.00,0.4013
3602.00,0.4010
3601.00,0.4006
3600.00,0.4002
3599.00,0.3996
3598.00,0.3990
3597.00,0.3984
3596.00,0.3977
3595.00,0.3971
3594.00,0.3965
3593.00,0.3959
3592.00,0.3954
3591.00,0.3949
3590.00,0.3946
3589.00,0.3942
3588.00,0.3940
3587.00,0.3937
3586.00,0.3935
3585.00,0.3933
3584.00,0.3931
3583.00,0.3931
3582.00,0.3930
3581.00,0.3929
3580.00,0.3929
3579.00,0.3929
3578.00,0.3930
3577.00,0.3930
3576.00,0.3930
3575.00,0.3931
3574.00,0.3932
3573.00,0.3934
3572.00,0.3935
3571.00,0.3937
3570.00,0.3939
3569.00,0.3941
3568.00,0.3944
3567.00,0.3946
3566.00,0.3948
3565.00,0.3949
3564.00,0.3951
3563.00,0.3953
3562.00,0.3955
3561.00,0.3957
3560.00,0.3960
3559.00,0.3962
3558.00,0.3963
3557.00,0.3965
3556.00,0.3967
3555.00,0.3970
3554.00,0.3973
3553.00,0.3976
3552.00,0.3980
3551.00,0.3984
3550.00,0.3988
3549.00,0.3992
3548.00,0.3996
3547.00,0.3999
3546.00,0.4003
3545.00,0.4006
3544.00,0.4009
3543.00,0.4013
3542.00,0.4017
3541.00,0.4021
3540.00,0.4024
3539.00,0.4028
3538.00,0.4031
3537.00,0.4034
3536.00,0.4037
3535.00,0.4040
3534.00,0.4044
3533.00,0.4047
3532.00,0.4050
3531.00,0.4054
3530.00,0.4057
3529.00,0.4060
3528.00,0.4064
3527.00,0.4067
3526.00,0.4070
3525.00,0.4074
3524.00,0.4077
3523.00,0.4081
3522.00,0.4085
3521.00,0.4088
3520.00,0.4092
3519.00,0.4096
3518.00,0.4099
3517.00,0.4103
3516.00,0.4108
3515.00,0.4112
3514.00,0.4117
3513.00,0.4122
3512.00,0.4127
3511.00,0.4132
3510.00,0.4136
3509.00,0.4140
3508.00,0.4145
3507.00,0.4149
3506.00,0.4155
3505.00,0.4160
3504.00,0.4166
3503.00,0.4171
3502.00,0.4177
3501.00,0.4183
3500.00,0.4189
3499.00,0.4195
3498.00,0.4202
3497.00,0.4208
3496.00,0.4214
3495.00,0.4220
3494.00,0.4227
3493.00,0.4233
3492.00,0.4239
3491.00,0.4245
3490.00,0.4251
3489.00,0.4258
3488.00,0.4265
3487.00,0.4271
3486.00,0.4277
3485.00,0.4283
3484.00,0.4289
3483.00,0.4296
3482.00,0.4302
3481.00,0.4309
3480.00,0.4315
3479.00,0.4321
3478.00,0.4327
3477.00,0.4332
3476.00,0.4338
3475.00,0.4344
3474.00,0.4351
3473.00,0.4358
3472.00,0.4365
3471.00,0.4373
3470.00,0.4380
3469.00,0.4388
3468.00,0.4395
3467.00,0.4403
3466.00,0.4411
3465.00,0.4420
3464.00,0.4428
3463.00,0.4436
3462.00,0.4443
3461.00,0.4451
3460.00,0.4459
3459.00,0.4467
3458.00,0.4475
3457.00,0.4482
3456.00,0.4490
3455.00,0.4498
3454.00,0.4505
3453.00,0.4513
3452.00,0.4519
3451.00,0.4526
3450.00,0.4533
3449.00,0.4540
3448.00,0.4548
3447.00,0.4555
3446.00,0.4563
3445.00,0.4570
3444.00,0.4577
3443.00,0.4584
3442.00,0.4592
3441.00,0.4599
3440.00,0.4606
3439.00,0.4612
3438.00,0.4619
3437.00,0.4626
3436.00,0.4633
3435.00,0.4639
3434.00,0.4645
3433.00,0.4651
3432.00,0.4657
3431.00,0.4664
3430.00,0.4671
3429.00,0.4679
3428.00,0.4686
3427.00,0.4694
3426.00,0.4702
3425.00,0.4711
3424.00,0.4719
3423.00,0.4729
3422.00,0.4738
3421.00,0.4747
3420.00,0.4755
3419.00,0.4764
3418.00,0.4775
3417.00,0.4785
3416.00,0.4796
3415.00,0.4807
3414.00,0.4817
3413.00,0.4827
3412.00,0.4837
3411.00,0.4848
3410.00,0.4859
3409.00,0.4871
3408.00,0.4883
3407.00,0.4895
3406.00,0.4908
3405.00,0.4921
3404.00,0.4933
3403.00,0.4944
3402.00,0.4956
3401.00,0.4968
3400.00,0.4981
3399.00,0.4994
3398.00,0.5006
3397.00,0.5018
3396.00,0.5031
3395.00,0.5044
3394.00,0.5058
3393.00,0.5071
3392.00,0.5084
3391.00,0.5096
3390.00,0.5109
3389.00,0.5123
3388.00,0.5137
3387.00,0.5151
3386.00,0.5165
3385.00,0.5179
3384.00,0.5193
3383.00,0.5207
3382.00,0.5221
3381.00,0.5236
3380.00,0.5252
3379.00,0.5267
3378.00,0.5283
3377.00,0.5298
3376.00,0.5312
3375.00,0.5328
3374.00,0.5345
3373.00,0.5362
3372.00,0.5381
3371.00,0.5398
3370.00,0.5416
3369.00,0.5434
3368.00,0.5452
3367.00,0.5470
3366.00,0.5489
3365.00,0.5508
3364.00,0.5527
3363.00,0.5546
3362.00,0.5566
3361.00,0.5586
3360.00,0.5607
3359.00,0.5628
3358.00,0.5650
3357.00,0.5671
3356.00,0.5693
3355.00,0.5715
3354.00,0.5736
3353.00,0.5757
3352.00,0.5778
3351.00,0.5798
3350.00,0.5819
3349.00,0.5839
3348.00,0.5859
3347.00,0.5879
3346.00,0.5898
3345.00,0.5919
3344.00,0.5939
3343.00,0.5958
3342.00,0.5977
3341.00,0.5995
3340.00,0.6013
3339.00,0.6030
3338.00,0.6046
3337.00,0.6060
3336.00,0.6072
3335.00,0.6084
3334.00,0.6094
3333.00,0.6104
3332.00,0.6113
3331.00,0.6121
3330.00,0.6127
3329.00,0.6133
3328.00,0.6136
3327.00,0.6137
3326.00,0.6137
3325.00,0.6137
3324.00,0.6137
3323.00,0.6135
3322.00,0.6132
3321.00,0.6126
3320.00,0.6120
3319.00,0.6113
3318.00,0.6107
3317.00,0.6099
3316.00,0.6090
3315.00,0.6081
3314.00,0.6071
3313.00,0.6061
3312.00,0.6050
3311.00,0.6040
3310.00,0.6028
3309.00,0.6016
3308.00,0.6003
3307.00,0.5991
3306.00,0.5978
3305.00,0.5966
3304.00,0.5953
3303.00,0.5941
3302.00,0.5930
3301.00,0.5918
3300.00,0.5908
3299.00,0.5897
3298.00,0.5888
3297.00,0.5878
3296.00,0.5869
3295.00,0.5860
3294.00,0.5853
3293.00,0.5845
3292.00,0.5839
3291.00,0.5832
3290.00,0.5826
3289.00,0.5821
3288.00,0.5817
3287.00,0.5813
3286.00,0.5810
3285.00,0.5808
3284.00,0.5806
3283.00,0.5804
3282.00,0.5803
3281.00,0.5803
3280.00,0.5803
3279.00,0.5803
3278.00,0.5805
3277.00,0.5807
3276.00,0.5809
3275.00,0.5812
3274.00,0.5815
3273.00,0.5818
3272.00,0.5822
3271.00,0.5827
3270.00,0.5832
3269.00,0.5838
3268.00,0.5843
3267.00,0.5849
3266.00,0.5854
3265.00,0.5860
3264.00,0.5866
3263.00,0.5873
3262.00,0.5880
3261.00,0.5887
3260.00,0.5894
3259.00,0.5900
3258.00,0.5906
3257.00,0.5912
3256.00,0.5918
3255.00,0.5923
3254.00,0.5929
3253.00,0.5934
3252.00,0.5940
3251.00,0.5947
3250.00,0.5952
3249.00,0.5957
3248.00,0.5962
3247.00,0.5965
3246.00,0.5969
3245.00,0.5972
3244.00,0.5975
3243.00,0.5979
3242.00,0.5983
3241.00,0.5986
3240.00,0.5989
3239.00,0.5990
3238.00,0.5990
3237.00,0.5989
3236.00,0.5989
3235.00,0.5988
3234.00,0.5989
3233.00,0.5989
3232.00,0.5988
3231.00,0.5986
3230.00,0.5984
3229.00,0.5981
3228.00,0.5978
3227.00,0.5976
3226.00,0.5972
3225.00,0.5968
3224.00,0.5964
3223.00,0.5959
3222.00,0.5954
3221.00,0.5948
3220.00,0.5942
3219.00,0.5936
3218.00,0.5929
3217.00,0.5922
3216.00,0.5916
3215.00,0.5909
3214.00,0.5903
3213.00,0.5896
3212.00,0.5889
3211.00,0.5882
3210.00,0.5875
3209.00,0.5869
3208.00,0.5862
3207.00,0.5855
3206.00,0.5847
3205.00,0.5840
3204.00,0.5834
3203.00,0.5827
3202.00,0.5820
3201.00,0.5813
3200.00,0.5805
3199.00,0.5797
3198.00,0.5789
3197.00,0.5781
3196.00,0.5773
3195.00,0.5765
3194.00,0.5757
3193.00,0.5749
3192.00,0.5740
3191.00,0.5731
3190.00,0.5722
3189.00,0.5712
3188.00,0.5703
3187.00,0.5694
3186.00,0.5685
3185.00,0.5676
3184.00,0.5667
3183.00,0.5657
3182.00,0.5646
3181.00,0.5635
3180.00,0.5624
3179.00,0.5614
3178.00,0.5604
3177.00,0.5594
3176.00,0.5583
3175.00,0.5572
3174.00,0.5561
3173.00,0.5551
3172.00,0.5541
3171.00,0.5530
3170.00,0.5519
3169.00,0.5509
3168.00,0.5498
3167.00,0.5488
3166.00,0.5477
3165.00,0.5466
3164.00,0.5455
3163.00,0.5444
3162.00,0.5433
3161.00,0.5422
3160.00,0.5412
3159.00,0.5402
3158.00,0.5392
3157.00,0.5382
3156.00,0.5372
3155.00,0.5361
3154.00,0.5350
3153.00,0.5339
3152.00,0.5329
3151.00,0.5319
3150.00,0.5309
3149.00,0.5299
3148.00,0.5290
3147.00,0.5281
3146.00,0.5272
3145.00,0.5264
3144.00,0.5255
3143.00,0.5247
3142.00,0.5239
3141.00,0.5231
3140.00,0.5224
3139.00,0.5218
3138.00,0.5212
3137.00,0.5205
3136.00,0.5199
3135.00,0.5193
3134.00,0.5187
3133.00,0.5183
3132.00,0.5179
3131.00,0.5175
3130.00,0.5171
3129.00,0.5168
3128.00,0.5165
3127.00,0.5162
3126.00,0.5160
3125.00,0.5157
3124.00,0.5155
3123.00,0.5154
3122.00,0.5153
3121.00,0.5154
3120.00,0.5154
3119.00,0.5155
3118.00,0.5155
3117.00,0.5156
3116.00,0.5158
3115.00,0.5161
3114.00,0.5164
3113.00,0.5168
3112.00,0.5171
3111.00,0.5176
3110.00,0.5181
3109.00,0.5188
3108.00,0.5197
3107.00,0.5205
3106.00,0.5212
3105.00,0.5220
3104.00,0.5227
3103.00,0.5234
3102.00,0.5241
3101.00,0.5249
3100.00,0.5257
3099.00,0.5266
3098.00,0.5274
3097.00,0.5284
3096.00,0.5294
3095.00,0.5307
3094.00,0.5321
3093.00,0.5337
3092.00,0.5356
3091.00,0.5377
3090.00,0.5399
3089.00,0.5424
3088.00,0.5450
3087.00,0.5478
3086.00,0.5508
3085.00,0.5539
3084.00,0.5572
3083.00,0.5606
3082.00,0.5642
3081.00,0.5680
3080.00,0.5721
3079.00,0.5764
3078.00,0.5809
3077.00,0.5854
3076.00,0.5899
3075.00,0.5944
3074.00,0.5987
3073.00,0.6029
3072.00,0.6071
3071.00,0.6114
3070.00,0.6156
3069.00,0.6199
3068.00,0.6241
3067.00,0.6281
3066.00,0.6321
3065.00,0.6358
3064.00,0.6392
3063.00,0.6424
3062.00,0.6453
3061.00,0.6479
3060.00,0.6504
3059.00,0.6527
3058.00,0.6549
3057.00,0.6572
3056.00,0.6595
3055.00,0.6619
3054.00,0.6645
3053.00,0.6674
3052.00,0.6707
3051.00,0.6744
3050.00,0.6783
3049.00,0.6825
3048.00,0.6868
3047.00,0.6912
3046.00,0.6958
3045.00,0.7004
3044.00,0.7051
3043.00,0.7098
3042.00,0.7145
3041.00,0.7191
3040.00,0.7238
3039.00,0.7285
3038.00,0.7335
3037.00,0.7387
3036.00,0.7443
3035.00,0.7502
3034.00,0.7566
3033.00,0.7634
3032.00,0.7707
3031.00,0.7784
3030.00,0.7864
3029.00,0.7947
3028.00,0.8033
3027.00,0.8123
3026.00,0.8216
3025.00,0.8313
3024.00,0.8414
3023.00,0.8520
3022.00,0.8630
3021.00,0.8744
3020.00,0.8861
3019.00,0.8980
3018.00,0.9100
3017.00,0.9219
3016.00,0.9339
3015.00,0.9460
3014.00,0.9584
3013.00,0.9711
3012.00,0.9843
3011.00,0.9979
3010.00,1.0121
3009.00,1.0271
3008.00,1.0430
3007.00,1.0598
3006.00,1.0773
3005.00,1.0953
3004.00,1.1136
3003.00,1.1322
3002.00,1.1513
3001.00,1.1712
3000.00,1.1921
2999.00,1.2143
2998.00,1.2382
2997.00,1.2641
2996.00,1.2927
2995.00,1.3245
2994.00,1.3598
2993.00,1.3990
2992.00,1.4423
2991.00,1.4903
2990.00,1.5437
2989.00,1.6035
2988.00,1.6710
2987.00,1.7469
2986.00,1.8315
2985.00,1.9241
2984.00,2.0244
2983.00,2.1343
2982.00,2.2564
2981.00,2.3921
2980.00,2.5409
2979.00,2.7027
2978.00,2.8789
2977.00,3.0688
2976.00,3.2667
2975.00,3.4661
2974.00,3.6601
2973.00,3.8267
2972.00,3.9337
2971.00,3.9758
2970.00,3.9456
2969.00,3.8782
2968.00,3.8098
2967.00,3.7607
2966.00,3.7280
2965.00,3.6933
2964.00,3.6712
2963.00,3.6837
2962.00,3.7435
2961.00,3.8531
2960.00,4.0244
2959.00,4.3836
2958.00,4.7277
2957.00,4.6479
2956.00,4.5053
2955.00,4.4919
2954.00,4.4103
2953.00,4.3002
2952.00,4.3276
2951.00,4.2932
2950.00,4.2145
2949.00,4.0860
2948.00,4.0260
2947.00,4.0730
2946.00,4.2769
2945.00,4.4186
2944.00,4.4256
2943.00,4.4014
2942.00,4.1782
2941.00,3.8572
2940.00,3.6624
2939.00,3.6240
2938.00,3.6811
2937.00,3.8029
2936.00,4.0089
2935.00,4.3110
2934.00,4.3908
2933.00,4.3069
2932.00,4.1948
2931.00,4.1975
2930.00,4.1712
2929.00,4.1558
2928.00,4.1994
2927.00,4.2800
2926.00,4.4510
2925.00,4.8431
2924.00,4.6881
2923.00,4.3473
2922.00,4.0822
2921.00,3.9692
2920.00,3.9747
2919.00,4.1203
2918.00,4.2860
2917.00,4.2283
2916.00,4.0546
2915.00,3.9620
2914.00,3.9674
2913.00,4.0791
2912.00,4.2187
2911.00,4.2487
2910.00,4.2016
2909.00,4.2037
2908.00,4.3237
2907.00,4.5019
2906.00,4.3095
2905.00,4.1201
2904.00,3.9955
2903.00,4.0106
2902.00,4.0091
2901.00,3.9782
2900.00,3.9214
2899.00,3.8590
2898.00,3.8710
2897.00,4.0469
2896.00,4.4488
2895.00,4.2546
2894.00,4.0921
2893.00,4.0779
2892.00,4.3015
2891.00,4.3796
2890.00,4.3831
2889.00,4.5718
2888.00,4.6446
2887.00,4.5253
2886.00,4.5662
2885.00,4.7285
2884.00,4.6604
2883.00,4.4590
2882.00,4.1885
2881.00,4.0152
2880.00,3.9273
2879.00,3.9824
2878.00,4.1708
2877.00,4.4123
2876.00,4.4644
2875.00,4.2684
2874.00,4.1135
2873.00,4.0728
2872.00,4.1108
2871.00,4.1445
2870.00,4.1108
2869.00,4.0194
2868.00,3.9678
2867.00,3.9603
2866.00,3.8974
2865.00,3.8247
2864.00,3.8434
2863.00,4.0373
2862.00,4.3795
2861.00,4.4327
2860.00,4.2197
2859.00,4.1275
2858.00,4.1085
2857.00,3.9434
2856.00,3.7440
2855.00,3.6260
2854.00,3.6055
2853.00,3.6552
2852.00,3.7632
2851.00,3.8769
2850.00,3.8864
2849.00,3.8076
2848.00,3.7634
2847.00,3.8270
2846.00,4.0071
2845.00,4.1991
2844.00,4.3616
2843.00,4.4967
2842.00,4.3744
2841.00,4.3858
2840.00,4.4770
2839.00,4.0595
2838.00,3.6342
2837.00,3.3228
2836.00,3.0899
2835.00,2.8810
2834.00,2.6951
2833.00,2.5244
2832.00,2.3677
2831.00,2.2266
2830.00,2.1007
2829.00,1.9895
2828.00,1.8919
2827.00,1.8059
2826.00,1.7284
2825.00,1.6573
2824.00,1.5922
2823.00,1.5330
2822.00,1.4795
2821.00,1.4306
2820.00,1.3854
2819.00,1.3435
2818.00,1.3044
2817.00,1.2678
2816.00,1.2335
2815.00,1.2015
2814.00,1.1717
2813.00,1.1437
2812.00,1.1173
2811.00,1.0924
2810.00,1.0689
2809.00,1.0466
2808.00,1.0254
2807.00,1.0051
2806.00,0.9857
2805.00,0.9674
2804.00,0.9499
2803.00,0.9333
2802.00,0.9176
2801.00,0.9026
2800.00,0.8884
2799.00,0.8749
2798.00,0.8621
2797.00,0.8497
2796.00,0.8377
2795.00,0.8261
2794.00,0.8147
2793.00,0.8037
2792.00,0.7931
2791.00,0.7828
2790.00,0.7729
2789.00,0.7632
2788.00,0.7537
2787.00,0.7443
2786.00,0.7350
2785.00,0.7260
2784.00,0.7173
2783.00,0.7088
2782.00,0.7007
2781.00,0.6929
2780.00,0.6855
2779.00,0.6785
2778.00,0.6718
2777.00,0.6654
2776.00,0.6594
2775.00,0.6537
2774.00,0.6483
2773.00,0.6433
2772.00,0.6385
2771.00,0.6341
2770.00,0.6300
2769.00,0.6264
2768.00,0.6231
2767.00,0.6201
2766.00,0.6174
2765.00,0.6150
2764.00,0.6129
2763.00,0.6112
2762.00,0.6097
2761.00,0.6084
2760.00,0.6071
2759.00,0.6058
2758.00,0.6046
2757.00,0.6034
2756.00,0.6023
2755.00,0.6013
2754.00,0.6005
2753.00,0.5999
2752.00,0.5994
2751.00,0.5991
2750.00,0.5990
2749.00,0.5990
2748.00,0.5992
2747.00,0.5997
2746.00,0.6004
2745.00,0.6014
2744.00,0.6027
2743.00,0.6043
2742.00,0.6063
2741.00,0.6088
2740.00,0.6117
2739.00,0.6151
2738.00,0.6189
2737.00,0.6233
2736.00,0.6280
2735.00,0.6332
2734.00,0.6385
2733.00,0.6436
2732.00,0.6483
2731.00,0.6521
2730.00,0.6550
2729.00,0.6566
2728.00,0.6572
2727.00,0.6567
2726.00,0.6554
2725.00,0.6536
2724.00,0.6514
2723.00,0.6489
2722.00,0.6461
2721.00,0.6430
2720.00,0.6396
2719.00,0.6359
2718.00,0.6320
2717.00,0.6278
2716.00,0.6233
2715.00,0.6187
2714.00,0.6141
2713.00,0.6095
2712.00,0.6053
2711.00,0.6013
2710.00,0.5977
2709.00,0.5946
2708.00,0.5920
2707.00,0.5897
2706.00,0.5878
2705.00,0.5863
2704.00,0.5850
2703.00,0.5840
2702.00,0.5833
2701.00,0.5828
2700.00,0.5825
2699.00,0.5825
2698.00,0.5826
2697.00,0.5829
2696.00,0.5833
2695.00,0.5839
2694.00,0.5846
2693.00,0.5854
2692.00,0.5862
2691.00,0.5870
2690.00,0.5878
2689.00,0.5886
2688.00,0.5894
2687.00,0.5901
2686.00,0.5907
2685.00,0.5911
2684.00,0.5915
2683.00,0.5917
2682.00,0.5919
2681.00,0.5921
2680.00,0.5923
2679.00,0.5925
2678.00,0.5928
2677.00,0.5931
2676.00,0.5934
2675.00,0.5938
2674.00,0.5941
2673.00,0.5943
2672.00,0.5943
2671.00,0.5941
2670.00,0.5938
2669.00,0.5933
2668.00,0.5924
2667.00,0.5912
2666.00,0.5898
2665.00,0.5881
2664.00,0.5863
2663.00,0.5845
2662.00,0.5825
2661.00,0.5806
2660.00,0.5785
2659.00,0.5765
2658.00,0.5744
2657.00,0.5723
2656.00,0.5702
2655.00,0.5681
2654.00,0.5661
2653.00,0.5642
2652.00,0.5624
2651.00,0.5608
2650.00,0.5592
2649.00,0.5577
2648.00,0.5562
2647.00,0.5548
2646.00,0.5534
2645.00,0.5520
2644.00,0.5507
2643.00,0.5495
2642.00,0.5483
2641.00,0.5472
2640.00,0.5462
2639.00,0.5453
2638.00,0.5443
2637.00,0.5435
2636.00,0.5426
2635.00,0.5418
2634.00,0.5410
2633.00,0.5401
2632.00,0.5392
2631.00,0.5384
2630.00,0.5375
2629.00,0.5366
2628.00,0.5357
2627.00,0.5348
2626.00,0.5339
2625.00,0.5330
2624.00,0.5321
2623.00,0.5312
2622.00,0.5302
2621.00,0.5292
2620.00,0.5283
2619.00,0.5274
2618.00,0.5266
2617.00,0.5257
2616.00,0.5248
2615.00,0.5239
2614.00,0.5230
2613.00,0.5221
2612.00,0.5212
2611.00,0.5202
2610.00,0.5193
2609.00,0.5182
2608.00,0.5172
2607.00,0.5162
2606.00,0.5152
2605.00,0.5143
2604.00,0.5134
2603.00,0.5125
2602.00,0.5115
2601.00,0.5104
2600.00,0.5092
2599.00,0.5079
2598.00,0.5065
2597.00,0.5052
2596.00,0.5038
2595.00,0.5023
2594.00,0.5008
2593.00,0.4993
2592.00,0.4977
2591.00,0.4960
2590.00,0.4944
2589.00,0.4928
2588.00,0.4912
2587.00,0.4896
2586.00,0.4879
2585.00,0.4862
2584.00,0.4844
2583.00,0.4827
2582.00,0.4808
2581.00,0.4790
2580.00,0.4771
2579.00,0.4754
2578.00,0.4736
2577.00,0.4719
2576.00,0.4702
2575.00,0.4686
2574.00,0.4670
2573.00,0.4654
2572.00,0.4638
2571.00,0.4623
2570.00,0.4608
2569.00,0.4593
2568.00,0.4578
2567.00,0.4564
2566.00,0.4550
2565.00,0.4535
2564.00,0.4522
2563.00,0.4508
2562.00,0.4494
2561.00,0.4481
2560.00,0.4469
2559.00,0.4457
2558.00,0.4445
2557.00,0.4433
2556.00,0.4421
2555.00,0.4409
2554.00,0.4398
2553.00,0.4387
2552.00,0.4376
2551.00,0.4365
2550.00,0.4354
2549.00,0.4344
2548.00,0.4335
2547.00,0.4326
2546.00,0.4317
2545.00,0.4308
2544.00,0.4299
2543.00,0.4290
2542.00,0.4282
2541.00,0.4273
2540.00,0.4266
2539.00,0.4259
2538.00,0.4253
2537.00,0.4247
2536.00,0.4241
2535.00,0.4235
2534.00,0.4229
2533.00,0.4223
2532.00,0.4216
2531.00,0.4209
2530.00,0.4201
2529.00,0.4192
2528.00,0.4184
2527.00,0.4175
2526.00,0.4165
2525.00,0.4155
2524.00,0.4145
2523.00,0.4135
2522.00,0.4125
2521.00,0.4116
2520.00,0.4106
2519.00,0.4097
2518.00,0.4088
2517.00,0.4079
2516.00,0.4071
2515.00,0.4063
2514.00,0.4056
2513.00,0.4049
2512.00,0.4041
2511.00,0.4034
2510.00,0.4026
2509.00,0.4019
2508.00,0.4012
2507.00,0.4006
2506.00,0.4001
2505.00,0.3996
2504.00,0.3992
2503.00,0.3987
2502.00,0.3982
2501.00,0.3978
2500.00,0.3973
2499.00,0.3969
2498.00,0.3964
2497.00,0.3961
2496.00,0.3957
2495.00,0.3953
2494.00,0.3949
2493.00,0.3945
2492.00,0.3941
2491.00,0.3938
2490.00,0.3935
2489.00,0.3931
2488.00,0.3926
2487.00,0.3922
2486.00,0.3917
2485.00,0.3914
2484.00,0.3910
2483.00,0.3907
2482.00,0.3903
2481.00,0.3899
2480.00,0.3895
2479.00,0.3891
2478.00,0.3887
2477.00,0.3884
2476.00,0.3881
2475.00,0.3877
2474.00,0.3874
2473.00,0.3870
2472.00,0.3868
2471.00,0.3865
2470.00,0.3863
2469.00,0.3860
2468.00,0.3858
2467.00,0.3855
2466.00,0.3853
2465.00,0.3850
2464.00,0.3848
2463.00,0.3845
2462.00,0.3842
2461.00,0.3840
2460.00,0.3838
2459.00,0.3836
2458.00,0.3835
2457.00,0.3834
2456.00,0.3833
2455.00,0.3832
2454.00,0.3830
2453.00,0.3829
2452.00,0.3828
2451.00,0.3827
2450.00,0.3826
2449.00,0.3826
2448.00,0.3826
2447.00,0.3826
2446.00,0.3826
2445.00,0.3825
2444.00,0.3825
2443.00,0.3825
2442.00,0.3825
2441.00,0.3825
2440.00,0.3826
2439.00,0.3827
2438.00,0.3828
2437.00,0.3829
2436.00,0.3830
2435.00,0.3831
2434.00,0.3832
2433.00,0.3833
2432.00,0.3834
2431.00,0.3835
2430.00,0.3836
2429.00,0.3837
2428.00,0.3838
2427.00,0.3839
2426.00,0.3841
2425.00,0.3842
2424.00,0.3843
2423.00,0.3844
2422.00,0.3844
2421.00,0.3845
2420.00,0.3846
2419.00,0.3847
2418.00,0.3848
2417.00,0.3850
2416.00,0.3851
2415.00,0.3852
2414.00,0.3852
2413.00,0.3853
2412.00,0.3853
2411.00,0.3854
2410.00,0.3854
2409.00,0.3854
2408.00,0.3854
2407.00,0.3854
2406.00,0.3853
2405.00,0.3852
2404.00,0.3851
2403.00,0.3850
2402.00,0.3849
2401.00,0.3848
2400.00,0.3848
2399.00,0.3846
2398.00,0.3845
2397.00,0.3843
2396.00,0.3842
2395.00,0.3840
2394.00,0.3839
2393.00,0.3838
2392.00,0.3836
2391.00,0.3836
2390.00,0.3835
2389.00,0.3834
2388.00,0.3834
2387.00,0.3833
2386.00,0.3832
2385.00,0.3831
2384.00,0.3831
2383.00,0.3831
2382.00,0.3832
2381.00,0.3832
2380.00,0.3832
2379.00,0.3831
2378.00,0.3830
2377.00,0.3829
2376.00,0.3829
2375.00,0.3828
2374.00,0.3828
2373.00,0.3826
2372.00,0.3825
2371.00,0.3823
2370.00,0.3822
2369.00,0.3821
2368.00,0.3820
2367.00,0.3819
2366.00,0.3819
2365.00,0.3818
2364.00,0.3818
2363.00,0.3818
2362.00,0.3818
2361.00,0.3818
2360.00,0.3818
2359.00,0.3818
2358.00,0.3817
2357.00,0.3815
2356.00,0.3814
2355.00,0.3813
2354.00,0.3812
2353.00,0.3811
2352.00,0.3810
2351.00,0.3809
2350.00,0.3809
2349.00,0.3808
2348.00,0.3806
2347.00,0.3805
2346.00,0.3804
2345.00,0.3803
2344.00,0.3803
2343.00,0.3803
2342.00,0.3801
2341.00,0.3799
2340.00,0.3797
2339.00,0.3796
2338.00,0.3795
2337.00,0.3795
2336.00,0.3795
2335.00,0.3794
2334.00,0.3793
2333.00,0.3792
2332.00,0.3791
2331.00,0.3789
2330.00,0.3787
2329.00,0.3785
2328.00,0.3783
2327.00,0.3780
2326.00,0.3778
2325.00,0.3775
2324.00,0.3772
2323.00,0.3769
2322.00,0.3767
2321.00,0.3764
2320.00,0.3761
2319.00,0.3757
2318.00,0.3753
2317.00,0.3749
2316.00,0.3746
2315.00,0.3743
2314.00,0.3740
2313.00,0.3737
2312.00,0.3734
2311.00,0.3730
2310.00,0.3726
2309.00,0.3723
2308.00,0.3719
2307.00,0.3716
2306.00,0.3713
2305.00,0.3710
2304.00,0.3707
2303.00,0.3704
2302.00,0.3701
2301.00,0.3698
2300.00,0.3696
2299.00,0.3693
2298.00,0.3690
2297.00,0.3687
2296.00,0.3684
2295.00,0.3682
2294.00,0.3679
2293.00,0.3676
2292.00,0.3673
2291.00,0.3670
2290.00,0.3667
2289.00,0.3664
2288.00,0.3662
2287.00,0.3660
2286.00,0.3658
2285.00,0.3655
2284.00,0.3652
2283.00,0.3649
2282.00,0.3645
2281.00,0.3642
2280.00,0.3639
2279.00,0.3635
2278.00,0.3631
2277.00,0.3628
2276.00,0.3626
2275.00,0.3623
2274.00,0.3621
2273.00,0.3619
2272.00,0.3616
2271.00,0.3614
2270.00,0.3612
2269.00,0.3610
2268.00,0.3609
2267.00,0.3608
2266.00,0.3606
2265.00,0.3605
2264.00,0.3603
2263.00,0.3601
2262.00,0.3599
2261.00,0.3596
2260.00,0.3593
2259.00,0.3590
2258.00,0.3588
2257.00,0.3585
2256.00,0.3582
2255.00,0.3580
2254.00,0.3577
2253.00,0.3574
2252.00,0.3572
2251.00,0.3569
2250.00,0.3567
2249.00,0.3564
2248.00,0.3562
2247.00,0.3560
2246.00,0.3557
2245.00,0.3555
2244.00,0.3552
2243.00,0.3550
2242.00,0.3548
2241.00,0.3546
2240.00,0.3544
2239.00,0.3542
2238.00,0.3540
2237.00,0.3539
2236.00,0.3538
2235.00,0.3537
2234.00,0.3536
2233.00,0.3534
2232.00,0.3533
2231.00,0.3532
2230.00,0.3531
2229.00,0.3530
2228.00,0.3529
2227.00,0.3527
2226.00,0.3525
2225.00,0.3523
2224.00,0.3521
2223.00,0.3520
2222.00,0.3520
2221.00,0.3519
2220.00,0.3518
2219.00,0.3517
2218.00,0.3515
2217.00,0.3514
2216.00,0.3513
2215.00,0.3512
2214.00,0.3511
2213.00,0.3510
2212.00,0.3509
2211.00,0.3508
2210.00,0.3508
2209.00,0.3507
2208.00,0.3506
2207.00,0.3505
2206.00,0.3505
2205.00,0.3505
2204.00,0.3505
2203.00,0.3505
2202.00,0.3505
2201.00,0.3506
2200.00,0.3506
2199.00,0.3506
2198.00,0.3506
2197.00,0.3505
2196.00,0.3505
2195.00,0.3505
2194.00,0.3505
2193.00,0.3505
2192.00,0.3505
2191.00,0.3505
2190.00,0.3505
2189.00,0.3506
2188.00,0.3506
2187.00,0.3505
2186.00,0.3504
2185.00,0.3503
2184.00,0.3502
2183.00,0.3501
2182.00,0.3499
2181.00,0.3498
2180.00,0.3496
2179.00,0.3495
2178.00,0.3494
2177.00,0.3492
2176.00,0.3491
2175.00,0.3489
2174.00,0.3488
2173.00,0.3486
2172.00,0.3485
2171.00,0.3484
2170.00,0.3483
2169.00,0.3481
2168.00,0.3480
2167.00,0.3479
2166.00,0.3478
2165.00,0.3477
2164.00,0.3476
2163.00,0.3475
2162.00,0.3474
2161.00,0.3473
2160.00,0.3472
2159.00,0.3471
2158.00,0.3470
2157.00,0.3469
2156.00,0.3467
2155.00,0.3466
2154.00,0.3464
2153.00,0.3463
2152.00,0.3462
2151.00,0.3460
2150.00,0.3458
2149.00,0.3454
2148.00,0.3451
2147.00,0.3447
2146.00,0.3443
2145.00,0.3438
2144.00,0.3433
2143.00,0.3428
2142.00,0.3422
2141.00,0.3417
2140.00,0.3412
2139.00,0.3408
2138.00,0.3405
2137.00,0.3402
2136.00,0.3400
2135.00,0.3398
2134.00,0.3395
2133.00,0.3393
2132.00,0.3391
2131.00,0.3390
2130.00,0.3388
2129.00,0.3387
2128.00,0.3386
2127.00,0.3385
2126.00,0.3385
2125.00,0.3384
2124.00,0.3384
2123.00,0.3383
2122.00,0.3382
2121.00,0.3380
2120.00,0.3379
2119.00,0.3377
2118.00,0.3375
2117.00,0.3373
2116.00,0.3372
2115.00,0.3371
2114.00,0.3370
2113.00,0.3369
2112.00,0.3368
2111.00,0.3366
2110.00,0.3364
2109.00,0.3363
2108.00,0.3362
2107.00,0.3361
2106.00,0.3360
2105.00,0.3359
2104.00,0.3358
2103.00,0.3357
2102.00,0.3356
2101.00,0.3356
2100.00,0.3355
2099.00,0.3355
2098.00,0.3354
2097.00,0.3354
2096.00,0.3354
2095.00,0.3354
2094.00,0.3354
2093.00,0.3354
2092.00,0.3354
2091.00,0.3354
2090.00,0.3355
2089.00,0.3355
2088.00,0.3355
2087.00,0.3356
2086.00,0.3356
2085.00,0.3356
2084.00,0.3356
2083.00,0.3356
2082.00,0.3355
2081.00,0.3355
2080.00,0.3354
2079.00,0.3353
2078.00,0.3352
2077.00,0.3351
2076.00,0.3351
2075.00,0.3351
2074.00,0.3350
2073.00,0.3350
2072.00,0.3349
2071.00,0.3349
2070.00,0.3347
2069.00,0.3346
2068.00,0.3344
2067.00,0.3344
2066.00,0.3345
2065.00,0.3347
2064.00,0.3349
2063.00,0.3350
2062.00,0.3352
2061.00,0.3353
2060.00,0.3355
2059.00,0.3356
2058.00,0.3357
2057.00,0.3358
2056.00,0.3359
2055.00,0.3360
2054.00,0.3361
2053.00,0.3362
2052.00,0.3364
2051.00,0.3366
2050.00,0.3368
2049.00,0.3370
2048.00,0.3371
2047.00,0.3373
2046.00,0.3374
2045.00,0.3374
2044.00,0.3375
2043.00,0.3375
2042.00,0.3377
2041.00,0.3379
2040.00,0.3381
2039.00,0.3382
2038.00,0.3382
2037.00,0.3382
2036.00,0.3382
2035.00,0.3383
2034.00,0.3383
2033.00,0.3384
2032.00,0.3384
2031.00,0.3383
2030.00,0.3382
2029.00,0.3381
2028.00,0.3380
2027.00,0.3380
2026.00,0.3379
2025.00,0.3378
2024.00,0.3377
2023.00,0.3375
2022.00,0.3373
2021.00,0.3369
2020.00,0.3363
2019.00,0.3357
2018.00,0.3353
2017.00,0.3349
2016.00,0.3346
2015.00,0.3341
2014.00,0.3335
2013.00,0.3330
2012.00,0.3324
2011.00,0.3318
2010.00,0.3313
2009.00,0.3308
2008.00,0.3304
2007.00,0.3300
2006.00,0.3296
2005.00,0.3292
2004.00,0.3290
2003.00,0.3287
2002.00,0.3285
2001.00,0.3283
2000.00,0.3281
1999.00,0.3278
1998.00,0.3276
1997.00,0.3275
1996.00,0.3273
1995.00,0.3272
1994.00,0.3271
1993.00,0.3270
1992.00,0.3269
1991.00,0.3268
1990.00,0.3266
1989.00,0.3265
1988.00,0.3263
1987.00,0.3262
1986.00,0.3263
1985.00,0.3262
1984.00,0.3262
1983.00,0.3263
1982.00,0.3263
1981.00,0.3263
1980.00,0.3264
1979.00,0.3264
1978.00,0.3265
1977.00,0.3266
1976.00,0.3267
1975.00,0.3268
1974.00,0.3269
1973.00,0.3271
1972.00,0.3273
1971.00,0.3274
1970.00,0.3273
1969.00,0.3273
1968.00,0.3275
1967.00,0.3277
1966.00,0.3278
1965.00,0.3277
1964.00,0.3274
1963.00,0.3271
1962.00,0.3269
1961.00,0.3268
1960.00,0.3267
1959.00,0.3267
1958.00,0.3267
1957.00,0.3267
1956.00,0.3268
1955.00,0.3270
1954.00,0.3273
1953.00,0.3276
1952.00,0.3278
1951.00,0.3280
1950.00,0.3281
1949.00,0.3282
1948.00,0.3285
1947.00,0.3289
1946.00,0.3292
1945.00,0.3295
1944.00,0.3301
1943.00,0.3311
1942.00,0.3322
1941.00,0.3331
1940.00,0.3336
1939.00,0.3337
1938.00,0.3338
1937.00,0.3338
1936.00,0.3335
1935.00,0.3332
1934.00,0.3328
1933.00,0.3324
1932.00,0.3321
1931.00,0.3317
1930.00,0.3315
1929.00,0.3314
1928.00,0.3313
1927.00,0.3312
1926.00,0.3312
1925.00,0.3313
1924.00,0.3315
1923.00,0.3317
1922.00,0.3319
1921.00,0.3323
1920.00,0.3326
1919.00,0.3330
1918.00,0.3334
1917.00,0.3336
1916.00,0.3338
1915.00,0.3339
1914.00,0.3339
1913.00,0.3341
1912.00,0.3342
1911.00,0.3343
1910.00,0.3344
1909.00,0.3345
1908.00,0.3345
1907.00,0.3345
1906.00,0.3345
1905.00,0.3345
1904.00,0.3345
1903.00,0.3345
1902.00,0.3345
1901.00,0.3346
1900.00,0.3346
1899.00,0.3347
1898.00,0.3348
1897.00,0.3350
1896.00,0.3351
1895.00,0.3352
1894.00,0.3353
1893.00,0.3354
1892.00,0.3355
1891.00,0.3356
1890.00,0.3357
1889.00,0.3358
1888.00,0.3357
1887.00,0.3357
1886.00,0.3356
1885.00,0.3356
1884.00,0.3355
1883.00,0.3355
1882.00,0.3355
1881.00,0.3355
1880.00,0.3355
1879.00,0.3354
1878.00,0.3354
1877.00,0.3354
1876.00,0.3354
1875.00,0.3354
1874.00,0.3353
1873.00,0.3352
1872.00,0.3352
1871.00,0.3352
1870.00,0.3352
1869.00,0.3352
1868.00,0.3352
1867.00,0.3351
1866.00,0.3348
1865.00,0.3346
1864.00,0.3344
1863.00,0.3341
1862.00,0.3338
1861.00,0.3335
1860.00,0.3332
1859.00,0.3329
1858.00,0.3326
1857.00,0.3323
1856.00,0.3321
1855.00,0.3319
1854.00,0.3317
1853.00,0.3316
1852.00,0.3314
1851.00,0.3313
1850.00,0.3313
1849.00,0.3313
1848.00,0.3314
1847.00,0.3314
1846.00,0.3315
1845.00,0.3316
1844.00,0.3318
1843.00,0.3318
1842.00,0.3318
1841.00,0.3318
1840.00,0.3318
1839.00,0.3319
1838.00,0.3319
1837.00,0.3320
1836.00,0.3320
1835.00,0.3320
1834.00,0.3319
1833.00,0.3318
1832.00,0.3318
1831.00,0.3318
1830.00,0.3317
1829.00,0.3316
1828.00,0.3315
1827.00,0.3313
1826.00,0.3312
1825.00,0.3312
1824.00,0.3311
1823.00,0.3311
1822.00,0.3310
1821.00,0.3309
1820.00,0.3310
1819.00,0.3310
1818.00,0.3311
1817.00,0.3313
1816.00,0.3314
1815.00,0.3316
1814.00,0.3316
1813.00,0.3318
1812.00,0.3321
1811.00,0.3326
1810.00,0.3329
1809.00,0.3331
1808.00,0.3335
1807.00,0.3338
1806.00,0.3343
1805.00,0.3349
1804.00,0.3357
1803.00,0.3365
1802.00,0.3373
1801.00,0.3382
1800.00,0.3390
1799.00,0.3398
1798.00,0.3405
1797.00,0.3412
1796.00,0.3419
1795.00,0.3426
1794.00,0.3434
1793.00,0.3442
1792.00,0.3450
1791.00,0.3457
1790.00,0.3463
1789.00,0.3469
1788.00,0.3476
1787.00,0.3484
1786.00,0.3493
1785.00,0.3503
1784.00,0.3511
1783.00,0.3520
1782.00,0.3530
1781.00,0.3540
1780.00,0.3552
1779.00,0.3563
1778.00,0.3576
1777.00,0.3587
1776.00,0.3601
1775.00,0.3613
1774.00,0.3634
1773.00,0.3674
1772.00,0.3696
1771.00,0.3710
1770.00,0.3712
1769.00,0.3720
1768.00,0.3739
1767.00,0.3766
1766.00,0.3790
1765.00,0.3811
1764.00,0.3834
1763.00,0.3865
1762.00,0.3905
1761.00,0.3947
1760.00,0.3987
1759.00,0.4029
1758.00,0.4084
1757.00,0.4159
1756.00,0.4246
1755.00,0.4336
1754.00,0.4434
1753.00,0.4560
1752.00,0.4736
1751.00,0.4964
1750.00,0.5234
1749.00,0.5539
1748.00,0.5880
1747.00,0.6256
1746.00,0.6666
1745.00,0.7107
1744.00,0.7572
1743.00,0.8040
1742.00,0.8486
1741.00,0.8907
1740.00,0.9308
1739.00,0.9675
1738.00,0.9982
1737.00,1.0235
1736.00,1.0476
1735.00,1.0746
1734.00,1.1031
1733.00,1.1246
1732.00,1.1319
1731.00,1.1242
1730.00,1.1022
1729.00,1.0664
1728.00,1.0188
1727.00,0.9634
1726.00,0.9046
1725.00,0.8453
1724.00,0.7883
1723.00,0.7367
1722.00,0.6923
1721.00,0.6545
1720.00,0.6212
1719.00,0.5908
1718.00,0.5641
1717.00,0.5427
1716.00,0.5267
1715.00,0.5141
1714.00,0.5038
1713.00,0.4952
1712.00,0.4884
1711.00,0.4830
1710.00,0.4790
1709.00,0.4761
1708.00,0.4734
1707.00,0.4702
1706.00,0.4671
1705.00,0.4644
1704.00,0.4615
1703.00,0.4585
1702.00,0.4557
1701.00,0.4524
1700.00,0.4478
1699.00,0.4418
1698.00,0.4358
1697.00,0.4318
1696.00,0.4301
1695.00,0.4296
1694.00,0.4279
1693.00,0.4247
1692.00,0.4240
1691.00,0.4227
1690.00,0.4216
1689.00,0.4204
1688.00,0.4194
1687.00,0.4182
1686.00,0.4170
1685.00,0.4158
1684.00,0.4145
1683.00,0.4131
1682.00,0.4117
1681.00,0.4108
1680.00,0.4100
1679.00,0.4095
1678.00,0.4087
1677.00,0.4094
1676.00,0.4131
1675.00,0.4133
1674.00,0.4137
1673.00,0.4137
1672.00,0.4139
1671.00,0.4143
1670.00,0.4148
1669.00,0.4151
1668.00,0.4153
1667.00,0.4155
1666.00,0.4160
1665.00,0.4169
1664.00,0.4182
1663.00,0.4193
1662.00,0.4201
1661.00,0.4206
1660.00,0.4213
1659.00,0.4226
1658.00,0.4243
1657.00,0.4259
1656.00,0.4268
1655.00,0.4277
1654.00,0.4299
1653.00,0.4331
1652.00,0.4360
1651.00,0.4383
1650.00,0.4393
1649.00,0.4397
1648.00,0.4409
1647.00,0.4430
1646.00,0.4450
1645.00,0.4466
1644.00,0.4482
1643.00,0.4498
1642.00,0.4521
1641.00,0.4554
1640.00,0.4594
1639.00,0.4632
1638.00,0.4667
1637.00,0.4711
1636.00,0.4760
1635.00,0.4798
1634.00,0.4819
1633.00,0.4835
1632.00,0.4856
1631.00,0.4883
1630.00,0.4916
1629.00,0.4952
1628.00,0.4990
1627.00,0.5024
1626.00,0.5055
1625.00,0.5088
1624.00,0.5126
1623.00,0.5165
1622.00,0.5206
1621.00,0.5249
1620.00,0.5293
1619.00,0.5345
1618.00,0.5418
1617.00,0.5523
1616.00,0.5644
1615.00,0.5754
1614.00,0.5850
1613.00,0.5945
1612.00,0.6050
1611.00,0.6160
1610.00,0.6271
1609.00,0.6387
1608.00,0.6512
1607.00,0.6635
1606.00,0.6753
1605.00,0.6872
1604.00,0.6991
1603.00,0.7101
1602.00,0.7197
1601.00,0.7285
1600.00,0.7372
1599.00,0.7461
1598.00,0.7563
1597.00,0.7699
1596.00,0.7885
1595.00,0.8124
1594.00,0.8426
1593.00,0.8813
1592.00,0.9307
1591.00,0.9927
1590.00,1.0698
1589.00,1.1679
1588.00,1.2935
1587.00,1.4506
1586.00,1.6423
1585.00,1.8785
1584.00,2.1778
1583.00,2.5348
1582.00,2.8230
1581.00,2.8720
1580.00,2.7277
1579.00,2.4524
1578.00,2.1420
1577.00,1.8714
1576.00,1.6577
1575.00,1.4990
1574.00,1.3860
1573.00,1.3055
1572.00,1.2455
1571.00,1.1991
1570.00,1.1667
1569.00,1.1530
1568.00,1.1597
1567.00,1.1858
1566.00,1.2327
1565.00,1.3046
1564.00,1.3997
1563.00,1.5046
1562.00,1.6012
1561.00,1.6707
1560.00,1.6689
1559.00,1.5585
1558.00,1.4067
1557.00,1.2794
1556.00,1.1755
1555.00,1.0823
1554.00,1.0006
1553.00,0.9361
1552.00,0.8878
1551.00,0.8504
1550.00,0.8202
1549.00,0.7966
1548.00,0.7784
1547.00,0.7634
1546.00,0.7502
1545.00,0.7387
1544.00,0.7288
1543.00,0.7189
1542.00,0.7073
1541.00,0.6937
1540.00,0.6794
1539.00,0.6653
1538.00,0.6534
1537.00,0.6442
1536.00,0.6363
1535.00,0.6286
1534.00,0.6211
1533.00,0.6149
1532.00,0.6102
1531.00,0.6072
1530.00,0.6055
1529.00,0.6047
1528.00,0.6044
1527.00,0.6038
1526.00,0.6026
1525.00,0.6007
1524.00,0.5978
1523.00,0.5946
1522.00,0.5928
1521.00,0.5932
1520.00,0.5949
1519.00,0.5961
1518.00,0.5974
1517.00,0.5998
1516.00,0.6029
1515.00,0.6051
1514.00,0.6064
1513.00,0.6078
1512.00,0.6097
1511.00,0.6119
1510.00,0.6142
1509.00,0.6177
1508.00,0.6250
1507.00,0.6364
1506.00,0.6478
1505.00,0.6577
1504.00,0.6660
1503.00,0.6732
1502.00,0.6803
1501.00,0.6882
1500.00,0.6960
1499.00,0.7030
1498.00,0.7104
1497.00,0.7203
1496.00,0.7327
1495.00,0.7457
1494.00,0.7587
1493.00,0.7725
1492.00,0.7880
1491.00,0.8053
1490.00,0.8244
1489.00,0.8445
1488.00,0.8644
1487.00,0.8842
1486.00,0.9059
1485.00,0.9319
1484.00,0.9628
1483.00,0.9994
1482.00,1.0436
1481.00,1.0967
1480.00,1.1576
1479.00,1.2252
1478.00,1.3031
1477.00,1.3960
1476.00,1.5046
1475.00,1.6281
1474.00,1.7764
1473.00,1.9707
1472.00,2.2230
1471.00,2.5156
1470.00,2.8218
1469.00,3.1483
1468.00,3.4635
1467.00,3.5616
1466.00,3.5576
1465.00,3.7604
1464.00,4.2745
1463.00,4.3408
1462.00,4.1302
1461.00,3.8911
1460.00,3.7576
1459.00,3.8956
1458.00,4.1789
1457.00,4.1029
1456.00,3.9412
1455.00,4.2036
1454.00,4.3496
1453.00,4.4778
1452.00,4.1136
1451.00,3.8950
1450.00,3.6558
1449.00,3.6048
1448.00,3.5438
1447.00,3.3985
1446.00,3.3012
1445.00,3.2380
1444.00,3.0845
1443.00,2.8654
1442.00,2.6802
1441.00,2.5411
1440.00,2.4166
1439.00,2.2875
1438.00,2.1545
1437.00,2.0219
1436.00,1.8963
1435.00,1.7850
1434.00,1.6872
1433.00,1.5960
1432.00,1.5066
1431.00,1.4210
1430.00,1.3440
1429.00,1.2782
1428.00,1.2238
1427.00,1.1795
1426.00,1.1431
1425.00,1.1130
1424.00,1.0884
1423.00,1.0693
1422.00,1.0542
1421.00,1.0414
1420.00,1.0293
1419.00,1.0181
1418.00,1.0078
1417.00,0.9984
1416.00,0.9900
1415.00,0.9828
1414.00,0.9771
1413.00,0.9727
1412.00,0.9698
1411.00,0.9676
1410.00,0.9650
1409.00,0.9604
1408.00,0.9528
1407.00,0.9417
1406.00,0.9270
1405.00,0.9093
1404.00,0.8904
1403.00,0.8721
1402.00,0.8552
1401.00,0.8400
1400.00,0.8267
1399.00,0.8162
1398.00,0.8089
1397.00,0.8046
1396.00,0.8040
1395.00,0.8081
1394.00,0.8169
1393.00,0.8308
1392.00,0.8509
1391.00,0.8791
1390.00,0.9177
1389.00,0.9702
1388.00,1.0404
1387.00,1.1289
1386.00,1.2300
1385.00,1.3369
1384.00,1.4482
1383.00,1.5669
1382.00,1.6967
1381.00,1.8414
1380.00,2.0029
1379.00,2.1688
1378.00,2.2995
1377.00,2.3451
1376.00,2.2856
1375.00,2.1434
1374.00,1.9689
1373.00,1.8064
1372.00,1.6734
1371.00,1.5705
1370.00,1.4954
1369.00,1.4457
1368.00,1.4157
1367.00,1.3929
1366.00,1.3619
1365.00,1.3128
1364.00,1.2474
1363.00,1.1765
1362.00,1.1116
1361.00,1.0591
1360.00,1.0191
1359.00,0.9893
1358.00,0.9675
1357.00,0.9521
1356.00,0.9421
1355.00,0.9362
1354.00,0.9331
1353.00,0.9315
1352.00,0.9306
1351.00,0.9296
1350.00,0.9281
1349.00,0.9262
1348.00,0.9240
1347.00,0.9219
1346.00,0.9202
1345.00,0.9191
1344.00,0.9182
1343.00,0.9166
1342.00,0.9135
1341.00,0.9085
1340.00,0.9015
1339.00,0.8925
1338.00,0.8813
1337.00,0.8681
1336.00,0.8536
1335.00,0.8385
1334.00,0.8238
1333.00,0.8105
1332.00,0.7991
1331.00,0.7900
1330.00,0.7833
1329.00,0.7787
1328.00,0.7761
1327.00,0.7749
1326.00,0.7750
1325.00,0.7762
1324.00,0.7783
1323.00,0.7809
1322.00,0.7840
1321.00,0.7874
1320.00,0.7913
1319.00,0.7957
1318.00,0.8007
1317.00,0.8061
1316.00,0.8121
1315.00,0.8189
1314.00,0.8270
1313.00,0.8364
1312.00,0.8471
1311.00,0.8583
1310.00,0.8697
1309.00,0.8809
1308.00,0.8920
1307.00,0.9026
1306.00,0.9125
1305.00,0.9214
1304.00,0.9291
1303.00,0.9358
1302.00,0.9419
1301.00,0.9480
1300.00,0.9548
1299.00,0.9625
1298.00,0.9715
1297.00,0.9823
1296.00,0.9957
1295.00,1.0121
1294.00,1.0316
1293.00,1.0536
1292.00,1.0771
1291.00,1.1001
1290.00,1.1204
1289.00,1.1365
1288.00,1.1469
1287.00,1.1513
1286.00,1.1502
1285.00,1.1451
1284.00,1.1377
1283.00,1.1294
1282.00,1.1215
1281.00,1.1148
1280.00,1.1097
1279.00,1.1060
1278.00,1.1035
1277.00,1.1025
1276.00,1.1028
1275.00,1.1038
1274.00,1.1049
1273.00,1.1055
1272.00,1.1049
1271.00,1.1017
1270.00,1.0950
1269.00,1.0843
1268.00,1.0694
1267.00,1.0508
1266.00,1.0294
1265.00,1.0072
1264.00,0.9861
1263.00,0.9670
1262.00,0.9502
1261.00,0.9356
1260.00,0.9225
1259.00,0.9102
1258.00,0.8977
1257.00,0.8846
1256.00,0.8709
1255.00,0.8568
1254.00,0.8427
1253.00,0.8289
1252.00,0.8157
1251.00,0.8031
1250.00,0.7911
1249.00,0.7798
1248.00,0.7693
1247.00,0.7599
1246.00,0.7513
1245.00,0.7433
1244.00,0.7355
1243.00,0.7277
1242.00,0.7196
1241.00,0.7113
1240.00,0.7031
1239.00,0.6952
1238.00,0.6880
1237.00,0.6815
1236.00,0.6758
1235.00,0.6707
1234.00,0.6663
1233.00,0.6621
1232.00,0.6581
1231.00,0.6540
1230.00,0.6495
1229.00,0.6439
1228.00,0.6366
1227.00,0.6278
1226.00,0.6179
1225.00,0.6076
1224.00,0.5976
1223.00,0.5887
1222.00,0.5812
1221.00,0.5750
1220.00,0.5700
1219.00,0.5661
1218.00,0.5632
1217.00,0.5613
1216.00,0.5604
1215.00,0.5602
1214.00,0.5603
1213.00,0.5601
1212.00,0.5590
1211.00,0.5570
1210.00,0.5546
1209.00,0.5521
1208.00,0.5499
1207.00,0.5478
1206.00,0.5460
1205.00,0.5441
1204.00,0.5424
1203.00,0.5409
1202.00,0.5398
1201.00,0.5392
1200.00,0.5391
1199.00,0.5392
1198.00,0.5393
1197.00,0.5389
1196.00,0.5381
1195.00,0.5371
1194.00,0.5359
1193.00,0.5347
1192.00,0.5336
1191.00,0.5326
1190.00,0.5319
1189.00,0.5314
1188.00,0.5311
1187.00,0.5309
1186.00,0.5307
1185.00,0.5306
1184.00,0.5306
1183.00,0.5308
1182.00,0.5311
1181.00,0.5315
1180.00,0.5321
1179.00,0.5330
1178.00,0.5342
1177.00,0.5358
1176.00,0.5381
1175.00,0.5414
1174.00,0.5458
1173.00,0.5509
1172.00,0.5564
1171.00,0.5615
1170.00,0.5656
1169.00,0.5684
1168.00,0.5699
1167.00,0.5710
1166.00,0.5722
1165.00,0.5738
1164.00,0.5760
1163.00,0.5781
1162.00,0.5799
1161.00,0.5814
1160.00,0.5829
1159.00,0.5847
1158.00,0.5871
1157.00,0.5897
1156.00,0.5924
1155.00,0.5951
1154.00,0.5979
1153.00,0.6005
1152.00,0.6033
1151.00,0.6062
1150.00,0.6095
1149.00,0.6137
1148.00,0.6192
1147.00,0.6262
1146.00,0.6351
1145.00,0.6458
1144.00,0.6586
1143.00,0.6735
1142.00,0.6905
1141.00,0.7091
1140.00,0.7288
1139.00,0.7489
1138.00,0.7686
1137.00,0.7879
1136.00,0.8067
1135.00,0.8246
1134.00,0.8402
1133.00,0.8515
1132.00,0.8572
1131.00,0.8574
1130.00,0.8541
1129.00,0.8500
1128.00,0.8473
1127.00,0.8470
1126.00,0.8488
1125.00,0.8517
1124.00,0.8542
1123.00,0.8550
1122.00,0.8528
1121.00,0.8473
1120.00,0.8385
1119.00,0.8270
1118.00,0.8135
1117.00,0.7989
1116.00,0.7838
1115.00,0.7677
1114.00,0.7496
1113.00,0.7287
1112.00,0.7056
1111.00,0.6819
1110.00,0.6597
1109.00,0.6404
1108.00,0.6245
1107.00,0.6118
1106.00,0.6016
1105.00,0.5932
1104.00,0.5863
1103.00,0.5804
1102.00,0.5752
1101.00,0.5705
1100.00,0.5662
1099.00,0.5622
1098.00,0.5589
1097.00,0.5565
1096.00,0.5551
1095.00,0.5546
1094.00,0.5549
1093.00,0.5558
1092.00,0.5574
1091.00,0.5596
1090.00,0.5626
1089.00,0.5667
1088.00,0.5720
1087.00,0.5789
1086.00,0.5877
1085.00,0.5986
1084.00,0.6118
1083.00,0.6276
1082.00,0.6461
1081.00,0.6673
1080.00,0.6906
1079.00,0.7148
1078.00,0.7381
1077.00,0.7583
1076.00,0.7738
1075.00,0.7833
1074.00,0.7865
1073.00,0.7844
1072.00,0.7778
1071.00,0.7677
1070.00,0.7548
1069.00,0.7396
1068.00,0.7230
1067.00,0.7062
1066.00,0.6898
1065.00,0.6746
1064.00,0.6608
1063.00,0.6486
1062.00,0.6380
1061.00,0.6290
1060.00,0.6213
1059.00,0.6144
1058.00,0.6081
1057.00,0.6021
1056.00,0.5966
1055.00,0.5917
1054.00,0.5876
1053.00,0.5844
1052.00,0.5822
1051.00,0.5814
1050.00,0.5822
1049.00,0.5843
1048.00,0.5875
1047.00,0.5915
1046.00,0.5960
1045.00,0.6009
1044.00,0.6060
1043.00,0.6110
1042.00,0.6150
1041.00,0.6171
1040.00,0.6164
1039.00,0.6128
1038.00,0.6068
1037.00,0.5994
1036.00,0.5920
1035.00,0.5857
1034.00,0.5814
1033.00,0.5790
1032.00,0.5783
1031.00,0.5785
1030.00,0.5791
1029.00,0.5795
1028.00,0.5787
1027.00,0.5761
1026.00,0.5712
1025.00,0.5645
1024.00,0.5568
1023.00,0.5490
1022.00,0.5417
1021.00,0.5351
1020.00,0.5294
1019.00,0.5244
1018.00,0.5204
1017.00,0.5170
1016.00,0.5141
1015.00,0.5115
1014.00,0.5093
1013.00,0.5075
1012.00,0.5062
1011.00,0.5055
1010.00,0.5052
1009.00,0.5055
1008.00,0.5063
1007.00,0.5077
1006.00,0.5098
1005.00,0.5122
1004.00,0.5149
1003.00,0.5176
1002.00,0.5203
1001.00,0.5229
1000.00,0.5253
999.00,0.5272
998.00,0.5282
997.00,0.5279
996.00,0.5266
995.00,0.5244
994.00,0.5219
993.00,0.5189
992.00,0.5155
991.00,0.5119
990.00,0.5084
989.00,0.5054
988.00,0.5031
987.00,0.5018
986.00,0.5016
985.00,0.5024
984.00,0.5040
983.00,0.5064
982.00,0.5092
981.00,0.5122
980.00,0.5151
979.00,0.5178
978.00,0.5204
977.00,0.5229
976.00,0.5249
975.00,0.5265
974.00,0.5276
973.00,0.5284
972.00,0.5289
971.00,0.5291
970.00,0.5291
969.00,0.5288
968.00,0.5284
967.00,0.5278
966.00,0.5268
965.00,0.5255
964.00,0.5238
963.00,0.5220
962.00,0.5201
961.00,0.5182
960.00,0.5164
959.00,0.5150
958.00,0.5140
957.00,0.5131
956.00,0.5120
955.00,0.5104
954.00,0.5083
953.00,0.5056
952.00,0.5028
951.00,0.5002
950.00,0.4979
949.00,0.4962
948.00,0.4950
947.00,0.4945
946.00,0.4946
945.00,0.4952
944.00,0.4961
943.00,0.4971
942.00,0.4980
941.00,0.4987
940.00,0.4993
939.00,0.4997
938.00,0.4995
937.00,0.4986
936.00,0.4968
935.00,0.4944
934.00,0.4916
933.00,0.4885
932.00,0.4853
931.00,0.4825
930.00,0.4803
929.00,0.4788
928.00,0.4783
927.00,0.4791
926.00,0.4816
925.00,0.4857
924.00,0.4916
923.00,0.4985
922.00,0.5049
921.00,0.5088
920.00,0.5085
919.00,0.5035
918.00,0.4950
917.00,0.4846
916.00,0.4742
915.00,0.4649
914.00,0.4572
913.00,0.4511
912.00,0.4464
911.00,0.4427
910.00,0.4399
909.00,0.4375
908.00,0.4356
907.00,0.4342
906.00,0.4333
905.00,0.4328
904.00,0.4328
903.00,0.4334
902.00,0.4346
901.00,0.4363
900.00,0.4386
899.00,0.4413
898.00,0.4446
897.00,0.4483
896.00,0.4522
895.00,0.4565
894.00,0.4611
893.00,0.4656
892.00,0.4700
891.00,0.4741
890.00,0.4773
889.00,0.4790
888.00,0.4792
887.00,0.4780
886.00,0.4761
885.00,0.4740
884.00,0.4723
883.00,0.4716
882.00,0.4721
881.00,0.4735
880.00,0.4754
879.00,0.4770
878.00,0.4778
877.00,0.4779
876.00,0.4774
875.00,0.4769
874.00,0.4765
873.00,0.4765
872.00,0.4770
871.00,0.4781
870.00,0.4798
869.00,0.4820
868.00,0.4849
867.00,0.4887
866.00,0.4936
865.00,0.4995
864.00,0.5054
863.00,0.5100
862.00,0.5118
861.00,0.5095
860.00,0.5032
859.00,0.4946
858.00,0.4855
857.00,0.4776
856.00,0.4713
855.00,0.4666
854.00,0.4631
853.00,0.4604
852.00,0.4581
851.00,0.4559
850.00,0.4538
849.00,0.4516
848.00,0.4492
847.00,0.4466
846.00,0.4439
845.00,0.4413
844.00,0.4394
843.00,0.4383
842.00,0.4386
841.00,0.4406
840.00,0.4452
839.00,0.4523
838.00,0.4613
837.00,0.4700
836.00,0.4758
835.00,0.4768
834.00,0.4729
833.00,0.4662
832.00,0.4592
831.00,0.4542
830.00,0.4518
829.00,0.4518
828.00,0.4536
827.00,0.4566
826.00,0.4605
825.00,0.4650
824.00,0.4699
823.00,0.4756
822.00,0.4820
821.00,0.4889
820.00,0.4958
819.00,0.5022
818.00,0.5077
817.00,0.5118
816.00,0.5144
815.00,0.5152
814.00,0.5140
813.00,0.5107
812.00,0.5058
811.00,0.5001
810.00,0.4942
809.00,0.4889
808.00,0.4841
807.00,0.4798
806.00,0.4757
805.00,0.4714
804.00,0.4670
803.00,0.4624
802.00,0.4580
801.00,0.4542
800.00,0.4515
799.00,0.4502
798.00,0.4502
797.00,0.4509
796.00,0.4517
795.00,0.4522
794.00,0.4527
793.00,0.4534
792.00,0.4547
791.00,0.4567
790.00,0.4594
789.00,0.4625
788.00,0.4658
787.00,0.4693
786.00,0.4732
785.00,0.4776
784.00,0.4822
783.00,0.4867
782.00,0.4905
781.00,0.4932
780.00,0.4950
779.00,0.4964
778.00,0.4977
777.00,0.4990
776.00,0.5006
775.00,0.5025
774.00,0.5048
773.00,0.5075
772.00,0.5105
771.00,0.5139
770.00,0.5175
769.00,0.5214
768.00,0.5251
767.00,0.5286
766.00,0.5317
765.00,0.5344
764.00,0.5370
763.00,0.5401
762.00,0.5443
761.00,0.5498
760.00,0.5563
759.00,0.5632
758.00,0.5699
757.00,0.5758
756.00,0.5809
755.00,0.5859
754.00,0.5916
753.00,0.5985
752.00,0.6063
751.00,0.6150
750.00,0.6243
749.00,0.6340
748.00,0.6442
747.00,0.6548
746.00,0.6660
745.00,0.6776
744.00,0.6893
743.00,0.7006
742.00,0.7108
741.00,0.7190
740.00,0.7246
739.00,0.7272
738.00,0.7268
737.00,0.7241
736.00,0.7199
735.00,0.7158
734.00,0.7127
733.00,0.7115
732.00,0.7126
731.00,0.7171
730.00,0.7256
729.00,0.7386
728.00,0.7564
727.00,0.7790
726.00,0.8067
725.00,0.8388
724.00,0.8729
723.00,0.9027
722.00,0.9184
721.00,0.9100
720.00,0.8759
719.00,0.8257
718.00,0.7721
717.00,0.7234
716.00,0.6831
715.00,0.6514
714.00,0.6273
713.00,0.6087
712.00,0.5943
711.00,0.5832
710.00,0.5751
709.00,0.5698
708.00,0.5668
707.00,0.5656
706.00,0.5651
705.00,0.5642
704.00,0.5620
703.00,0.5584
702.00,0.5538
701.00,0.5482
700.00,0.5410
699.00,0.5310
698.00,0.5175
697.00,0.5012
696.00,0.4842
695.00,0.4687
694.00,0.4560
693.00,0.4460
692.00,0.4378
691.00,0.4310
690.00,0.4251
689.00,0.4200
688.00,0.4156
687.00,0.4119
686.00,0.4091
685.00,0.4071
684.00,0.4057
683.00,0.4049
682.00,0.4044
681.00,0.4040
680.00,0.4036
679.00,0.4035
678.00,0.4037
677.00,0.4042
676.00,0.4049
675.00,0.4057
674.00,0.4065
673.00,0.4072
672.00,0.4078
671.00,0.4083
670.00,0.4088
669.00,0.4095
668.00,0.4107
667.00,0.4122
666.00,0.4136
665.00,0.4148
664.00,0.4158
663.00,0.4169
662.00,0.4182
661.00,0.4198
660.00,0.4214
659.00,0.4232
658.00,0.4253
657.00,0.4276
656.00,0.4305
655.00,0.4341
654.00,0.4379
653.00,0.4414
652.00,0.4439
651.00,0.4450
650.00,0.4451
649.00,0.4449
648.00,0.4446
647.00,0.4446
646.00,0.4448
645.00,0.4456
644.00,0.4472
643.00,0.4493
642.00,0.4517
641.00,0.4540
640.00,0.4561
639.00,0.4580
638.00,0.4597
637.00,0.4615
636.00,0.4636
635.00,0.4656
634.00,0.4675
633.00,0.4695
632.00,0.4719
631.00,0.4748
630.00,0.4778
629.00,0.4806
628.00,0.4833
627.00,0.4862
626.00,0.4895
625.00,0.4930
624.00,0.4967
623.00,0.5005
622.00,0.5043
621.00,0.5079
620.00,0.5113
619.00,0.5146
618.00,0.5172
617.00,0.5192
616.00,0.5205
615.00,0.5214
614.00,0.5223
613.00,0.5231
612.00,0.5241
611.00,0.5251
610.00,0.5258
609.00,0.5262
608.00,0.5265
607.00,0.5268
606.00,0.5274
605.00,0.5284
604.00,0.5297
603.00,0.5314
602.00,0.5330
601.00,0.5348
600.00,0.5369
599.00,0.5395
598.00,0.5424
597.00,0.5458
596.00,0.5496
595.00,0.5535
594.00,0.5573
593.00,0.5609
592.00,0.5647
591.00,0.5688
590.00,0.5727
589.00,0.5761
588.00,0.5791
587.00,0.5820
586.00,0.5855
585.00,0.5896
584.00,0.5942
583.00,0.5983
582.00,0.6013
581.00,0.6037
580.00,0.6062
579.00,0.6092
578.00,0.6122
577.00,0.6147
576.00,0.6167
575.00,0.6185
574.00,0.6204
573.00,0.6225
572.00,0.6247
571.00,0.6268
570.00,0.6286
569.00,0.6305
568.00,0.6321
567.00,0.6330
566.00,0.6329
565.00,0.6322
564.00,0.6318
563.00,0.6316
562.00,0.6314
561.00,0.6310
560.00,0.6304
559.00,0.6293
558.00,0.6277
557.00,0.6261
556.00,0.6251
555.00,0.6251
554.00,0.6257
553.00,0.6265
552.00,0.6272
551.00,0.6275
550.00,0.6271
