Created as New Dataset,
cm-1,A
4000.00,0.3745
3999.00,0.3741
3998.00,0.3737
3997.00,0.3733
3996.00,0.3729
3995.00,0.3726
3994.00,0.3722
3993.00,0.3718
3992.00,0.3714
3991.00,0.3710
3990.00,0.3705
3989.00,0.3701
3988.00,0.3696
3987.00,0.3691
3986.00,0.3687
3985.00,0.3682
3984.00,0.3677
3983.00,0.3672
3982.00,0.3667
3981.00,0.3662
3980.00,0.3657
3979.00,0.3653
3978.00,0.3649
3977.00,0.3645
3976.00,0.3642
3975.00,0.3638
3974.00,0.3634
3973.00,0.3631
3972.00,0.3628
3971.00,0.3625
3970.00,0.3622
3969.00,0.3620
3968.00,0.3617
3967.00,0.3613
3966.00,0.3610
3965.00,0.3605
3964.00,0.3601
3963.00,0.3598
3962.00,0.3595
3961.00,0.3593
3960.00,0.3591
3959.00,0.3588
3958.00,0.3586
3957.00,0.3583
3956.00,0.3580
3955.00,0.3578
3954.00,0.3576
3953.00,0.3574
3952.00,0.3572
3951.00,0.3569
3950.00,0.3567
3949.00,0.3564
3948.00,0.3562
3947.00,0.3560
3946.00,0.3558
3945.00,0.3556
3944.00,0.3554
3943.00,0.3552
3942.00,0.3550
3941.00,0.3549
3940.00,0.3547
3939.00,0.3546
3938.00,0.3545
3937.00,0.3544
3936.00,0.3543
3935.00,0.3542
3934.00,0.3542
3933.00,0.3542
3932.00,0.3542
3931.00,0.3543
3930.00,0.3544
3929.00,0.3544
3928.00,0.3544
3927.00,0.3544
3926.00,0.3544
3925.00,0.3543
3924.00,0.3543
3923.00,0.3541
3922.00,0.3540
3921.00,0.3539
3920.00,0.3539
3919.00,0.3539
3918.00,0.3539
3917.00,0.3539
3916.00,0.3538
3915.00,0.3537
3914.00,0.3536
3913.00,0.3534
3912.00,0.3533
3911.00,0.3531
3910.00,0.3530
3909.00,0.3529
3908.00,0.3528
3907.00,0.3527
3906.00,0.3526
3905.00,0.3526
3904.00,0.3526
3903.00,0.3526
3902.00,0.3526
3901.00,0.3526
3900.00,0.3525
3899.00,0.3525
3898.00,0.3524
3897.00,0.3523
3896.00,0.3521
3895.00,0.3520
3894.00,0.3519
3893.00,0.3518
3892.00,0.3517
3891.00,0.3515
3890.00,0.3513
3889.00,0.3510
3888.00,0.3508
3887.00,0.3507
3886.00,0.3506
3885.00,0.3506
3884.00,0.3506
3883.00,0.3505
3882.00,0.3505
3881.00,0.3505
3880.00,0.3504
3879.00,0.3503
3878.00,0.3502
3877.00,0.3501
3876.00,0.3501
3875.00,0.3500
3874.00,0.3500
3873.00,0.3498
3872.00,0.3496
3871.00,0.3494
3870.00,0.3493
3869.00,0.3492
3868.00,0.3490
3867.00,0.3488
3866.00,0.3486
3865.00,0.3485
3864.00,0.3484
3863.00,0.3482
3862.00,0.3479
3861.00,0.3478
3860.00,0.3476
3859.00,0.3474
3858.00,0.3471
3857.00,0.3468
3856.00,0.3466
3855.00,0.3465
3854.00,0.3465
3853.00,0.3464
3852.00,0.3464
3851.00,0.3464
3850.00,0.3464
3849.00,0.3464
3848.00,0.3465
3847.00,0.3465
3846.00,0.3465
3845.00,0.3464
3844.00,0.3463
3843.00,0.3462
3842.00,0.3461
3841.00,0.3460
3840.00,0.3458
3839.00,0.3457
3838.00,0.3457
3837.00,0.3456
3836.00,0.3455
3835.00,0.3454
3834.00,0.3453
3833.00,0.3452
3832.00,0.3452
3831.00,0.3450
3830.00,0.3449
3829.00,0.3447
3828.00,0.3446
3827.00,0.3445
3826.00,0.3444
3825.00,0.3443
3824.00,0.3441
3823.00,0.3439
3822.00,0.3437
3821.00,0.3436
3820.00,0.3434
3819.00,0.3432
3818.00,0.3430
3817.00,0.3429
3816.00,0.3428
3815.00,0.3426
3814.00,0.3424
3813.00,0.3422
3812.00,0.3421
3811.00,0.3420
3810.00,0.3417
3809.00,0.3414
3808.00,0.3411
3807.00,0.3409
3806.00,0.3406
3805.00,0.3404
3804.00,0.3402
3803.00,0.3400
3802.00,0.3399
3801.00,0.3397
3800.00,0.3396
3799.00,0.3395
3798.00,0.3394
3797.00,0.3393
3796.00,0.3392
3795.00,0.3390
3794.00,0.3387
3793.00,0.3384
3792.00,0.3382
3791.00,0.3380
3790.00,0.3378
3789.00,0.3375
3788.00,0.3373
3787.00,0.3370
3786.00,0.3368
3785.00,0.3366
3784.00,0.3365
3783.00,0.3363
3782.00,0.3362
3781.00,0.3361
3780.00,0.3359
3779.00,0.3358
3778.00,0.3356
3777.00,0.3354
3776.00,0.3352
3775.00,0.3351
3774.00,0.3349
3773.00,0.3347
3772.00,0.3344
3771.00,0.3342
3770.00,0.3340
3769.00,0.3338
3768.00,0.3336
3767.00,0.3335
3766.00,0.3334
3765.00,0.3333
3764.00,0.3332
3763.00,0.3330
3762.00,0.3328
3761.00,0.3326
3760.00,0.3325
3759.00,0.3324
3758.00,0.3322
3757.00,0.3320
3756.00,0.3318
3755.00,0.3316
3754.00,0.3313
3753.00,0.3311
3752.00,0.3308
3751.00,0.3306
3750.00,0.3304
3749.00,0.3302
3748.00,0.3300
3747.00,0.3299
3746.00,0.3298
3745.00,0.3298
3744.00,0.3297
3743.00,0.3296
3742.00,0.3295
3741.00,0.3294
3740.00,0.3294
3739.00,0.3293
3738.00,0.3292
3737.00,0.3290
3736.00,0.3288
3735.00,0.3286
3734.00,0.3285
3733.00,0.3285
3732.00,0.3284
3731.00,0.3283
3730.00,0.3281
3729.00,0.3278
3728.00,0.3277
3727.00,0.3275
3726.00,0.3273
3725.00,0.3272
3724.00,0.3270
3723.00,0.3268
3722.00,0.3266
3721.00,0.3264
3720.00,0.3262
3719.00,0.3260
3718.00,0.3259
3717.00,0.3257
3716.00,0.3255
3715.00,0.3254
3714.00,0.3252
3713.00,0.3252
3712.00,0.3253
3711.00,0.3254
3710.00,0.3255
3709.00,0.3255
3708.00,0.3256
3707.00,0.3256
3706.00,0.3256
3705.00,0.3256
3704.00,0.3257
3703.00,0.3257
3702.00,0.3257
3701.00,0.3256
3700.00,0.3256
3699.00,0.3257
3698.00,0.3258
3697.00,0.3259
3696.00,0.3260
3695.00,0.3260
3694.00,0.3259
3693.00,0.3258
3692.00,0.3257
3691.00,0.3257
3690.00,0.3257
3689.00,0.3258
3688.00,0.3258
3687.00,0.3259
3686.00,0.3259
3685.00,0.3260
3684.00,0.3260
3683.00,0.3259
3682.00,0.3258
3681.00,0.3255
3680.00,0.3254
3679.00,0.3252
3678.00,0.3251
3677.00,0.3251
3676.00,0.3253
3675.00,0.3254
3674.00,0.3254
3673.00,0.3254
3672.00,0.3255
3671.00,0.3257
3670.00,0.3261
3669.00,0.3264
3668.00,0.3267
3667.00,0.3270
3666.00,0.3274
3665.00,0.3278
3664.00,0.3283
3663.00,0.3290
3662.00,0.3297
3661.00,0.3307
3660.00,0.3318
3659.00,0.3333
3658.00,0.3351
3657.00,0.3374
3656.00,0.3400
3655.00,0.3426
3654.00,0.3451
3653.00,0.3475
3652.00,0.3497
3651.00,0.3516
3650.00,0.3529
3649.00,0.3533
3648.00,0.3529
3647.00,0.3518
3646.00,0.3503
3645.00,0.3486
3644.00,0.3468
3643.00,0.3450
3642.00,0.3433
3641.00,0.3418
3640.00,0.3404
3639.00,0.3393
3638.00,0.3384
3637.00,0.3376
3636.00,0.3369
3635.00,0.3363
3634.00,0.3358
3633.00,0.3352
3632.00,0.3348
3631.00,0.3344
3630.00,0.3341
3629.00,0.3340
3628.00,0.3339
3627.00,0.3339
3626.00,0.3340
3625.00,0.3340
3624.00,0.3341
3623.00,0.3340
3622.00,0.3337
3621.00,0.3333
3620.00,0.3329
3619.00,0.3324
3618.00,0.3320
3617.00,0.3315
3616.00,0.3312
3615.00,0.3308
3614.00,0.3306
3613.00,0.3304
3612.00,0.3303
3611.00,0.3302
3610.00,0.3302
3609.00,0.3301
3608.00,0.3301
3607.00,0.3299
3606.00,0.3297
3605.00,0.3294
3604.00,0.3290
3603.00,0.3285
3602.00,0.3278
3601.00,0.3269
3600.00,0.3260
3599.00,0.3248
3598.00,0.3237
3597.00,0.3225
3596.00,0.3214
3595.00,0.3203
3594.00,0.3194
3593.00,0.3185
3592.00,0.3177
3591.00,0.3169
3590.00,0.3163
3589.00,0.3158
3588.00,0.3154
3587.00,0.3150
3586.00,0.3146
3585.00,0.3143
3584.00,0.3141
3583.00,0.3138
3582.00,0.3136
3581.00,0.3135
3580.00,0.3133
3579.00,0.3131
3578.00,0.3130
3577.00,0.3128
3576.00,0.3127
3575.00,0.3127
3574.00,0.3126
3573.00,0.3125
3572.00,0.3124
3571.00,0.3123
3570.00,0.3122
3569.00,0.3121
3568.00,0.3121
3567.00,0.3121
3566.00,0.3121
3565.00,0.3121
3564.00,0.3121
3563.00,0.3121
3562.00,0.3121
3561.00,0.3122
3560.00,0.3122
3559.00,0.3122
3558.00,0.3123
3557.00,0.3125
3556.00,0.3126
3555.00,0.3129
3554.00,0.3131
3553.00,0.3133
3552.00,0.3135
3551.00,0.3137
3550.00,0.3140
3549.00,0.3143
3548.00,0.3145
3547.00,0.3148
3546.00,0.3151
3545.00,0.3153
3544.00,0.3156
3543.00,0.3158
3542.00,0.3161
3541.00,0.3163
3540.00,0.3166
3539.00,0.3169
3538.00,0.3171
3537.00,0.3174
3536.00,0.3176
3535.00,0.3179
3534.00,0.3182
3533.00,0.3185
3532.00,0.3188
3531.00,0.3191
3530.00,0.3195
3529.00,0.3198
3528.00,0.3202
3527.00,0.3206
3526.00,0.3210
3525.00,0.3214
3524.00,0.3219
3523.00,0.3223
3522.00,0.3226
3521.00,0.3229
3520.00,0.3232
3519.00,0.3236
3518.00,0.3240
3517.00,0.3245
3516.00,0.3249
3515.00,0.3253
3514.00,0.3257
3513.00,0.3262
3512.00,0.3267
3511.00,0.3272
3510.00,0.3276
3509.00,0.3280
3508.00,0.3285
3507.00,0.3290
3506.00,0.3295
3505.00,0.3301
3504.00,0.3307
3503.00,0.3313
3502.00,0.3319
3501.00,0.3326
3500.00,0.3332
3499.00,0.3337
3498.00,0.3343
3497.00,0.3349
3496.00,0.3357
3495.00,0.3365
3494.00,0.3372
3493.00,0.3380
3492.00,0.3387
3491.00,0.3394
3490.00,0.3402
3489.00,0.3410
3488.00,0.3417
3487.00,0.3425
3486.00,0.3431
3485.00,0.3438
3484.00,0.3445
3483.00,0.3451
3482.00,0.3458
3481.00,0.3464
3480.00,0.3470
3479.00,0.3475
3478.00,0.3481
3477.00,0.3486
3476.00,0.3492
3475.00,0.3498
3474.00,0.3504
3473.00,0.3511
3472.00,0.3519
3471.00,0.3526
3470.00,0.3534
3469.00,0.3542
3468.00,0.3549
3467.00,0.3557
3466.00,0.3564
3465.00,0.3572
3464.00,0.3580
3463.00,0.3588
3462.00,0.3596
3461.00,0.3605
3460.00,0.3614
3459.00,0.3623
3458.00,0.3632
3457.00,0.3641
3456.00,0.3650
3455.00,0.3658
3454.00,0.3667
3453.00,0.3677
3452.00,0.3687
3451.00,0.3698
3450.00,0.3711
3449.00,0.3724
3448.00,0.3737
3447.00,0.3751
3446.00,0.3766
3445.00,0.3781
3444.00,0.3798
3443.00,0.3815
3442.00,0.3832
3441.00,0.3848
3440.00,0.3864
3439.00,0.3879
3438.00,0.3892
3437.00,0.3904
3436.00,0.3916
3435.00,0.3926
3434.00,0.3936
3433.00,0.3945
3432.00,0.3954
3431.00,0.3962
3430.00,0.3971
3429.00,0.3979
3428.00,0.3988
3427.00,0.3996
3426.00,0.4004
3425.00,0.4012
3424.00,0.4021
3423.00,0.4030
3422.00,0.4039
3421.00,0.4049
3420.00,0.4060
3419.00,0.4071
3418.00,0.4082
3417.00,0.4093
3416.00,0.4105
3415.00,0.4117
3414.00,0.4130
3413.00,0.4143
3412.00,0.4156
3411.00,0.4169
3410.00,0.4182
3409.00,0.4196
3408.00,0.4211
3407.00,0.4227
3406.00,0.4242
3405.00,0.4257
3404.00,0.4272
3403.00,0.4287
3402.00,0.4302
3401.00,0.4317
3400.00,0.4332
3399.00,0.4347
3398.00,0.4363
3397.00,0.4379
3396.00,0.4395
3395.00,0.4412
3394.00,0.4429
3393.00,0.4446
3392.00,0.4462
3391.00,0.4479
3390.00,0.4495
3389.00,0.4512
3388.00,0.4529
3387.00,0.4547
3386.00,0.4564
3385.00,0.4582
3384.00,0.4600
3383.00,0.4617
3382.00,0.4635
3381.00,0.4654
3380.00,0.4673
3379.00,0.4693
3378.00,0.4714
3377.00,0.4735
3376.00,0.4756
3375.00,0.4777
3374.00,0.4798
3373.00,0.4819
3372.00,0.4841
3371.00,0.4864
3370.00,0.4887
3369.00,0.4910
3368.00,0.4934
3367.00,0.4957
3366.00,0.4981
3365.00,0.5005
3364.00,0.5030
3363.00,0.5055
3362.00,0.5079
3361.00,0.5103
3360.00,0.5127
3359.00,0.5152
3358.00,0.5177
3357.00,0.5203
3356.00,0.5229
3355.00,0.5255
3354.00,0.5279
3353.00,0.5304
3352.00,0.5328
3351.00,0.5352
3350.00,0.5375
3349.00,0.5399
3348.00,0.5421
3347.00,0.5442
3346.00,0.5463
3345.00,0.5484
3344.00,0.5504
3343.00,0.5523
3342.00,0.5540
3341.00,0.5557
3340.00,0.5572
3339.00,0.5587
3338.00,0.5601
3337.00,0.5613
3336.00,0.5624
3335.00,0.5634
3334.00,0.5642
3333.00,0.5649
3332.00,0.5656
3331.00,0.5660
3330.00,0.5664
3329.00,0.5666
3328.00,0.5666
3327.00,0.5665
3326.00,0.5664
3325.00,0.5661
3324.00,0.5657
3323.00,0.5652
3322.00,0.5645
3321.00,0.5638
3320.00,0.5630
3319.00,0.5622
3318.00,0.5614
3317.00,0.5605
3316.00,0.5595
3315.00,0.5584
3314.00,0.5573
3313.00,0.5562
3312.00,0.5550
3311.00,0.5538
3310.00,0.5526
3309.00,0.5514
3308.00,0.5501
3307.00,0.5489
3306.00,0.5476
3305.00,0.5464
3304.00,0.5452
3303.00,0.5440
3302.00,0.5429
3301.00,0.5419
3300.00,0.5409
3299.00,0.5400
3298.00,0.5391
3297.00,0.5383
3296.00,0.5375
3295.00,0.5367
3294.00,0.5360
3293.00,0.5354
3292.00,0.5348
3291.00,0.5344
3290.00,0.5339
3289.00,0.5335
3288.00,0.5332
3287.00,0.5329
3286.00,0.5327
3285.00,0.5325
3284.00,0.5325
3283.00,0.5325
3282.00,0.5325
3281.00,0.5326
3280.00,0.5327
3279.00,0.5328
3278.00,0.5330
3277.00,0.5333
3276.00,0.5336
3275.00,0.5339
3274.00,0.5343
3273.00,0.5348
3272.00,0.5353
3271.00,0.5358
3270.00,0.5362
3269.00,0.5367
3268.00,0.5371
3267.00,0.5376
3266.00,0.5382
3265.00,0.5388
3264.00,0.5393
3263.00,0.5399
3262.00,0.5404
3261.00,0.5409
3260.00,0.5415
3259.00,0.5420
3258.00,0.5426
3257.00,0.5431
3256.00,0.5436
3255.00,0.5442
3254.00,0.5447
3253.00,0.5451
3252.00,0.5454
3251.00,0.5458
3250.00,0.5460
3249.00,0.5463
3248.00,0.5465
3247.00,0.5467
3246.00,0.5468
3245.00,0.5470
3244.00,0.5471
3243.00,0.5472
3242.00,0.5472
3241.00,0.5470
3240.00,0.5469
3239.00,0.5467
3238.00,0.5466
3237.00,0.5464
3236.00,0.5463
3235.00,0.5461
3234.00,0.5458
3233.00,0.5455
3232.00,0.5451
3231.00,0.5447
3230.00,0.5442
3229.00,0.5437
3228.00,0.5432
3227.00,0.5426
3226.00,0.5420
3225.00,0.5414
3224.00,0.5408
3223.00,0.5401
3222.00,0.5394
3221.00,0.5387
3220.00,0.5380
3219.00,0.5374
3218.00,0.5368
3217.00,0.5362
3216.00,0.5355
3215.00,0.5348
3214.00,0.5342
3213.00,0.5335
3212.00,0.5328
3211.00,0.5321
3210.00,0.5314
3209.00,0.5306
3208.00,0.5299
3207.00,0.5292
3206.00,0.5285
3205.00,0.5279
3204.00,0.5272
3203.00,0.5265
3202.00,0.5258
3201.00,0.5250
3200.00,0.5242
3199.00,0.5234
3198.00,0.5227
3197.00,0.5219
3196.00,0.5212
3195.00,0.5204
3194.00,0.5195
3193.00,0.5186
3192.00,0.5178
3191.00,0.5171
3190.00,0.5163
3189.00,0.5154
3188.00,0.5144
3187.00,0.5134
3186.00,0.5124
3185.00,0.5115
3184.00,0.5106
3183.00,0.5097
3182.00,0.5088
3181.00,0.5079
3180.00,0.5068
3179.00,0.5058
3178.00,0.5046
3177.00,0.5035
3176.00,0.5024
3175.00,0.5012
3174.00,0.5002
3173.00,0.4991
3172.00,0.4981
3171.00,0.4970
3170.00,0.4959
3169.00,0.4948
3168.00,0.4937
3167.00,0.4925
3166.00,0.4914
3165.00,0.4903
3164.00,0.4892
3163.00,0.4880
3162.00,0.4870
3161.00,0.4859
3160.00,0.4849
3159.00,0.4839
3158.00,0.4829
3157.00,0.4820
3156.00,0.4810
3155.00,0.4800
3154.00,0.4792
3153.00,0.4783
3152.00,0.4775
3151.00,0.4765
3150.00,0.4756
3149.00,0.4747
3148.00,0.4738
3147.00,0.4730
3146.00,0.4722
3145.00,0.4714
3144.00,0.4708
3143.00,0.4701
3142.00,0.4695
3141.00,0.4689
3140.00,0.4682
3139.00,0.4676
3138.00,0.4670
3137.00,0.4665
3136.00,0.4661
3135.00,0.4656
3134.00,0.4651
3133.00,0.4646
3132.00,0.4642
3131.00,0.4639
3130.00,0.4636
3129.00,0.4633
3128.00,0.4631
3127.00,0.4629
3126.00,0.4628
3125.00,0.4627
3124.00,0.4626
3123.00,0.4626
3122.00,0.4626
3121.00,0.4626
3120.00,0.4627
3119.00,0.4628
3118.00,0.4630
3117.00,0.4632
3116.00,0.4635
3115.00,0.4639
3114.00,0.4643
3113.00,0.4648
3112.00,0.4654
3111.00,0.4661
3110.00,0.4669
3109.00,0.4678
3108.00,0.4688
3107.00,0.4699
3106.00,0.4711
3105.00,0.4722
3104.00,0.4733
3103.00,0.4744
3102.00,0.4756
3101.00,0.4769
3100.00,0.4781
3099.00,0.4794
3098.00,0.4807
3097.00,0.4820
3096.00,0.4833
3095.00,0.4846
3094.00,0.4861
3093.00,0.4876
3092.00,0.4893
3091.00,0.4911
3090.00,0.4931
3089.00,0.4953
3088.00,0.4976
3087.00,0.5001
3086.00,0.5027
3085.00,0.5054
3084.00,0.5083
3083.00,0.5113
3082.00,0.5145
3081.00,0.5179
3080.00,0.5215
3079.00,0.5252
3078.00,0.5291
3077.00,0.5331
3076.00,0.5373
3075.00,0.5416
3074.00,0.5459
3073.00,0.5504
3072.00,0.5549
3071.00,0.5594
3070.00,0.5639
3069.00,0.5684
3068.00,0.5729
3067.00,0.5773
3066.00,0.5818
3065.00,0.5862
3064.00,0.5906
3063.00,0.5949
3062.00,0.5990
3061.00,0.6028
3060.00,0.6065
3059.00,0.6101
3058.00,0.6137
3057.00,0.6173
3056.00,0.6211
3055.00,0.6248
3054.00,0.6287
3053.00,0.6326
3052.00,0.6366
3051.00,0.6408
3050.00,0.6453
3049.00,0.6499
3048.00,0.6545
3047.00,0.6593
3046.00,0.6642
3045.00,0.6692
3044.00,0.6744
3043.00,0.6796
3042.00,0.6848
3041.00,0.6900
3040.00,0.6953
3039.00,0.7009
3038.00,0.7068
3037.00,0.7131
3036.00,0.7199
3035.00,0.7270
3034.00,0.7344
3033.00,0.7421
3032.00,0.7500
3031.00,0.7582
3030.00,0.7667
3029.00,0.7756
3028.00,0.7848
3027.00,0.7942
3026.00,0.8040
3025.00,0.8142
3024.00,0.8247
3023.00,0.8356
3022.00,0.8467
3021.00,0.8581
3020.00,0.8697
3019.00,0.8816
3018.00,0.8939
3017.00,0.9066
3016.00,0.9198
3015.00,0.9334
3014.00,0.9474
3013.00,0.9620
3012.00,0.9773
3011.00,0.9935
3010.00,1.0108
3009.00,1.0292
3008.00,1.0485
3007.00,1.0688
3006.00,1.0900
3005.00,1.1121
3004.00,1.1350
3003.00,1.1587
3002.00,1.1833
3001.00,1.2089
3000.00,1.2357
2999.00,1.2644
2998.00,1.2951
2997.00,1.3278
2996.00,1.3628
2995.00,1.4008
2994.00,1.4427
2993.00,1.4894
2992.00,1.5409
2991.00,1.5974
2990.00,1.6591
2989.00,1.7266
2988.00,1.8008
2987.00,1.8828
2986.00,1.9738
2985.00,2.0749
2984.00,2.1870
2983.00,2.3115
2982.00,2.4495
2981.00,2.5998
2980.00,2.7590
2979.00,2.9258
2978.00,3.1016
2977.00,3.2827
2976.00,3.4610
2975.00,3.6357
2974.00,3.7678
2973.00,3.7674
2972.00,3.6943
2971.00,3.6743
2970.00,3.7509
2969.00,3.8771
2968.00,3.9713
2967.00,4.0009
2966.00,4.0235
2965.00,4.0158
2964.00,3.9138
2963.00,3.7808
2962.00,3.6790
2961.00,3.6344
2960.00,3.6152
2959.00,3.5935
2958.00,3.5836
2957.00,3.6118
2956.00,3.7269
2955.00,3.9676
2954.00,4.1812
2953.00,4.1399
2952.00,3.9709
2951.00,3.8444
2950.00,3.7929
2949.00,3.8295
2948.00,3.9383
2947.00,3.9596
2946.00,3.9003
2945.00,3.8990
2944.00,4.0435
2943.00,4.1743
2942.00,4.0526
2941.00,3.8956
2940.00,3.8283
2939.00,3.8902
2938.00,4.0186
2937.00,4.0856
2936.00,4.0417
2935.00,4.0193
2934.00,4.1057
2933.00,4.2275
2932.00,4.1901
2931.00,4.0487
2930.00,3.9122
2929.00,3.8028
2928.00,3.7503
2927.00,3.7770
2926.00,3.8111
2925.00,3.7573
2924.00,3.6985
2923.00,3.7563
2922.00,4.0199
2921.00,4.3549
2920.00,4.2576
2919.00,4.0891
2918.00,4.0987
2917.00,4.2110
2916.00,4.1387
2915.00,4.0080
2914.00,3.9534
2913.00,4.1200
2912.00,4.5035
2911.00,4.2775
2910.00,4.0388
2909.00,3.9138
2908.00,3.9713
2907.00,4.0583
2906.00,4.1732
2905.00,4.3615
2904.00,4.3475
2903.00,4.1973
2902.00,4.0278
2901.00,3.9613
2900.00,4.0344
2899.00,4.3148
2898.00,4.7265
2897.00,4.4598
2896.00,4.1462
2895.00,4.0218
2894.00,4.0512
2893.00,4.1668
2892.00,4.3418
2891.00,4.3924
2890.00,4.2589
2889.00,4.1733
2888.00,4.1416
2887.00,4.1777
2886.00,4.1845
2885.00,4.1146
2884.00,4.0793
2883.00,4.1862
2882.00,4.5695
2881.00,4.7006
2880.00,4.3707
2879.00,4.1629
2878.00,4.0568
2877.00,3.9605
2876.00,3.8729
2875.00,3.9207
2874.00,4.1971
2873.00,4.7372
2872.00,4.7303
2871.00,4.2911
2870.00,4.0764
2869.00,3.9420
2868.00,3.8733
2867.00,3.8847
2866.00,3.9083
2865.00,3.9289
2864.00,3.9726
2863.00,4.0688
2862.00,4.1799
2861.00,4.1399
2860.00,4.0192
2859.00,3.9705
2858.00,3.9800
2857.00,3.9221
2856.00,3.8230
2855.00,3.7972
2854.00,3.8766
2853.00,3.9468
2852.00,3.8807
2851.00,3.7827
2850.00,3.7540
2849.00,3.7804
2848.00,3.7763
2847.00,3.7195
2846.00,3.6847
2845.00,3.7280
2844.00,3.9498
2843.00,4.3147
2842.00,4.1415
2841.00,3.9972
2840.00,4.0964
2839.00,4.2192
2838.00,4.0793
2837.00,4.0145
2836.00,3.8151
2835.00,3.4396
2834.00,3.1222
2833.00,2.8854
2832.00,2.6889
2831.00,2.5183
2830.00,2.3726
2829.00,2.2458
2828.00,2.1345
2827.00,2.0360
2826.00,1.9469
2825.00,1.8653
2824.00,1.7906
2823.00,1.7230
2822.00,1.6619
2821.00,1.6059
2820.00,1.5538
2819.00,1.5052
2818.00,1.4599
2817.00,1.4179
2816.00,1.3787
2815.00,1.3422
2814.00,1.3080
2813.00,1.2757
2812.00,1.2452
2811.00,1.2162
2810.00,1.1885
2809.00,1.1618
2808.00,1.1363
2807.00,1.1120
2806.00,1.0891
2805.00,1.0671
2804.00,1.0460
2803.00,1.0257
2802.00,1.0062
2801.00,0.9876
2800.00,0.9697
2799.00,0.9526
2798.00,0.9361
2797.00,0.9201
2796.00,0.9048
2795.00,0.8900
2794.00,0.8759
2793.00,0.8623
2792.00,0.8491
2791.00,0.8363
2790.00,0.8238
2789.00,0.8116
2788.00,0.7995
2787.00,0.7877
2786.00,0.7762
2785.00,0.7650
2784.00,0.7540
2783.00,0.7434
2782.00,0.7330
2781.00,0.7230
2780.00,0.7134
2779.00,0.7042
2778.00,0.6954
2777.00,0.6872
2776.00,0.6793
2775.00,0.6720
2774.00,0.6650
2773.00,0.6586
2772.00,0.6527
2771.00,0.6472
2770.00,0.6422
2769.00,0.6376
2768.00,0.6334
2767.00,0.6298
2766.00,0.6266
2765.00,0.6238
2764.00,0.6214
2763.00,0.6193
2762.00,0.6175
2761.00,0.6158
2760.00,0.6142
2759.00,0.6128
2758.00,0.6115
2757.00,0.6103
2756.00,0.6092
2755.00,0.6083
2754.00,0.6074
2753.00,0.6067
2752.00,0.6062
2751.00,0.6059
2750.00,0.6060
2749.00,0.6064
2748.00,0.6069
2747.00,0.6076
2746.00,0.6086
2745.00,0.6099
2744.00,0.6115
2743.00,0.6135
2742.00,0.6157
2741.00,0.6184
2740.00,0.6216
2739.00,0.6253
2738.00,0.6296
2737.00,0.6344
2736.00,0.6397
2735.00,0.6454
2734.00,0.6513
2733.00,0.6571
2732.00,0.6623
2731.00,0.6663
2730.00,0.6690
2729.00,0.6701
2728.00,0.6699
2727.00,0.6685
2726.00,0.6662
2725.00,0.6634
2724.00,0.6603
2723.00,0.6570
2722.00,0.6535
2721.00,0.6499
2720.00,0.6460
2719.00,0.6419
2718.00,0.6376
2717.00,0.6331
2716.00,0.6284
2715.00,0.6236
2714.00,0.6186
2713.00,0.6137
2712.00,0.6090
2711.00,0.6047
2710.00,0.6010
2709.00,0.5978
2708.00,0.5951
2707.00,0.5927
2706.00,0.5906
2705.00,0.5889
2704.00,0.5875
2703.00,0.5864
2702.00,0.5856
2701.00,0.5850
2700.00,0.5848
2699.00,0.5848
2698.00,0.5852
2697.00,0.5858
2696.00,0.5867
2695.00,0.5879
2694.00,0.5892
2693.00,0.5906
2692.00,0.5921
2691.00,0.5937
2690.00,0.5953
2689.00,0.5968
2688.00,0.5982
2687.00,0.5994
2686.00,0.6005
2685.00,0.6014
2684.00,0.6022
2683.00,0.6028
2682.00,0.6033
2681.00,0.6036
2680.00,0.6038
2679.00,0.6040
2678.00,0.6042
2677.00,0.6044
2676.00,0.6046
2675.00,0.6046
2674.00,0.6046
2673.00,0.6044
2672.00,0.6042
2671.00,0.6037
2670.00,0.6029
2669.00,0.6018
2668.00,0.6001
2667.00,0.5981
2666.00,0.5957
2665.00,0.5930
2664.00,0.5902
2663.00,0.5873
2662.00,0.5844
2661.00,0.5815
2660.00,0.5787
2659.00,0.5759
2658.00,0.5732
2657.00,0.5706
2656.00,0.5681
2655.00,0.5657
2654.00,0.5634
2653.00,0.5612
2652.00,0.5591
2651.00,0.5571
2650.00,0.5551
2649.00,0.5531
2648.00,0.5512
2647.00,0.5493
2646.00,0.5474
2645.00,0.5457
2644.00,0.5440
2643.00,0.5424
2642.00,0.5408
2641.00,0.5392
2640.00,0.5378
2639.00,0.5365
2638.00,0.5353
2637.00,0.5341
2636.00,0.5329
2635.00,0.5318
2634.00,0.5306
2633.00,0.5295
2632.00,0.5283
2631.00,0.5272
2630.00,0.5261
2629.00,0.5251
2628.00,0.5240
2627.00,0.5228
2626.00,0.5216
2625.00,0.5203
2624.00,0.5190
2623.00,0.5178
2622.00,0.5165
2621.00,0.5152
2620.00,0.5140
2619.00,0.5127
2618.00,0.5115
2617.00,0.5103
2616.00,0.5091
2615.00,0.5079
2614.00,0.5066
2613.00,0.5054
2612.00,0.5042
2611.00,0.5030
2610.00,0.5017
2609.00,0.5005
2608.00,0.4994
2607.00,0.4983
2606.00,0.4972
2605.00,0.4960
2604.00,0.4948
2603.00,0.4936
2602.00,0.4922
2601.00,0.4908
2600.00,0.4893
2599.00,0.4877
2598.00,0.4860
2597.00,0.4842
2596.00,0.4823
2595.00,0.4804
2594.00,0.4785
2593.00,0.4766
2592.00,0.4747
2591.00,0.4728
2590.00,0.4709
2589.00,0.4690
2588.00,0.4670
2587.00,0.4650
2586.00,0.4630
2585.00,0.4610
2584.00,0.4589
2583.00,0.4568
2582.00,0.4546
2581.00,0.4525
2580.00,0.4504
2579.00,0.4483
2578.00,0.4464
2577.00,0.4445
2576.00,0.4428
2575.00,0.4410
2574.00,0.4392
2573.00,0.4374
2572.00,0.4357
2571.00,0.4340
2570.00,0.4324
2569.00,0.4308
2568.00,0.4291
2567.00,0.4275
2566.00,0.4258
2565.00,0.4241
2564.00,0.4225
2563.00,0.4208
2562.00,0.4192
2561.00,0.4176
2560.00,0.4160
2559.00,0.4145
2558.00,0.4129
2557.00,0.4115
2556.00,0.4100
2555.00,0.4087
2554.00,0.4073
2553.00,0.4059
2552.00,0.4045
2551.00,0.4032
2550.00,0.4019
2549.00,0.4008
2548.00,0.3997
2547.00,0.3986
2546.00,0.3976
2545.00,0.3966
2544.00,0.3956
2543.00,0.3946
2542.00,0.3936
2541.00,0.3927
2540.00,0.3917
2539.00,0.3909
2538.00,0.3901
2537.00,0.3894
2536.00,0.3887
2535.00,0.3880
2534.00,0.3872
2533.00,0.3864
2532.00,0.3856
2531.00,0.3846
2530.00,0.3836
2529.00,0.3825
2528.00,0.3812
2527.00,0.3799
2526.00,0.3785
2525.00,0.3771
2524.00,0.3758
2523.00,0.3744
2522.00,0.3732
2521.00,0.3719
2520.00,0.3707
2519.00,0.3696
2518.00,0.3684
2517.00,0.3673
2516.00,0.3663
2515.00,0.3652
2514.00,0.3642
2513.00,0.3632
2512.00,0.3622
2511.00,0.3613
2510.00,0.3605
2509.00,0.3597
2508.00,0.3590
2507.00,0.3583
2506.00,0.3577
2505.00,0.3571
2504.00,0.3566
2503.00,0.3562
2502.00,0.3558
2501.00,0.3555
2500.00,0.3552
2499.00,0.3549
2498.00,0.3545
2497.00,0.3542
2496.00,0.3539
2495.00,0.3536
2494.00,0.3532
2493.00,0.3528
2492.00,0.3523
2491.00,0.3518
2490.00,0.3511
2489.00,0.3505
2488.00,0.3498
2487.00,0.3492
2486.00,0.3485
2485.00,0.3478
2484.00,0.3472
2483.00,0.3465
2482.00,0.3458
2481.00,0.3452
2480.00,0.3445
2479.00,0.3439
2478.00,0.3434
2477.00,0.3429
2476.00,0.3423
2475.00,0.3417
2474.00,0.3412
2473.00,0.3407
2472.00,0.3402
2471.00,0.3398
2470.00,0.3394
2469.00,0.3390
2468.00,0.3386
2467.00,0.3383
2466.00,0.3380
2465.00,0.3377
2464.00,0.3374
2463.00,0.3371
2462.00,0.3367
2461.00,0.3364
2460.00,0.3362
2459.00,0.3360
2458.00,0.3359
2457.00,0.3358
2456.00,0.3356
2455.00,0.3354
2454.00,0.3353
2453.00,0.3352
2452.00,0.3351
2451.00,0.3350
2450.00,0.3349
2449.00,0.3348
2448.00,0.3348
2447.00,0.3347
2446.00,0.3346
2445.00,0.3345
2444.00,0.3345
2443.00,0.3344
2442.00,0.3344
2441.00,0.3345
2440.00,0.3346
2439.00,0.3347
2438.00,0.3348
2437.00,0.3349
2436.00,0.3351
2435.00,0.3351
2434.00,0.3352
2433.00,0.3353
2432.00,0.3354
2431.00,0.3355
2430.00,0.3357
2429.00,0.3359
2428.00,0.3361
2427.00,0.3363
2426.00,0.3364
2425.00,0.3366
2424.00,0.3368
2423.00,0.3370
2422.00,0.3371
2421.00,0.3373
2420.00,0.3375
2419.00,0.3376
2418.00,0.3376
2417.00,0.3377
2416.00,0.3378
2415.00,0.3378
2414.00,0.3379
2413.00,0.3379
2412.00,0.3380
2411.00,0.3381
2410.00,0.3382
2409.00,0.3382
2408.00,0.3382
2407.00,0.3382
2406.00,0.3382
2405.00,0.3382
2404.00,0.3382
2403.00,0.3383
2402.00,0.3383
2401.00,0.3384
2400.00,0.3384
2399.00,0.3384
2398.00,0.3383
2397.00,0.3383
2396.00,0.3383
2395.00,0.3384
2394.00,0.3384
2393.00,0.3385
2392.00,0.3385
2391.00,0.3386
2390.00,0.3386
2389.00,0.3387
2388.00,0.3388
2387.00,0.3389
2386.00,0.3391
2385.00,0.3392
2384.00,0.3394
2383.00,0.3396
2382.00,0.3397
2381.00,0.3399
2380.00,0.3400
2379.00,0.3401
2378.00,0.3402
2377.00,0.3403
2376.00,0.3403
2375.00,0.3403
2374.00,0.3401
2373.00,0.3400
2372.00,0.3398
2371.00,0.3397
2370.00,0.3396
2369.00,0.3396
2368.00,0.3396
2367.00,0.3396
2366.00,0.3396
2365.00,0.3397
2364.00,0.3397
2363.00,0.3395
2362.00,0.3394
2361.00,0.3393
2360.00,0.3392
2359.00,0.3391
2358.00,0.3390
2357.00,0.3391
2356.00,0.3391
2355.00,0.3393
2354.00,0.3393
2353.00,0.3393
2352.00,0.3390
2351.00,0.3386
2350.00,0.3382
2349.00,0.3378
2348.00,0.3376
2347.00,0.3376
2346.00,0.3377
2345.00,0.3376
2344.00,0.3374
2343.00,0.3371
2342.00,0.3367
2341.00,0.3365
2340.00,0.3364
2339.00,0.3363
2338.00,0.3361
2337.00,0.3360
2336.00,0.3359
2335.00,0.3357
2334.00,0.3355
2333.00,0.3353
2332.00,0.3351
2331.00,0.3347
2330.00,0.3343
2329.00,0.3338
2328.00,0.3333
2327.00,0.3330
2326.00,0.3326
2325.00,0.3323
2324.00,0.3320
2323.00,0.3317
2322.00,0.3314
2321.00,0.3312
2320.00,0.3308
2319.00,0.3304
2318.00,0.3300
2317.00,0.3296
2316.00,0.3292
2315.00,0.3289
2314.00,0.3286
2313.00,0.3284
2312.00,0.3281
2311.00,0.3277
2310.00,0.3273
2309.00,0.3268
2308.00,0.3263
2307.00,0.3258
2306.00,0.3254
2305.00,0.3250
2304.00,0.3246
2303.00,0.3243
2302.00,0.3240
2301.00,0.3237
2300.00,0.3234
2299.00,0.3231
2298.00,0.3227
2297.00,0.3224
2296.00,0.3220
2295.00,0.3216
2294.00,0.3212
2293.00,0.3208
2292.00,0.3203
2291.00,0.3198
2290.00,0.3193
2289.00,0.3188
2288.00,0.3184
2287.00,0.3179
2286.00,0.3174
2285.00,0.3170
2284.00,0.3165
2283.00,0.3161
2282.00,0.3157
2281.00,0.3153
2280.00,0.3149
2279.00,0.3145
2278.00,0.3141
2277.00,0.3138
2276.00,0.3135
2275.00,0.3132
2274.00,0.3130
2273.00,0.3127
2272.00,0.3124
2271.00,0.3122
2270.00,0.3119
2269.00,0.3117
2268.00,0.3116
2267.00,0.3114
2266.00,0.3113
2265.00,0.3111
2264.00,0.3108
2263.00,0.3105
2262.00,0.3101
2261.00,0.3098
2260.00,0.3095
2259.00,0.3092
2258.00,0.3089
2257.00,0.3085
2256.00,0.3081
2255.00,0.3077
2254.00,0.3074
2253.00,0.3070
2252.00,0.3068
2251.00,0.3065
2250.00,0.3062
2249.00,0.3060
2248.00,0.3057
2247.00,0.3055
2246.00,0.3052
2245.00,0.3050
2244.00,0.3048
2243.00,0.3045
2242.00,0.3043
2241.00,0.3040
2240.00,0.3038
2239.00,0.3035
2238.00,0.3032
2237.00,0.3030
2236.00,0.3027
2235.00,0.3025
2234.00,0.3023
2233.00,0.3022
2232.00,0.3020
2231.00,0.3019
2230.00,0.3017
2229.00,0.3015
2228.00,0.3013
2227.00,0.3011
2226.00,0.3009
2225.00,0.3008
2224.00,0.3007
2223.00,0.3005
2222.00,0.3004
2221.00,0.3004
2220.00,0.3003
2219.00,0.3002
2218.00,0.3002
2217.00,0.3002
2216.00,0.3001
2215.00,0.3001
2214.00,0.3000
2213.00,0.3000
2212.00,0.2999
2211.00,0.2998
2210.00,0.2997
2209.00,0.2997
2208.00,0.2996
2207.00,0.2996
2206.00,0.2996
2205.00,0.2995
2204.00,0.2995
2203.00,0.2995
2202.00,0.2995
2201.00,0.2995
2200.00,0.2996
2199.00,0.2997
2198.00,0.2997
2197.00,0.2999
2196.00,0.3000
2195.00,0.3000
2194.00,0.3002
2193.00,0.3003
2192.00,0.3005
2191.00,0.3006
2190.00,0.3008
2189.00,0.3009
2188.00,0.3011
2187.00,0.3012
2186.00,0.3013
2185.00,0.3013
2184.00,0.3013
2183.00,0.3012
2182.00,0.3011
2181.00,0.3010
2180.00,0.3008
2179.00,0.3007
2178.00,0.3005
2177.00,0.3004
2176.00,0.3004
2175.00,0.3003
2174.00,0.3002
2173.00,0.3001
2172.00,0.3000
2171.00,0.2999
2170.00,0.2997
2169.00,0.2996
2168.00,0.2995
2167.00,0.2994
2166.00,0.2994
2165.00,0.2995
2164.00,0.2996
2163.00,0.2996
2162.00,0.2995
2161.00,0.2995
2160.00,0.2994
2159.00,0.2992
2158.00,0.2991
2157.00,0.2989
2156.00,0.2988
2155.00,0.2986
2154.00,0.2985
2153.00,0.2984
2152.00,0.2983
2151.00,0.2980
2150.00,0.2977
2149.00,0.2973
2148.00,0.2968
2147.00,0.2963
2146.00,0.2957
2145.00,0.2950
2144.00,0.2944
2143.00,0.2936
2142.00,0.2929
2141.00,0.2922
2140.00,0.2915
2139.00,0.2909
2138.00,0.2904
2137.00,0.2900
2136.00,0.2896
2135.00,0.2893
2134.00,0.2889
2133.00,0.2887
2132.00,0.2885
2131.00,0.2883
2130.00,0.2881
2129.00,0.2879
2128.00,0.2877
2127.00,0.2875
2126.00,0.2873
2125.00,0.2871
2124.00,0.2870
2123.00,0.2868
2122.00,0.2867
2121.00,0.2865
2120.00,0.2864
2119.00,0.2863
2118.00,0.2861
2117.00,0.2860
2116.00,0.2859
2115.00,0.2857
2114.00,0.2856
2113.00,0.2855
2112.00,0.2854
2111.00,0.2852
2110.00,0.2851
2109.00,0.2849
2108.00,0.2848
2107.00,0.2847
2106.00,0.2847
2105.00,0.2847
2104.00,0.2847
2103.00,0.2847
2102.00,0.2847
2101.00,0.2846
2100.00,0.2846
2099.00,0.2845
2098.00,0.2843
2097.00,0.2842
2096.00,0.2842
2095.00,0.2840
2094.00,0.2839
2093.00,0.2839
2092.00,0.2838
2091.00,0.2837
2090.00,0.2835
2089.00,0.2834
2088.00,0.2833
2087.00,0.2833
2086.00,0.2833
2085.00,0.2833
2084.00,0.2834
2083.00,0.2834
2082.00,0.2835
2081.00,0.2835
2080.00,0.2836
2079.00,0.2836
2078.00,0.2836
2077.00,0.2837
2076.00,0.2839
2075.00,0.2840
2074.00,0.2841
2073.00,0.2842
2072.00,0.2844
2071.00,0.2845
2070.00,0.2847
2069.00,0.2849
2068.00,0.2850
2067.00,0.2852
2066.00,0.2852
2065.00,0.2853
2064.00,0.2854
2063.00,0.2855
2062.00,0.2857
2061.00,0.2859
2060.00,0.2861
2059.00,0.2862
2058.00,0.2863
2057.00,0.2865
2056.00,0.2866
2055.00,0.2868
2054.00,0.2870
2053.00,0.2872
2052.00,0.2876
2051.00,0.2879
2050.00,0.2883
2049.00,0.2888
2048.00,0.2892
2047.00,0.2896
2046.00,0.2899
2045.00,0.2902
2044.00,0.2906
2043.00,0.2908
2042.00,0.2911
2041.00,0.2914
2040.00,0.2917
2039.00,0.2920
2038.00,0.2922
2037.00,0.2924
2036.00,0.2925
2035.00,0.2925
2034.00,0.2926
2033.00,0.2926
2032.00,0.2927
2031.00,0.2927
2030.00,0.2926
2029.00,0.2926
2028.00,0.2925
2027.00,0.2925
2026.00,0.2924
2025.00,0.2924
2024.00,0.2922
2023.00,0.2920
2022.00,0.2917
2021.00,0.2912
2020.00,0.2907
2019.00,0.2899
2018.00,0.2890
2017.00,0.2881
2016.00,0.2873
2015.00,0.2865
2014.00,0.2858
2013.00,0.2850
2012.00,0.2842
2011.00,0.2834
2010.00,0.2826
2009.00,0.2818
2008.00,0.2812
2007.00,0.2807
2006.00,0.2802
2005.00,0.2797
2004.00,0.2793
2003.00,0.2789
2002.00,0.2785
2001.00,0.2783
2000.00,0.2780
1999.00,0.2778
1998.00,0.2775
1997.00,0.2774
1996.00,0.2772
1995.00,0.2771
1994.00,0.2769
1993.00,0.2766
1992.00,0.2765
1991.00,0.2765
1990.00,0.2765
1989.00,0.2765
1988.00,0.2765
1987.00,0.2765
1986.00,0.2765
1985.00,0.2766
1984.00,0.2766
1983.00,0.2765
1982.00,0.2764
1981.00,0.2763
1980.00,0.2763
1979.00,0.2762
1978.00,0.2762
1977.00,0.2761
1976.00,0.2760
1975.00,0.2759
1974.00,0.2758
1973.00,0.2758
1972.00,0.2758
1971.00,0.2757
1970.00,0.2756
1969.00,0.2755
1968.00,0.2754
1967.00,0.2754
1966.00,0.2755
1965.00,0.2757
1964.00,0.2760
1963.00,0.2762
1962.00,0.2763
1961.00,0.2765
1960.00,0.2767
1959.00,0.2769
1958.00,0.2772
1957.00,0.2774
1956.00,0.2776
1955.00,0.2778
1954.00,0.2780
1953.00,0.2782
1952.00,0.2784
1951.00,0.2786
1950.00,0.2787
1949.00,0.2787
1948.00,0.2788
1947.00,0.2788
1946.00,0.2788
1945.00,0.2789
1944.00,0.2791
1943.00,0.2794
1942.00,0.2798
1941.00,0.2806
1940.00,0.2814
1939.00,0.2819
1938.00,0.2823
1937.00,0.2825
1936.00,0.2827
1935.00,0.2829
1934.00,0.2830
1933.00,0.2830
1932.00,0.2831
1931.00,0.2831
1930.00,0.2831
1929.00,0.2831
1928.00,0.2830
1927.00,0.2830
1926.00,0.2829
1925.00,0.2827
1924.00,0.2825
1923.00,0.2824
1922.00,0.2826
1921.00,0.2831
1920.00,0.2836
1919.00,0.2840
1918.00,0.2844
1917.00,0.2848
1916.00,0.2852
1915.00,0.2853
1914.00,0.2853
1913.00,0.2853
1912.00,0.2852
1911.00,0.2851
1910.00,0.2851
1909.00,0.2852
1908.00,0.2854
1907.00,0.2856
1906.00,0.2858
1905.00,0.2859
1904.00,0.2860
1903.00,0.2859
1902.00,0.2859
1901.00,0.2858
1900.00,0.2858
1899.00,0.2858
1898.00,0.2858
1897.00,0.2858
1896.00,0.2858
1895.00,0.2858
1894.00,0.2859
1893.00,0.2861
1892.00,0.2863
1891.00,0.2863
1890.00,0.2862
1889.00,0.2864
1888.00,0.2869
1887.00,0.2872
1886.00,0.2874
1885.00,0.2874
1884.00,0.2875
1883.00,0.2875
1882.00,0.2876
1881.00,0.2877
1880.00,0.2877
1879.00,0.2876
1878.00,0.2875
1877.00,0.2874
1876.00,0.2873
1875.00,0.2870
1874.00,0.2868
1873.00,0.2867
1872.00,0.2865
1871.00,0.2864
1870.00,0.2862
1869.00,0.2860
1868.00,0.2857
1867.00,0.2853
1866.00,0.2850
1865.00,0.2846
1864.00,0.2843
1863.00,0.2839
1862.00,0.2835
1861.00,0.2832
1860.00,0.2829
1859.00,0.2825
1858.00,0.2822
1857.00,0.2820
1856.00,0.2819
1855.00,0.2817
1854.00,0.2815
1853.00,0.2812
1852.00,0.2809
1851.00,0.2806
1850.00,0.2803
1849.00,0.2800
1848.00,0.2797
1847.00,0.2795
1846.00,0.2794
1845.00,0.2795
1844.00,0.2797
1843.00,0.2800
1842.00,0.2801
1841.00,0.2799
1840.00,0.2794
1839.00,0.2791
1838.00,0.2791
1837.00,0.2790
1836.00,0.2790
1835.00,0.2790
1834.00,0.2789
1833.00,0.2790
1832.00,0.2791
1831.00,0.2792
1830.00,0.2793
1829.00,0.2793
1828.00,0.2792
1827.00,0.2793
1826.00,0.2793
1825.00,0.2795
1824.00,0.2791
1823.00,0.2790
1822.00,0.2793
1821.00,0.2792
1820.00,0.2793
1819.00,0.2794
1818.00,0.2794
1817.00,0.2795
1816.00,0.2797
1815.00,0.2799
1814.00,0.2800
1813.00,0.2800
1812.00,0.2800
1811.00,0.2800
1810.00,0.2804
1809.00,0.2811
1808.00,0.2820
1807.00,0.2829
1806.00,0.2839
1805.00,0.2851
1804.00,0.2862
1803.00,0.2873
1802.00,0.2882
1801.00,0.2891
1800.00,0.2900
1799.00,0.2909
1798.00,0.2916
1797.00,0.2922
1796.00,0.2926
1795.00,0.2930
1794.00,0.2934
1793.00,0.2940
1792.00,0.2946
1791.00,0.2953
1790.00,0.2960
1789.00,0.2964
1788.00,0.2966
1787.00,0.2967
1786.00,0.2969
1785.00,0.2973
1784.00,0.2977
1783.00,0.2979
1782.00,0.2979
1781.00,0.2979
1780.00,0.2982
1779.00,0.2988
1778.00,0.2994
1777.00,0.2998
1776.00,0.3001
1775.00,0.3004
1774.00,0.3008
1773.00,0.3012
1772.00,0.3019
1771.00,0.3029
1770.00,0.3040
1769.00,0.3051
1768.00,0.3060
1767.00,0.3068
1766.00,0.3075
1765.00,0.3079
1764.00,0.3083
1763.00,0.3088
1762.00,0.3096
1761.00,0.3106
1760.00,0.3117
1759.00,0.3125
1758.00,0.3132
1757.00,0.3142
1756.00,0.3157
1755.00,0.3175
1754.00,0.3193
1753.00,0.3214
1752.00,0.3242
1751.00,0.3276
1750.00,0.3314
1749.00,0.3360
1748.00,0.3415
1747.00,0.3481
1746.00,0.3555
1745.00,0.3631
1744.00,0.3703
1743.00,0.3765
1742.00,0.3813
1741.00,0.3844
1740.00,0.3855
1739.00,0.3846
1738.00,0.3821
1737.00,0.3788
1736.00,0.3748
1735.00,0.3696
1734.00,0.3638
1733.00,0.3589
1732.00,0.3550
1731.00,0.3512
1730.00,0.3479
1729.00,0.3459
1728.00,0.3450
1727.00,0.3446
1726.00,0.3445
1725.00,0.3446
1724.00,0.3451
1723.00,0.3459
1722.00,0.3468
1721.00,0.3478
1720.00,0.3488
1719.00,0.3498
1718.00,0.3508
1717.00,0.3523
1716.00,0.3543
1715.00,0.3561
1714.00,0.3577
1713.00,0.3595
1712.00,0.3614
1711.00,0.3632
1710.00,0.3650
1709.00,0.3670
1708.00,0.3686
1707.00,0.3697
1706.00,0.3703
1705.00,0.3707
1704.00,0.3709
1703.00,0.3708
1702.00,0.3702
1701.00,0.3688
1700.00,0.3665
1699.00,0.3640
1698.00,0.3614
1697.00,0.3587
1696.00,0.3569
1695.00,0.3562
1694.00,0.3560
1693.00,0.3550
1692.00,0.3536
1691.00,0.3524
1690.00,0.3519
1689.00,0.3518
1688.00,0.3521
1687.00,0.3525
1686.00,0.3529
1685.00,0.3528
1684.00,0.3524
1683.00,0.3528
1682.00,0.3533
1681.00,0.3531
1680.00,0.3528
1679.00,0.3530
1678.00,0.3538
1677.00,0.3551
1676.00,0.3566
1675.00,0.3581
1674.00,0.3593
1673.00,0.3602
1672.00,0.3606
1671.00,0.3610
1670.00,0.3620
1669.00,0.3640
1668.00,0.3667
1667.00,0.3690
1666.00,0.3706
1665.00,0.3721
1664.00,0.3738
1663.00,0.3758
1662.00,0.3783
1661.00,0.3813
1660.00,0.3842
1659.00,0.3868
1658.00,0.3893
1657.00,0.3920
1656.00,0.3950
1655.00,0.3986
1654.00,0.4029
1653.00,0.4084
1652.00,0.4148
1651.00,0.4187
1650.00,0.4186
1649.00,0.4201
1648.00,0.4239
1647.00,0.4279
1646.00,0.4322
1645.00,0.4361
1644.00,0.4404
1643.00,0.4440
1642.00,0.4468
1641.00,0.4502
1640.00,0.4537
1639.00,0.4570
1638.00,0.4600
1637.00,0.4638
1636.00,0.4688
1635.00,0.4748
1634.00,0.4808
1633.00,0.4855
1632.00,0.4892
1631.00,0.4928
1630.00,0.4971
1629.00,0.5022
1628.00,0.5081
1627.00,0.5144
1626.00,0.5212
1625.00,0.5287
1624.00,0.5374
1623.00,0.5470
1622.00,0.5576
1621.00,0.5687
1620.00,0.5800
1619.00,0.5922
1618.00,0.6069
1617.00,0.6256
1616.00,0.6472
1615.00,0.6690
1614.00,0.6900
1613.00,0.7126
1612.00,0.7386
1611.00,0.7674
1610.00,0.7973
1609.00,0.8272
1608.00,0.8560
1607.00,0.8817
1606.00,0.9044
1605.00,0.9271
1604.00,0.9524
1603.00,0.9813
1602.00,1.0154
1601.00,1.0575
1600.00,1.1092
1599.00,1.1699
1598.00,1.2402
1597.00,1.3251
1596.00,1.4297
1595.00,1.5551
1594.00,1.7018
1593.00,1.8794
1592.00,2.1022
1591.00,2.3688
1590.00,2.6490
1589.00,2.9758
1588.00,3.5357
1587.00,4.0649
1586.00,3.8425
1585.00,3.9077
1584.00,4.0936
1583.00,4.3030
1582.00,3.9340
1581.00,3.6795
1580.00,3.8643
1579.00,3.8072
1578.00,3.3327
1577.00,2.9152
1576.00,2.6081
1575.00,2.3484
1574.00,2.1448
1573.00,2.0061
1572.00,1.9139
1571.00,1.8550
1570.00,1.8319
1569.00,1.8585
1568.00,1.9389
1567.00,2.0638
1566.00,2.2280
1565.00,2.4518
1564.00,2.7704
1563.00,3.1430
1562.00,3.3044
1561.00,3.2828
1560.00,3.1681
1559.00,2.7567
1558.00,2.3709
1557.00,2.1066
1556.00,1.8920
1555.00,1.6923
1554.00,1.5208
1553.00,1.3904
1552.00,1.2956
1551.00,1.2235
1550.00,1.1686
1549.00,1.1318
1548.00,1.1124
1547.00,1.1060
1546.00,1.1090
1545.00,1.1207
1544.00,1.1394
1543.00,1.1604
1542.00,1.1777
1541.00,1.1866
1540.00,1.1822
1539.00,1.1635
1538.00,1.1360
1537.00,1.1050
1536.00,1.0716
1535.00,1.0335
1534.00,0.9914
1533.00,0.9520
1532.00,0.9207
1531.00,0.8965
1530.00,0.8769
1529.00,0.8609
1528.00,0.8475
1527.00,0.8352
1526.00,0.8236
1525.00,0.8143
1524.00,0.8078
1523.00,0.8044
1522.00,0.8051
1521.00,0.8115
1520.00,0.8219
1519.00,0.8323
1518.00,0.8413
1517.00,0.8489
1516.00,0.8528
1515.00,0.8492
1514.00,0.8365
1513.00,0.8165
1512.00,0.7922
1511.00,0.7671
1510.00,0.7445
1509.00,0.7260
1508.00,0.7115
1507.00,0.7012
1506.00,0.6973
1505.00,0.6991
1504.00,0.7018
1503.00,0.7039
1502.00,0.7067
1501.00,0.7114
1500.00,0.7179
1499.00,0.7255
1498.00,0.7349
1497.00,0.7476
1496.00,0.7640
1495.00,0.7820
1494.00,0.8006
1493.00,0.8216
1492.00,0.8467
1491.00,0.8744
1490.00,0.9009
1489.00,0.9231
1488.00,0.9415
1487.00,0.9594
1486.00,0.9809
1485.00,1.0088
1484.00,1.0432
1483.00,1.0835
1482.00,1.1311
1481.00,1.1879
1480.00,1.2537
1479.00,1.3280
1478.00,1.4140
1477.00,1.5179
1476.00,1.6424
1475.00,1.7865
1474.00,1.9565
1473.00,2.1730
1472.00,2.4525
1471.00,2.7757
1470.00,3.0974
1469.00,3.4350
1468.00,3.8164
1467.00,3.9711
1466.00,3.8450
1465.00,3.7987
1464.00,3.8743
1463.00,3.8479
1462.00,3.8235
1461.00,3.9887
1460.00,3.9780
1459.00,3.7115
1458.00,3.5834
1457.00,3.6579
1456.00,3.8005
1455.00,4.0471
1454.00,4.6172
1453.00,4.2126
1452.00,4.1040
1451.00,4.0030
1450.00,3.7346
1449.00,3.6471
1448.00,3.6621
1447.00,3.7372
1446.00,3.9005
1445.00,4.0282
1444.00,4.0307
1443.00,4.0659
1442.00,3.9579
1441.00,3.9338
1440.00,3.9663
1439.00,3.6098
1438.00,3.2349
1437.00,2.9695
1436.00,2.7392
1435.00,2.5259
1434.00,2.3406
1433.00,2.1765
1432.00,2.0221
1431.00,1.8769
1430.00,1.7475
1429.00,1.6381
1428.00,1.5481
1427.00,1.4748
1426.00,1.4153
1425.00,1.3673
1424.00,1.3297
1423.00,1.3019
1422.00,1.2826
1421.00,1.2698
1420.00,1.2626
1419.00,1.2611
1418.00,1.2661
1417.00,1.2782
1416.00,1.2974
1415.00,1.3224
1414.00,1.3511
1413.00,1.3799
1412.00,1.4041
1411.00,1.4185
1410.00,1.4198
1409.00,1.4077
1408.00,1.3831
1407.00,1.3465
1406.00,1.2997
1405.00,1.2466
1404.00,1.1921
1403.00,1.1406
1402.00,1.0939
1401.00,1.0520
1400.00,1.0149
1399.00,0.9839
1398.00,0.9602
1397.00,0.9433
1396.00,0.9315
1395.00,0.9232
1394.00,0.9183
1393.00,0.9175
1392.00,0.9229
1391.00,0.9366
1390.00,0.9613
1389.00,1.0008
1388.00,1.0596
1387.00,1.1397
1386.00,1.2373
1385.00,1.3471
1384.00,1.4678
1383.00,1.6028
1382.00,1.7566
1381.00,1.9346
1380.00,2.1415
1379.00,2.3642
1378.00,2.5406
1377.00,2.5851
1376.00,2.4913
1375.00,2.3179
1374.00,2.1256
1373.00,1.9559
1372.00,1.8216
1371.00,1.7200
1370.00,1.6471
1369.00,1.6009
1368.00,1.5758
1367.00,1.5583
1366.00,1.5305
1365.00,1.4801
1364.00,1.4078
1363.00,1.3260
1362.00,1.2494
1361.00,1.1865
1360.00,1.1381
1359.00,1.1014
1358.00,1.0742
1357.00,1.0555
1356.00,1.0446
1355.00,1.0403
1354.00,1.0409
1353.00,1.0449
1352.00,1.0512
1351.00,1.0596
1350.00,1.0707
1349.00,1.0869
1348.00,1.1104
1347.00,1.1412
1346.00,1.1748
1345.00,1.2011
1344.00,1.2086
1343.00,1.1918
1342.00,1.1555
1341.00,1.1100
1340.00,1.0637
1339.00,1.0209
1338.00,0.9825
1337.00,0.9481
1336.00,0.9173
1335.00,0.8901
1334.00,0.8666
1333.00,0.8472
1332.00,0.8318
1331.00,0.8203
1330.00,0.8125
1329.00,0.8083
1328.00,0.8073
1327.00,0.8088
1326.00,0.8118
1325.00,0.8151
1324.00,0.8182
1323.00,0.8209
1322.00,0.8233
1321.00,0.8258
1320.00,0.8288
1319.00,0.8327
1318.00,0.8375
1317.00,0.8432
1316.00,0.8498
1315.00,0.8573
1314.00,0.8656
1313.00,0.8747
1312.00,0.8845
1311.00,0.8947
1310.00,0.9050
1309.00,0.9149
1308.00,0.9233
1307.00,0.9288
1306.00,0.9305
1305.00,0.9285
1304.00,0.9241
1303.00,0.9189
1302.00,0.9143
1301.00,0.9110
1300.00,0.9087
1299.00,0.9063
1298.00,0.9024
1297.00,0.8966
1296.00,0.8892
1295.00,0.8810
1294.00,0.8724
1293.00,0.8634
1292.00,0.8534
1291.00,0.8417
1290.00,0.8281
1289.00,0.8139
1288.00,0.8003
1287.00,0.7884
1286.00,0.7786
1285.00,0.7710
1284.00,0.7659
1283.00,0.7643
1282.00,0.7673
1281.00,0.7751
1280.00,0.7860
1279.00,0.7961
1278.00,0.7999
1277.00,0.7942
1276.00,0.7795
1275.00,0.7602
1274.00,0.7410
1273.00,0.7249
1272.00,0.7128
1271.00,0.7044
1270.00,0.6988
1269.00,0.6949
1268.00,0.6913
1267.00,0.6874
1266.00,0.6827
1265.00,0.6778
1264.00,0.6733
1263.00,0.6697
1262.00,0.6670
1261.00,0.6652
1260.00,0.6643
1259.00,0.6643
1258.00,0.6651
1257.00,0.6665
1256.00,0.6685
1255.00,0.6712
1254.00,0.6746
1253.00,0.6780
1252.00,0.6804
1251.00,0.6813
1250.00,0.6803
1249.00,0.6779
1248.00,0.6746
1247.00,0.6710
1246.00,0.6670
1245.00,0.6630
1244.00,0.6592
1243.00,0.6560
1242.00,0.6532
1241.00,0.6501
1240.00,0.6466
1239.00,0.6430
1238.00,0.6406
1237.00,0.6409
1236.00,0.6445
1235.00,0.6516
1234.00,0.6609
1233.00,0.6710
1232.00,0.6803
1231.00,0.6870
1230.00,0.6896
1229.00,0.6868
1228.00,0.6783
1227.00,0.6652
1226.00,0.6494
1225.00,0.6331
1224.00,0.6178
1223.00,0.6044
1222.00,0.5934
1221.00,0.5847
1220.00,0.5783
1219.00,0.5741
1218.00,0.5717
1217.00,0.5710
1216.00,0.5717
1215.00,0.5734
1214.00,0.5756
1213.00,0.5779
1212.00,0.5797
1211.00,0.5806
1210.00,0.5802
1209.00,0.5781
1208.00,0.5748
1207.00,0.5711
1206.00,0.5681
1205.00,0.5668
1204.00,0.5679
1203.00,0.5721
1202.00,0.5797
1201.00,0.5897
1200.00,0.5997
1199.00,0.6071
1198.00,0.6107
1197.00,0.6117
1196.00,0.6128
1195.00,0.6161
1194.00,0.6223
1193.00,0.6308
1192.00,0.6400
1191.00,0.6481
1190.00,0.6528
1189.00,0.6527
1188.00,0.6480
1187.00,0.6398
1186.00,0.6299
1185.00,0.6195
1184.00,0.6093
1183.00,0.5996
1182.00,0.5907
1181.00,0.5828
1180.00,0.5763
1179.00,0.5713
1178.00,0.5679
1177.00,0.5660
1176.00,0.5655
1175.00,0.5665
1174.00,0.5690
1173.00,0.5728
1172.00,0.5775
1171.00,0.5824
1170.00,0.5866
1169.00,0.5897
1168.00,0.5918
1167.00,0.5934
1166.00,0.5951
1165.00,0.5975
1164.00,0.6008
1163.00,0.6052
1162.00,0.6101
1161.00,0.6144
1160.00,0.6170
1159.00,0.6171
1158.00,0.6150
1157.00,0.6119
1156.00,0.6090
1155.00,0.6068
1154.00,0.6051
1153.00,0.6035
1152.00,0.6015
1151.00,0.5992
1150.00,0.5965
1149.00,0.5937
1148.00,0.5909
1147.00,0.5884
1146.00,0.5860
1145.00,0.5840
1144.00,0.5830
1143.00,0.5833
1142.00,0.5851
1141.00,0.5884
1140.00,0.5934
1139.00,0.6001
1138.00,0.6084
1137.00,0.6184
1136.00,0.6297
1135.00,0.6414
1134.00,0.6510
1133.00,0.6558
1132.00,0.6541
1131.00,0.6467
1130.00,0.6367
1129.00,0.6277
1128.00,0.6224
1127.00,0.6216
1126.00,0.6235
1125.00,0.6251
1124.00,0.6237
1123.00,0.6189
1122.00,0.6119
1121.00,0.6051
1120.00,0.6003
1119.00,0.5985
1118.00,0.5998
1117.00,0.6033
1116.00,0.6078
1115.00,0.6112
1114.00,0.6114
1113.00,0.6070
1112.00,0.5982
1111.00,0.5870
1110.00,0.5755
1109.00,0.5657
1108.00,0.5586
1107.00,0.5547
1106.00,0.5539
1105.00,0.5561
1104.00,0.5609
1103.00,0.5680
1102.00,0.5766
1101.00,0.5855
1100.00,0.5930
1099.00,0.5969
1098.00,0.5961
1097.00,0.5912
1096.00,0.5844
1095.00,0.5780
1094.00,0.5731
1093.00,0.5696
1092.00,0.5670
1091.00,0.5648
1090.00,0.5627
1089.00,0.5609
1088.00,0.5599
1087.00,0.5605
1086.00,0.5630
1085.00,0.5675
1084.00,0.5740
1083.00,0.5821
1082.00,0.5912
1081.00,0.6007
1080.00,0.6098
1079.00,0.6172
1078.00,0.6218
1077.00,0.6226
1076.00,0.6193
1075.00,0.6122
1074.00,0.6025
1073.00,0.5917
1072.00,0.5812
1071.00,0.5719
1070.00,0.5640
1069.00,0.5570
1068.00,0.5509
1067.00,0.5456
1066.00,0.5411
1065.00,0.5374
1064.00,0.5346
1063.00,0.5325
1062.00,0.5308
1061.00,0.5291
1060.00,0.5272
1059.00,0.5247
1058.00,0.5216
1057.00,0.5180
1056.00,0.5142
1055.00,0.5105
1054.00,0.5068
1053.00,0.5032
1052.00,0.4999
1051.00,0.4974
1050.00,0.4956
1049.00,0.4946
1048.00,0.4941
1047.00,0.4940
1046.00,0.4941
1045.00,0.4941
1044.00,0.4940
1043.00,0.4939
1042.00,0.4940
1041.00,0.4945
1040.00,0.4954
1039.00,0.4966
1038.00,0.4982
1037.00,0.5002
1036.00,0.5026
1035.00,0.5060
1034.00,0.5104
1033.00,0.5159
1032.00,0.5227
1031.00,0.5304
1030.00,0.5385
1029.00,0.5457
1028.00,0.5507
1027.00,0.5524
1026.00,0.5502
1025.00,0.5441
1024.00,0.5349
1023.00,0.5243
1022.00,0.5136
1021.00,0.5042
1020.00,0.4967
1019.00,0.4912
1018.00,0.4874
1017.00,0.4848
1016.00,0.4830
1015.00,0.4817
1014.00,0.4806
1013.00,0.4796
1012.00,0.4787
1011.00,0.4786
1010.00,0.4796
1009.00,0.4817
1008.00,0.4840
1007.00,0.4857
1006.00,0.4864
1005.00,0.4865
1004.00,0.4866
1003.00,0.4873
1002.00,0.4883
1001.00,0.4894
1000.00,0.4905
999.00,0.4911
998.00,0.4909
997.00,0.4899
996.00,0.4883
995.00,0.4863
994.00,0.4842
993.00,0.4820
992.00,0.4800
991.00,0.4782
990.00,0.4768
989.00,0.4754
988.00,0.4737
987.00,0.4715
986.00,0.4693
985.00,0.4680
984.00,0.4684
983.00,0.4709
982.00,0.4753
981.00,0.4812
980.00,0.4883
979.00,0.4971
978.00,0.5085
977.00,0.5241
976.00,0.5460
975.00,0.5764
974.00,0.6179
973.00,0.6728
972.00,0.7437
971.00,0.8307
970.00,0.9287
969.00,1.0219
968.00,1.0810
967.00,1.0786
966.00,1.0172
965.00,0.9256
964.00,0.8314
963.00,0.7493
962.00,0.6852
961.00,0.6406
960.00,0.6148
959.00,0.6053
958.00,0.6074
957.00,0.6145
956.00,0.6201
955.00,0.6196
954.00,0.6116
953.00,0.5980
952.00,0.5818
951.00,0.5662
950.00,0.5530
949.00,0.5433
948.00,0.5377
947.00,0.5360
946.00,0.5379
945.00,0.5424
944.00,0.5487
943.00,0.5559
942.00,0.5630
941.00,0.5689
940.00,0.5731
939.00,0.5752
938.00,0.5751
937.00,0.5732
936.00,0.5698
935.00,0.5654
934.00,0.5599
933.00,0.5533
932.00,0.5458
931.00,0.5377
930.00,0.5296
929.00,0.5216
928.00,0.5146
927.00,0.5091
926.00,0.5061
925.00,0.5059
924.00,0.5087
923.00,0.5137
922.00,0.5190
921.00,0.5221
920.00,0.5209
919.00,0.5146
918.00,0.5044
917.00,0.4922
916.00,0.4802
915.00,0.4698
914.00,0.4617
913.00,0.4558
912.00,0.4518
911.00,0.4494
910.00,0.4483
909.00,0.4486
908.00,0.4504
907.00,0.4545
906.00,0.4610
905.00,0.4686
904.00,0.4752
903.00,0.4783
902.00,0.4769
901.00,0.4724
900.00,0.4674
899.00,0.4639
898.00,0.4627
897.00,0.4634
896.00,0.4655
895.00,0.4689
894.00,0.4733
893.00,0.4783
892.00,0.4838
891.00,0.4891
890.00,0.4937
889.00,0.4964
888.00,0.4964
887.00,0.4937
886.00,0.4888
885.00,0.4830
884.00,0.4774
883.00,0.4727
882.00,0.4693
881.00,0.4670
880.00,0.4655
879.00,0.4645
878.00,0.4637
877.00,0.4631
876.00,0.4627
875.00,0.4627
874.00,0.4629
873.00,0.4630
872.00,0.4630
871.00,0.4628
870.00,0.4630
869.00,0.4637
868.00,0.4655
867.00,0.4686
866.00,0.4735
865.00,0.4799
864.00,0.4869
863.00,0.4930
862.00,0.4962
861.00,0.4949
860.00,0.4890
859.00,0.4798
858.00,0.4697
857.00,0.4605
856.00,0.4534
855.00,0.4484
854.00,0.4450
853.00,0.4428
852.00,0.4412
851.00,0.4400
850.00,0.4388
849.00,0.4377
848.00,0.4366
847.00,0.4355
846.00,0.4345
845.00,0.4338
844.00,0.4336
843.00,0.4347
842.00,0.4378
841.00,0.4438
840.00,0.4531
839.00,0.4657
838.00,0.4797
837.00,0.4919
836.00,0.4990
835.00,0.4992
834.00,0.4935
833.00,0.4850
832.00,0.4774
831.00,0.4733
830.00,0.4736
829.00,0.4777
828.00,0.4843
827.00,0.4918
826.00,0.4995
825.00,0.5074
824.00,0.5158
823.00,0.5244
822.00,0.5317
821.00,0.5363
820.00,0.5372
819.00,0.5349
818.00,0.5305
817.00,0.5251
816.00,0.5199
815.00,0.5153
814.00,0.5113
813.00,0.5076
812.00,0.5039
811.00,0.5004
810.00,0.4972
809.00,0.4944
808.00,0.4917
807.00,0.4890
806.00,0.4862
805.00,0.4832
804.00,0.4798
803.00,0.4760
802.00,0.4718
801.00,0.4678
800.00,0.4645
799.00,0.4618
798.00,0.4596
797.00,0.4573
796.00,0.4552
795.00,0.4536
794.00,0.4526
793.00,0.4522
792.00,0.4524
791.00,0.4531
790.00,0.4541
789.00,0.4552
788.00,0.4564
787.00,0.4582
786.00,0.4611
785.00,0.4657
784.00,0.4725
783.00,0.4816
782.00,0.4933
781.00,0.5072
780.00,0.5228
779.00,0.5383
778.00,0.5504
777.00,0.5558
776.00,0.5534
775.00,0.5456
774.00,0.5364
773.00,0.5293
772.00,0.5256
771.00,0.5249
770.00,0.5262
769.00,0.5283
768.00,0.5303
767.00,0.5322
766.00,0.5337
765.00,0.5349
764.00,0.5363
763.00,0.5386
762.00,0.5423
761.00,0.5472
760.00,0.5527
759.00,0.5578
758.00,0.5617
757.00,0.5645
756.00,0.5671
755.00,0.5706
754.00,0.5756
753.00,0.5815
752.00,0.5876
751.00,0.5936
750.00,0.5999
749.00,0.6064
748.00,0.6133
747.00,0.6206
746.00,0.6285
745.00,0.6371
744.00,0.6467
743.00,0.6576
742.00,0.6696
741.00,0.6823
740.00,0.6952
739.00,0.7086
738.00,0.7228
737.00,0.7381
736.00,0.7546
735.00,0.7719
734.00,0.7898
733.00,0.8080
732.00,0.8267
731.00,0.8477
730.00,0.8729
729.00,0.9041
728.00,0.9425
727.00,0.9902
726.00,1.0490
725.00,1.1192
724.00,1.1960
723.00,1.2662
722.00,1.3077
721.00,1.3001
720.00,1.2450
719.00,1.1655
718.00,1.0842
717.00,1.0123
716.00,0.9535
715.00,0.9079
714.00,0.8733
713.00,0.8461
712.00,0.8230
711.00,0.8017
710.00,0.7808
709.00,0.7595
708.00,0.7376
707.00,0.7158
706.00,0.6948
705.00,0.6746
704.00,0.6554
703.00,0.6375
702.00,0.6215
701.00,0.6071
700.00,0.5935
699.00,0.5797
698.00,0.5649
697.00,0.5492
696.00,0.5335
695.00,0.5195
694.00,0.5082
693.00,0.4996
692.00,0.4933
691.00,0.4891
690.00,0.4864
689.00,0.4842
688.00,0.4810
687.00,0.4761
686.00,0.4696
685.00,0.4622
684.00,0.4552
683.00,0.4498
682.00,0.4460
681.00,0.4433
680.00,0.4412
679.00,0.4396
678.00,0.4384
677.00,0.4377
676.00,0.4372
675.00,0.4369
674.00,0.4368
673.00,0.4369
672.00,0.4370
671.00,0.4368
670.00,0.4366
669.00,0.4367
668.00,0.4372
667.00,0.4382
666.00,0.4401
665.00,0.4421
664.00,0.4436
663.00,0.4446
662.00,0.4455
661.00,0.4466
660.00,0.4477
659.00,0.4487
658.00,0.4495
657.00,0.4500
656.00,0.4502
655.00,0.4502
654.00,0.4502
653.00,0.4504
652.00,0.4511
651.00,0.4521
650.00,0.4532
649.00,0.4546
648.00,0.4562
647.00,0.4580
646.00,0.4601
645.00,0.4621
644.00,0.4641
643.00,0.4663
642.00,0.4685
641.00,0.4709
640.00,0.4733
639.00,0.4757
638.00,0.4779
637.00,0.4799
636.00,0.4813
635.00,0.4823
634.00,0.4830
633.00,0.4839
632.00,0.4852
631.00,0.4871
630.00,0.4892
629.00,0.4911
628.00,0.4929
627.00,0.4949
626.00,0.4974
625.00,0.5004
624.00,0.5035
623.00,0.5067
622.00,0.5094
621.00,0.5114
620.00,0.5128
619.00,0.5138
618.00,0.5145
617.00,0.5150
616.00,0.5154
615.00,0.5156
614.00,0.5158
613.00,0.5158
612.00,0.5155
611.00,0.5152
610.00,0.5151
609.00,0.5156
608.00,0.5162
607.00,0.5164
606.00,0.5159
605.00,0.5150
604.00,0.5142
603.00,0.5135
602.00,0.5125
601.00,0.5107
600.00,0.5085
599.00,0.5067
598.00,0.5057
597.00,0.5052
596.00,0.5046
595.00,0.5036
594.00,0.5028
593.00,0.5025
592.00,0.5026
591.00,0.5030
590.00,0.5038
589.00,0.5050
588.00,0.5072
587.00,0.5106
586.00,0.5151
585.00,0.5201
584.00,0.5247
583.00,0.5286
582.00,0.5319
581.00,0.5353
580.00,0.5389
579.00,0.5425
578.00,0.5457
577.00,0.5484
576.00,0.5509
575.00,0.5533
574.00,0.5558
573.00,0.5585
572.00,0.5616
571.00,0.5650
570.00,0.5687
569.00,0.5730
568.00,0.5776
567.00,0.5821
566.00,0.5854
565.00,0.5875
564.00,0.5896
563.00,0.5928
562.00,0.5974
561.00,0.6026
560.00,0.6076
559.00,0.6123
558.00,0.6173
557.00,0.6233
556.00,0.6302
555.00,0.6373
554.00,0.6442
553.00,0.6508
552.00,0.6573
551.00,0.6635
550.00,0.6691
