Created as New Dataset,Sample 009 By Dylan Kletzing Monday, March 10, 2025
cm-1,A
4000.00,0.3768
3999.00,0.3766
3998.00,0.3763
3997.00,0.3761
3996.00,0.3757
3995.00,0.3753
3994.00,0.3748
3993.00,0.3743
3992.00,0.3738
3991.00,0.3735
3990.00,0.3732
3989.00,0.3729
3988.00,0.3723
3987.00,0.3716
3986.00,0.3710
3985.00,0.3705
3984.00,0.3703
3983.00,0.3702
3982.00,0.3699
3981.00,0.3693
3980.00,0.3684
3979.00,0.3677
3978.00,0.3672
3977.00,0.3670
3976.00,0.3669
3975.00,0.3668
3974.00,0.3664
3973.00,0.3659
3972.00,0.3653
3971.00,0.3648
3970.00,0.3645
3969.00,0.3644
3968.00,0.3642
3967.00,0.3638
3966.00,0.3632
3965.00,0.3626
3964.00,0.3621
3963.00,0.3616
3962.00,0.3612
3961.00,0.3608
3960.00,0.3604
3959.00,0.3601
3958.00,0.3599
3957.00,0.3596
3956.00,0.3592
3955.00,0.3589
3954.00,0.3587
3953.00,0.3585
3952.00,0.3584
3951.00,0.3582
3950.00,0.3580
3949.00,0.3579
3948.00,0.3580
3947.00,0.3582
3946.00,0.3584
3945.00,0.3584
3944.00,0.3582
3943.00,0.3579
3942.00,0.3575
3941.00,0.3572
3940.00,0.3569
3939.00,0.3566
3938.00,0.3564
3937.00,0.3564
3936.00,0.3565
3935.00,0.3565
3934.00,0.3565
3933.00,0.3564
3932.00,0.3563
3931.00,0.3562
3930.00,0.3560
3929.00,0.3558
3928.00,0.3555
3927.00,0.3552
3926.00,0.3551
3925.00,0.3551
3924.00,0.3553
3923.00,0.3554
3922.00,0.3556
3921.00,0.3557
3920.00,0.3557
3919.00,0.3557
3918.00,0.3557
3917.00,0.3557
3916.00,0.3557
3915.00,0.3556
3914.00,0.3553
3913.00,0.3550
3912.00,0.3546
3911.00,0.3544
3910.00,0.3544
3909.00,0.3544
3908.00,0.3544
3907.00,0.3543
3906.00,0.3543
3905.00,0.3543
3904.00,0.3544
3903.00,0.3544
3902.00,0.3544
3901.00,0.3544
3900.00,0.3542
3899.00,0.3539
3898.00,0.3535
3897.00,0.3532
3896.00,0.3529
3895.00,0.3526
3894.00,0.3524
3893.00,0.3522
3892.00,0.3521
3891.00,0.3518
3890.00,0.3516
3889.00,0.3515
3888.00,0.3515
3887.00,0.3516
3886.00,0.3514
3885.00,0.3511
3884.00,0.3508
3883.00,0.3506
3882.00,0.3506
3881.00,0.3507
3880.00,0.3508
3879.00,0.3511
3878.00,0.3512
3877.00,0.3512
3876.00,0.3509
3875.00,0.3507
3874.00,0.3508
3873.00,0.3510
3872.00,0.3513
3871.00,0.3513
3870.00,0.3510
3869.00,0.3505
3868.00,0.3499
3867.00,0.3496
3866.00,0.3493
3865.00,0.3490
3864.00,0.3487
3863.00,0.3485
3862.00,0.3485
3861.00,0.3485
3860.00,0.3484
3859.00,0.3484
3858.00,0.3485
3857.00,0.3485
3856.00,0.3485
3855.00,0.3484
3854.00,0.3483
3853.00,0.3481
3852.00,0.3477
3851.00,0.3477
3850.00,0.3479
3849.00,0.3480
3848.00,0.3478
3847.00,0.3479
3846.00,0.3481
3845.00,0.3482
3844.00,0.3483
3843.00,0.3483
3842.00,0.3483
3841.00,0.3483
3840.00,0.3481
3839.00,0.3478
3838.00,0.3475
3837.00,0.3474
3836.00,0.3475
3835.00,0.3475
3834.00,0.3474
3833.00,0.3472
3832.00,0.3470
3831.00,0.3469
3830.00,0.3469
3829.00,0.3469
3828.00,0.3468
3827.00,0.3466
3826.00,0.3463
3825.00,0.3461
3824.00,0.3459
3823.00,0.3458
3822.00,0.3456
3821.00,0.3455
3820.00,0.3454
3819.00,0.3454
3818.00,0.3455
3817.00,0.3454
3816.00,0.3450
3815.00,0.3448
3814.00,0.3447
3813.00,0.3447
3812.00,0.3445
3811.00,0.3440
3810.00,0.3436
3809.00,0.3436
3808.00,0.3437
3807.00,0.3436
3806.00,0.3433
3805.00,0.3430
3804.00,0.3430
3803.00,0.3430
3802.00,0.3428
3801.00,0.3424
3800.00,0.3421
3799.00,0.3419
3798.00,0.3419
3797.00,0.3417
3796.00,0.3415
3795.00,0.3415
3794.00,0.3416
3793.00,0.3415
3792.00,0.3410
3791.00,0.3406
3790.00,0.3402
3789.00,0.3399
3788.00,0.3397
3787.00,0.3393
3786.00,0.3389
3785.00,0.3388
3784.00,0.3388
3783.00,0.3390
3782.00,0.3391
3781.00,0.3391
3780.00,0.3390
3779.00,0.3390
3778.00,0.3391
3777.00,0.3391
3776.00,0.3391
3775.00,0.3387
3774.00,0.3383
3773.00,0.3381
3772.00,0.3382
3771.00,0.3384
3770.00,0.3385
3769.00,0.3384
3768.00,0.3383
3767.00,0.3382
3766.00,0.3380
3765.00,0.3378
3764.00,0.3376
3763.00,0.3375
3762.00,0.3374
3761.00,0.3372
3760.00,0.3370
3759.00,0.3368
3758.00,0.3368
3757.00,0.3369
3756.00,0.3370
3755.00,0.3371
3754.00,0.3372
3753.00,0.3371
3752.00,0.3369
3751.00,0.3366
3750.00,0.3362
3749.00,0.3358
3748.00,0.3354
3747.00,0.3352
3746.00,0.3350
3745.00,0.3352
3744.00,0.3354
3743.00,0.3354
3742.00,0.3352
3741.00,0.3349
3740.00,0.3345
3739.00,0.3344
3738.00,0.3347
3737.00,0.3350
3736.00,0.3349
3735.00,0.3346
3734.00,0.3345
3733.00,0.3348
3732.00,0.3350
3731.00,0.3348
3730.00,0.3343
3729.00,0.3340
3728.00,0.3339
3727.00,0.3338
3726.00,0.3336
3725.00,0.3335
3724.00,0.3335
3723.00,0.3335
3722.00,0.3334
3721.00,0.3333
3720.00,0.3332
3719.00,0.3330
3718.00,0.3327
3717.00,0.3326
3716.00,0.3325
3715.00,0.3326
3714.00,0.3327
3713.00,0.3327
3712.00,0.3326
3711.00,0.3324
3710.00,0.3324
3709.00,0.3327
3708.00,0.3330
3707.00,0.3332
3706.00,0.3330
3705.00,0.3327
3704.00,0.3325
3703.00,0.3325
3702.00,0.3328
3701.00,0.3331
3700.00,0.3333
3699.00,0.3335
3698.00,0.3336
3697.00,0.3336
3696.00,0.3337
3695.00,0.3338
3694.00,0.3339
3693.00,0.3340
3692.00,0.3339
3691.00,0.3338
3690.00,0.3338
3689.00,0.3341
3688.00,0.3344
3687.00,0.3347
3686.00,0.3346
3685.00,0.3343
3684.00,0.3338
3683.00,0.3335
3682.00,0.3334
3681.00,0.3334
3680.00,0.3334
3679.00,0.3334
3678.00,0.3336
3677.00,0.3338
3676.00,0.3339
3675.00,0.3338
3674.00,0.3336
3673.00,0.3336
3672.00,0.3338
3671.00,0.3338
3670.00,0.3337
3669.00,0.3336
3668.00,0.3336
3667.00,0.3337
3666.00,0.3338
3665.00,0.3339
3664.00,0.3341
3663.00,0.3344
3662.00,0.3347
3661.00,0.3348
3660.00,0.3349
3659.00,0.3351
3658.00,0.3353
3657.00,0.3355
3656.00,0.3356
3655.00,0.3357
3654.00,0.3357
3653.00,0.3358
3652.00,0.3360
3651.00,0.3364
3650.00,0.3368
3649.00,0.3370
3648.00,0.3370
3647.00,0.3371
3646.00,0.3373
3645.00,0.3376
3644.00,0.3379
3643.00,0.3379
3642.00,0.3376
3641.00,0.3372
3640.00,0.3369
3639.00,0.3368
3638.00,0.3367
3637.00,0.3367
3636.00,0.3367
3635.00,0.3368
3634.00,0.3369
3633.00,0.3369
3632.00,0.3369
3631.00,0.3368
3630.00,0.3367
3629.00,0.3366
3628.00,0.3366
3627.00,0.3366
3626.00,0.3366
3625.00,0.3364
3624.00,0.3360
3623.00,0.3359
3622.00,0.3362
3621.00,0.3365
3620.00,0.3365
3619.00,0.3364
3618.00,0.3363
3617.00,0.3362
3616.00,0.3362
3615.00,0.3361
3614.00,0.3360
3613.00,0.3358
3612.00,0.3357
3611.00,0.3356
3610.00,0.3355
3609.00,0.3351
3608.00,0.3346
3607.00,0.3340
3606.00,0.3335
3605.00,0.3332
3604.00,0.3328
3603.00,0.3320
3602.00,0.3310
3601.00,0.3299
3600.00,0.3289
3599.00,0.3280
3598.00,0.3272
3597.00,0.3263
3596.00,0.3254
3595.00,0.3246
3594.00,0.3239
3593.00,0.3232
3592.00,0.3225
3591.00,0.3217
3590.00,0.3211
3589.00,0.3205
3588.00,0.3201
3587.00,0.3196
3586.00,0.3191
3585.00,0.3187
3584.00,0.3185
3583.00,0.3183
3582.00,0.3181
3581.00,0.3180
3580.00,0.3179
3579.00,0.3176
3578.00,0.3173
3577.00,0.3171
3576.00,0.3169
3575.00,0.3167
3574.00,0.3167
3573.00,0.3165
3572.00,0.3163
3571.00,0.3161
3570.00,0.3158
3569.00,0.3156
3568.00,0.3154
3567.00,0.3150
3566.00,0.3148
3565.00,0.3148
3564.00,0.3150
3563.00,0.3151
3562.00,0.3149
3561.00,0.3146
3560.00,0.3142
3559.00,0.3138
3558.00,0.3136
3557.00,0.3134
3556.00,0.3134
3555.00,0.3133
3554.00,0.3132
3553.00,0.3131
3552.00,0.3130
3551.00,0.3129
3550.00,0.3127
3549.00,0.3124
3548.00,0.3122
3547.00,0.3121
3546.00,0.3121
3545.00,0.3122
3544.00,0.3123
3543.00,0.3124
3542.00,0.3124
3541.00,0.3123
3540.00,0.3121
3539.00,0.3119
3538.00,0.3118
3537.00,0.3117
3536.00,0.3116
3535.00,0.3117
3534.00,0.3118
3533.00,0.3118
3532.00,0.3119
3531.00,0.3118
3530.00,0.3118
3529.00,0.3118
3528.00,0.3118
3527.00,0.3119
3526.00,0.3120
3525.00,0.3121
3524.00,0.3123
3523.00,0.3123
3522.00,0.3122
3521.00,0.3120
3520.00,0.3118
3519.00,0.3118
3518.00,0.3121
3517.00,0.3124
3516.00,0.3126
3515.00,0.3127
3514.00,0.3126
3513.00,0.3125
3512.00,0.3125
3511.00,0.3125
3510.00,0.3125
3509.00,0.3126
3508.00,0.3129
3507.00,0.3131
3506.00,0.3133
3505.00,0.3135
3504.00,0.3136
3503.00,0.3138
3502.00,0.3140
3501.00,0.3142
3500.00,0.3143
3499.00,0.3143
3498.00,0.3143
3497.00,0.3144
3496.00,0.3145
3495.00,0.3146
3494.00,0.3147
3493.00,0.3149
3492.00,0.3151
3491.00,0.3155
3490.00,0.3159
3489.00,0.3163
3488.00,0.3166
3487.00,0.3169
3486.00,0.3172
3485.00,0.3176
3484.00,0.3182
3483.00,0.3189
3482.00,0.3197
3481.00,0.3203
3480.00,0.3208
3479.00,0.3212
3478.00,0.3217
3477.00,0.3225
3476.00,0.3236
3475.00,0.3248
3474.00,0.3258
3473.00,0.3267
3472.00,0.3277
3471.00,0.3289
3470.00,0.3301
3469.00,0.3313
3468.00,0.3323
3467.00,0.3334
3466.00,0.3345
3465.00,0.3354
3464.00,0.3362
3463.00,0.3365
3462.00,0.3365
3461.00,0.3363
3460.00,0.3361
3459.00,0.3359
3458.00,0.3355
3457.00,0.3351
3456.00,0.3346
3455.00,0.3341
3454.00,0.3334
3453.00,0.3326
3452.00,0.3318
3451.00,0.3311
3450.00,0.3304
3449.00,0.3295
3448.00,0.3286
3447.00,0.3278
3446.00,0.3271
3445.00,0.3266
3444.00,0.3262
3443.00,0.3258
3442.00,0.3255
3441.00,0.3252
3440.00,0.3248
3439.00,0.3245
3438.00,0.3241
3437.00,0.3237
3436.00,0.3234
3435.00,0.3232
3434.00,0.3229
3433.00,0.3227
3432.00,0.3227
3431.00,0.3228
3430.00,0.3230
3429.00,0.3232
3428.00,0.3231
3427.00,0.3230
3426.00,0.3228
3425.00,0.3227
3424.00,0.3227
3423.00,0.3228
3422.00,0.3229
3421.00,0.3231
3420.00,0.3232
3419.00,0.3232
3418.00,0.3231
3417.00,0.3231
3416.00,0.3230
3415.00,0.3230
3414.00,0.3230
3413.00,0.3231
3412.00,0.3233
3411.00,0.3235
3410.00,0.3236
3409.00,0.3236
3408.00,0.3236
3407.00,0.3235
3406.00,0.3234
3405.00,0.3235
3404.00,0.3236
3403.00,0.3238
3402.00,0.3239
3401.00,0.3239
3400.00,0.3239
3399.00,0.3239
3398.00,0.3240
3397.00,0.3242
3396.00,0.3245
3395.00,0.3249
3394.00,0.3251
3393.00,0.3252
3392.00,0.3251
3391.00,0.3251
3390.00,0.3252
3389.00,0.3252
3388.00,0.3253
3387.00,0.3253
3386.00,0.3253
3385.00,0.3254
3384.00,0.3256
3383.00,0.3258
3382.00,0.3259
3381.00,0.3261
3380.00,0.3261
3379.00,0.3262
3378.00,0.3263
3377.00,0.3263
3376.00,0.3262
3375.00,0.3261
3374.00,0.3260
3373.00,0.3260
3372.00,0.3262
3371.00,0.3264
3370.00,0.3265
3369.00,0.3262
3368.00,0.3257
3367.00,0.3253
3366.00,0.3251
3365.00,0.3252
3364.00,0.3253
3363.00,0.3254
3362.00,0.3254
3361.00,0.3253
3360.00,0.3252
3359.00,0.3250
3358.00,0.3249
3357.00,0.3249
3356.00,0.3250
3355.00,0.3252
3354.00,0.3254
3353.00,0.3255
3352.00,0.3254
3351.00,0.3252
3350.00,0.3249
3349.00,0.3248
3348.00,0.3249
3347.00,0.3250
3346.00,0.3250
3345.00,0.3248
3344.00,0.3247
3343.00,0.3246
3342.00,0.3247
3341.00,0.3247
3340.00,0.3247
3339.00,0.3247
3338.00,0.3245
3337.00,0.3244
3336.00,0.3244
3335.00,0.3246
3334.00,0.3248
3333.00,0.3249
3332.00,0.3248
3331.00,0.3246
3330.00,0.3244
3329.00,0.3242
3328.00,0.3242
3327.00,0.3242
3326.00,0.3243
3325.00,0.3244
3324.00,0.3244
3323.00,0.3244
3322.00,0.3244
3321.00,0.3242
3320.00,0.3242
3319.00,0.3242
3318.00,0.3243
3317.00,0.3244
3316.00,0.3244
3315.00,0.3244
3314.00,0.3243
3313.00,0.3243
3312.00,0.3243
3311.00,0.3242
3310.00,0.3242
3309.00,0.3242
3308.00,0.3242
3307.00,0.3243
3306.00,0.3242
3305.00,0.3241
3304.00,0.3240
3303.00,0.3239
3302.00,0.3239
3301.00,0.3239
3300.00,0.3240
3299.00,0.3241
3298.00,0.3242
3297.00,0.3241
3296.00,0.3241
3295.00,0.3240
3294.00,0.3240
3293.00,0.3241
3292.00,0.3243
3291.00,0.3246
3290.00,0.3248
3289.00,0.3249
3288.00,0.3248
3287.00,0.3247
3286.00,0.3247
3285.00,0.3249
3284.00,0.3251
3283.00,0.3254
3282.00,0.3255
3281.00,0.3256
3280.00,0.3256
3279.00,0.3257
3278.00,0.3259
3277.00,0.3261
3276.00,0.3262
3275.00,0.3263
3274.00,0.3265
3273.00,0.3267
3272.00,0.3268
3271.00,0.3270
3270.00,0.3270
3269.00,0.3270
3268.00,0.3269
3267.00,0.3269
3266.00,0.3271
3265.00,0.3275
3264.00,0.3278
3263.00,0.3281
3262.00,0.3284
3261.00,0.3286
3260.00,0.3290
3259.00,0.3294
3258.00,0.3299
3257.00,0.3303
3256.00,0.3305
3255.00,0.3307
3254.00,0.3309
3253.00,0.3311
3252.00,0.3313
3251.00,0.3315
3250.00,0.3317
3249.00,0.3321
3248.00,0.3325
3247.00,0.3330
3246.00,0.3333
3245.00,0.3335
3244.00,0.3338
3243.00,0.3342
3242.00,0.3348
3241.00,0.3355
3240.00,0.3360
3239.00,0.3365
3238.00,0.3368
3237.00,0.3372
3236.00,0.3378
3235.00,0.3383
3234.00,0.3388
3233.00,0.3391
3232.00,0.3395
3231.00,0.3400
3230.00,0.3407
3229.00,0.3415
3228.00,0.3423
3227.00,0.3431
3226.00,0.3438
3225.00,0.3443
3224.00,0.3448
3223.00,0.3456
3222.00,0.3465
3221.00,0.3475
3220.00,0.3484
3219.00,0.3492
3218.00,0.3500
3217.00,0.3509
3216.00,0.3517
3215.00,0.3526
3214.00,0.3537
3213.00,0.3547
3212.00,0.3556
3211.00,0.3563
3210.00,0.3571
3209.00,0.3579
3208.00,0.3589
3207.00,0.3599
3206.00,0.3610
3205.00,0.3620
3204.00,0.3632
3203.00,0.3643
3202.00,0.3652
3201.00,0.3661
3200.00,0.3668
3199.00,0.3676
3198.00,0.3685
3197.00,0.3695
3196.00,0.3705
3195.00,0.3715
3194.00,0.3723
3193.00,0.3730
3192.00,0.3737
3191.00,0.3743
3190.00,0.3748
3189.00,0.3753
3188.00,0.3760
3187.00,0.3766
3186.00,0.3771
3185.00,0.3776
3184.00,0.3779
3183.00,0.3783
3182.00,0.3786
3181.00,0.3790
3180.00,0.3794
3179.00,0.3798
3178.00,0.3802
3177.00,0.3805
3176.00,0.3808
3175.00,0.3810
3174.00,0.3812
3173.00,0.3813
3172.00,0.3814
3171.00,0.3815
3170.00,0.3817
3169.00,0.3819
3168.00,0.3821
3167.00,0.3822
3166.00,0.3823
3165.00,0.3824
3164.00,0.3826
3163.00,0.3827
3162.00,0.3828
3161.00,0.3829
3160.00,0.3830
3159.00,0.3832
3158.00,0.3833
3157.00,0.3833
3156.00,0.3835
3155.00,0.3838
3154.00,0.3842
3153.00,0.3847
3152.00,0.3849
3151.00,0.3850
3150.00,0.3850
3149.00,0.3851
3148.00,0.3851
3147.00,0.3852
3146.00,0.3853
3145.00,0.3854
3144.00,0.3855
3143.00,0.3857
3142.00,0.3860
3141.00,0.3863
3140.00,0.3867
3139.00,0.3870
3138.00,0.3872
3137.00,0.3874
3136.00,0.3876
3135.00,0.3877
3134.00,0.3879
3133.00,0.3882
3132.00,0.3887
3131.00,0.3893
3130.00,0.3899
3129.00,0.3904
3128.00,0.3907
3127.00,0.3910
3126.00,0.3913
3125.00,0.3917
3124.00,0.3922
3123.00,0.3926
3122.00,0.3932
3121.00,0.3937
3120.00,0.3943
3119.00,0.3947
3118.00,0.3952
3117.00,0.3958
3116.00,0.3965
3115.00,0.3972
3114.00,0.3978
3113.00,0.3983
3112.00,0.3989
3111.00,0.3997
3110.00,0.4006
3109.00,0.4017
3108.00,0.4028
3107.00,0.4038
3106.00,0.4046
3105.00,0.4054
3104.00,0.4062
3103.00,0.4072
3102.00,0.4083
3101.00,0.4094
3100.00,0.4106
3099.00,0.4117
3098.00,0.4129
3097.00,0.4140
3096.00,0.4151
3095.00,0.4163
3094.00,0.4175
3093.00,0.4188
3092.00,0.4203
3091.00,0.4219
3090.00,0.4234
3089.00,0.4250
3088.00,0.4267
3087.00,0.4285
3086.00,0.4303
3085.00,0.4321
3084.00,0.4339
3083.00,0.4357
3082.00,0.4374
3081.00,0.4391
3080.00,0.4410
3079.00,0.4431
3078.00,0.4454
3077.00,0.4476
3076.00,0.4498
3075.00,0.4519
3074.00,0.4540
3073.00,0.4561
3072.00,0.4584
3071.00,0.4607
3070.00,0.4631
3069.00,0.4655
3068.00,0.4679
3067.00,0.4703
3066.00,0.4726
3065.00,0.4751
3064.00,0.4777
3063.00,0.4806
3062.00,0.4836
3061.00,0.4864
3060.00,0.4889
3059.00,0.4914
3058.00,0.4939
3057.00,0.4966
3056.00,0.4994
3055.00,0.5023
3054.00,0.5054
3053.00,0.5085
3052.00,0.5119
3051.00,0.5155
3050.00,0.5192
3049.00,0.5230
3048.00,0.5270
3047.00,0.5311
3046.00,0.5353
3045.00,0.5396
3044.00,0.5439
3043.00,0.5480
3042.00,0.5521
3041.00,0.5564
3040.00,0.5608
3039.00,0.5654
3038.00,0.5701
3037.00,0.5749
3036.00,0.5801
3035.00,0.5856
3034.00,0.5914
3033.00,0.5974
3032.00,0.6035
3031.00,0.6098
3030.00,0.6162
3029.00,0.6228
3028.00,0.6294
3027.00,0.6362
3026.00,0.6430
3025.00,0.6500
3024.00,0.6572
3023.00,0.6646
3022.00,0.6721
3021.00,0.6798
3020.00,0.6879
3019.00,0.6966
3018.00,0.7061
3017.00,0.7164
3016.00,0.7271
3015.00,0.7382
3014.00,0.7496
3013.00,0.7614
3012.00,0.7738
3011.00,0.7869
3010.00,0.8009
3009.00,0.8159
3008.00,0.8318
3007.00,0.8484
3006.00,0.8656
3005.00,0.8835
3004.00,0.9024
3003.00,0.9228
3002.00,0.9450
3001.00,0.9690
3000.00,0.9943
2999.00,1.0209
2998.00,1.0494
2997.00,1.0801
2996.00,1.1135
2995.00,1.1497
2994.00,1.1888
2993.00,1.2310
2992.00,1.2760
2991.00,1.3233
2990.00,1.3729
2989.00,1.4260
2988.00,1.4847
2987.00,1.5497
2986.00,1.6206
2985.00,1.6951
2984.00,1.7720
2983.00,1.8530
2982.00,1.9419
2981.00,2.0422
2980.00,2.1520
2979.00,2.2628
2978.00,2.3593
2977.00,2.4289
2976.00,2.4742
2975.00,2.5120
2974.00,2.5578
2973.00,2.6118
2972.00,2.6654
2971.00,2.7162
2970.00,2.7704
2969.00,2.8269
2968.00,2.8633
2967.00,2.8547
2966.00,2.8062
2965.00,2.7487
2964.00,2.7114
2963.00,2.7114
2962.00,2.7522
2961.00,2.8203
2960.00,2.8832
2959.00,2.9029
2958.00,2.8705
2957.00,2.8181
2956.00,2.7905
2955.00,2.8182
2954.00,2.9043
2953.00,3.0072
2952.00,3.0413
2951.00,2.9872
2950.00,2.9219
2949.00,2.8883
2948.00,2.8803
2947.00,2.8800
2946.00,2.8818
2945.00,2.8817
2944.00,2.8737
2943.00,2.8693
2942.00,2.8929
2941.00,2.9539
2940.00,3.0362
2939.00,3.1134
2938.00,3.1641
2937.00,3.1676
2936.00,3.1097
2935.00,3.0170
2934.00,2.9471
2933.00,2.9357
2932.00,2.9975
2931.00,3.1293
2930.00,3.3093
2929.00,3.4594
2928.00,3.4601
2927.00,3.3520
2926.00,3.2501
2925.00,3.1813
2924.00,3.1227
2923.00,3.0687
2922.00,3.0403
2921.00,3.0519
2920.00,3.0996
2919.00,3.1719
2918.00,3.2648
2917.00,3.3391
2916.00,3.2682
2915.00,3.1008
2914.00,2.9762
2913.00,2.9344
2912.00,2.9390
2911.00,2.9357
2910.00,2.9181
2909.00,2.9171
2908.00,2.9543
2907.00,3.0184
2906.00,3.0699
2905.00,3.0648
2904.00,3.0157
2903.00,2.9707
2902.00,2.9528
2901.00,2.9479
2900.00,2.9330
2899.00,2.9142
2898.00,2.9079
2897.00,2.9152
2896.00,2.9275
2895.00,2.9362
2894.00,2.9305
2893.00,2.9024
2892.00,2.8714
2891.00,2.8665
2890.00,2.8882
2889.00,2.9023
2888.00,2.8838
2887.00,2.8552
2886.00,2.8455
2885.00,2.8456
2884.00,2.8238
2883.00,2.7777
2882.00,2.7355
2881.00,2.7162
2880.00,2.7193
2879.00,2.7375
2878.00,2.7609
2877.00,2.7759
2876.00,2.7773
2875.00,2.7809
2874.00,2.8012
2873.00,2.8265
2872.00,2.8323
2871.00,2.8200
2870.00,2.8146
2869.00,2.8267
2868.00,2.8475
2867.00,2.8667
2866.00,2.8830
2865.00,2.9018
2864.00,2.9288
2863.00,2.9689
2862.00,3.0204
2861.00,3.0726
2860.00,3.1134
2859.00,3.1343
2858.00,3.1250
2857.00,3.0844
2856.00,3.0355
2855.00,3.0081
2854.00,3.0085
2853.00,3.0137
2852.00,2.9989
2851.00,2.9635
2850.00,2.9309
2849.00,2.9145
2848.00,2.9044
2847.00,2.8844
2846.00,2.8459
2845.00,2.7940
2844.00,2.7457
2843.00,2.7250
2842.00,2.7369
2841.00,2.7422
2840.00,2.6861
2839.00,2.5758
2838.00,2.4587
2837.00,2.3537
2836.00,2.2537
2835.00,2.1522
2834.00,2.0528
2833.00,1.9621
2832.00,1.8814
2831.00,1.8080
2830.00,1.7391
2829.00,1.6738
2828.00,1.6125
2827.00,1.5555
2826.00,1.5028
2825.00,1.4548
2824.00,1.4116
2823.00,1.3725
2822.00,1.3358
2821.00,1.3002
2820.00,1.2654
2819.00,1.2325
2818.00,1.2022
2817.00,1.1741
2816.00,1.1474
2815.00,1.1217
2814.00,1.0974
2813.00,1.0745
2812.00,1.0524
2811.00,1.0307
2810.00,1.0096
2809.00,0.9892
2808.00,0.9698
2807.00,0.9512
2806.00,0.9334
2805.00,0.9164
2804.00,0.9001
2803.00,0.8843
2802.00,0.8688
2801.00,0.8537
2800.00,0.8391
2799.00,0.8250
2798.00,0.8115
2797.00,0.7987
2796.00,0.7864
2795.00,0.7746
2794.00,0.7632
2793.00,0.7524
2792.00,0.7421
2791.00,0.7324
2790.00,0.7229
2789.00,0.7136
2788.00,0.7045
2787.00,0.6957
2786.00,0.6871
2785.00,0.6788
2784.00,0.6704
2783.00,0.6620
2782.00,0.6533
2781.00,0.6448
2780.00,0.6369
2779.00,0.6295
2778.00,0.6228
2777.00,0.6166
2776.00,0.6106
2775.00,0.6048
2774.00,0.5992
2773.00,0.5939
2772.00,0.5891
2771.00,0.5849
2770.00,0.5813
2769.00,0.5781
2768.00,0.5751
2767.00,0.5724
2766.00,0.5699
2765.00,0.5676
2764.00,0.5657
2763.00,0.5641
2762.00,0.5629
2761.00,0.5620
2760.00,0.5611
2759.00,0.5601
2758.00,0.5593
2757.00,0.5586
2756.00,0.5582
2755.00,0.5579
2754.00,0.5576
2753.00,0.5573
2752.00,0.5573
2751.00,0.5579
2750.00,0.5587
2749.00,0.5597
2748.00,0.5606
2747.00,0.5615
2746.00,0.5627
2745.00,0.5643
2744.00,0.5662
2743.00,0.5684
2742.00,0.5709
2741.00,0.5737
2740.00,0.5768
2739.00,0.5802
2738.00,0.5838
2737.00,0.5877
2736.00,0.5917
2735.00,0.5959
2734.00,0.6005
2733.00,0.6051
2732.00,0.6092
2731.00,0.6122
2730.00,0.6136
2729.00,0.6134
2728.00,0.6117
2727.00,0.6087
2726.00,0.6048
2725.00,0.6005
2724.00,0.5962
2723.00,0.5921
2722.00,0.5885
2721.00,0.5852
2720.00,0.5823
2719.00,0.5799
2718.00,0.5777
2717.00,0.5754
2716.00,0.5728
2715.00,0.5697
2714.00,0.5663
2713.00,0.5627
2712.00,0.5593
2711.00,0.5561
2710.00,0.5533
2709.00,0.5509
2708.00,0.5488
2707.00,0.5468
2706.00,0.5452
2705.00,0.5441
2704.00,0.5433
2703.00,0.5428
2702.00,0.5424
2701.00,0.5423
2700.00,0.5426
2699.00,0.5432
2698.00,0.5441
2697.00,0.5452
2696.00,0.5466
2695.00,0.5481
2694.00,0.5499
2693.00,0.5519
2692.00,0.5541
2691.00,0.5562
2690.00,0.5582
2689.00,0.5601
2688.00,0.5618
2687.00,0.5634
2686.00,0.5648
2685.00,0.5658
2684.00,0.5664
2683.00,0.5667
2682.00,0.5666
2681.00,0.5665
2680.00,0.5665
2679.00,0.5665
2678.00,0.5665
2677.00,0.5662
2676.00,0.5659
2675.00,0.5656
2674.00,0.5653
2673.00,0.5649
2672.00,0.5643
2671.00,0.5635
2670.00,0.5623
2669.00,0.5607
2668.00,0.5585
2667.00,0.5560
2666.00,0.5535
2665.00,0.5509
2664.00,0.5481
2663.00,0.5450
2662.00,0.5417
2661.00,0.5384
2660.00,0.5355
2659.00,0.5330
2658.00,0.5309
2657.00,0.5289
2656.00,0.5271
2655.00,0.5253
2654.00,0.5233
2653.00,0.5213
2652.00,0.5193
2651.00,0.5175
2650.00,0.5158
2649.00,0.5142
2648.00,0.5126
2647.00,0.5110
2646.00,0.5095
2645.00,0.5080
2644.00,0.5066
2643.00,0.5053
2642.00,0.5040
2641.00,0.5027
2640.00,0.5014
2639.00,0.5002
2638.00,0.4988
2637.00,0.4974
2636.00,0.4962
2635.00,0.4954
2634.00,0.4947
2633.00,0.4939
2632.00,0.4929
2631.00,0.4919
2630.00,0.4908
2629.00,0.4898
2628.00,0.4889
2627.00,0.4880
2626.00,0.4871
2625.00,0.4862
2624.00,0.4854
2623.00,0.4846
2622.00,0.4838
2621.00,0.4831
2620.00,0.4823
2619.00,0.4814
2618.00,0.4804
2617.00,0.4792
2616.00,0.4779
2615.00,0.4769
2614.00,0.4760
2613.00,0.4752
2612.00,0.4744
2611.00,0.4735
2610.00,0.4725
2609.00,0.4715
2608.00,0.4704
2607.00,0.4693
2606.00,0.4681
2605.00,0.4670
2604.00,0.4660
2603.00,0.4649
2602.00,0.4637
2601.00,0.4623
2600.00,0.4608
2599.00,0.4592
2598.00,0.4577
2597.00,0.4563
2596.00,0.4550
2595.00,0.4537
2594.00,0.4523
2593.00,0.4507
2592.00,0.4490
2591.00,0.4474
2590.00,0.4459
2589.00,0.4445
2588.00,0.4430
2587.00,0.4415
2586.00,0.4399
2585.00,0.4382
2584.00,0.4365
2583.00,0.4348
2582.00,0.4332
2581.00,0.4315
2580.00,0.4296
2579.00,0.4277
2578.00,0.4258
2577.00,0.4240
2576.00,0.4223
2575.00,0.4205
2574.00,0.4187
2573.00,0.4170
2572.00,0.4154
2571.00,0.4137
2570.00,0.4119
2569.00,0.4101
2568.00,0.4085
2567.00,0.4069
2566.00,0.4054
2565.00,0.4039
2564.00,0.4026
2563.00,0.4011
2562.00,0.3996
2561.00,0.3981
2560.00,0.3968
2559.00,0.3957
2558.00,0.3946
2557.00,0.3935
2556.00,0.3923
2555.00,0.3910
2554.00,0.3897
2553.00,0.3886
2552.00,0.3875
2551.00,0.3867
2550.00,0.3859
2549.00,0.3853
2548.00,0.3847
2547.00,0.3841
2546.00,0.3835
2545.00,0.3828
2544.00,0.3820
2543.00,0.3813
2542.00,0.3806
2541.00,0.3799
2540.00,0.3792
2539.00,0.3786
2538.00,0.3780
2537.00,0.3774
2536.00,0.3769
2535.00,0.3762
2534.00,0.3754
2533.00,0.3746
2532.00,0.3739
2531.00,0.3732
2530.00,0.3724
2529.00,0.3714
2528.00,0.3703
2527.00,0.3694
2526.00,0.3685
2525.00,0.3676
2524.00,0.3667
2523.00,0.3657
2522.00,0.3647
2521.00,0.3638
2520.00,0.3630
2519.00,0.3622
2518.00,0.3614
2517.00,0.3605
2516.00,0.3594
2515.00,0.3584
2514.00,0.3574
2513.00,0.3565
2512.00,0.3558
2511.00,0.3550
2510.00,0.3541
2509.00,0.3534
2508.00,0.3527
2507.00,0.3520
2506.00,0.3512
2505.00,0.3504
2504.00,0.3496
2503.00,0.3489
2502.00,0.3482
2501.00,0.3476
2500.00,0.3471
2499.00,0.3466
2498.00,0.3460
2497.00,0.3455
2496.00,0.3449
2495.00,0.3445
2494.00,0.3440
2493.00,0.3435
2492.00,0.3431
2491.00,0.3428
2490.00,0.3426
2489.00,0.3423
2488.00,0.3420
2487.00,0.3417
2486.00,0.3413
2485.00,0.3409
2484.00,0.3406
2483.00,0.3402
2482.00,0.3399
2481.00,0.3396
2480.00,0.3394
2479.00,0.3393
2478.00,0.3390
2477.00,0.3387
2476.00,0.3384
2475.00,0.3382
2474.00,0.3379
2473.00,0.3376
2472.00,0.3373
2471.00,0.3371
2470.00,0.3369
2469.00,0.3367
2468.00,0.3365
2467.00,0.3364
2466.00,0.3364
2465.00,0.3364
2464.00,0.3363
2463.00,0.3363
2462.00,0.3365
2461.00,0.3366
2460.00,0.3367
2459.00,0.3366
2458.00,0.3364
2457.00,0.3363
2456.00,0.3363
2455.00,0.3365
2454.00,0.3366
2453.00,0.3367
2452.00,0.3366
2451.00,0.3365
2450.00,0.3365
2449.00,0.3365
2448.00,0.3366
2447.00,0.3368
2446.00,0.3369
2445.00,0.3371
2444.00,0.3372
2443.00,0.3374
2442.00,0.3375
2441.00,0.3375
2440.00,0.3375
2439.00,0.3375
2438.00,0.3376
2437.00,0.3378
2436.00,0.3380
2435.00,0.3381
2434.00,0.3381
2433.00,0.3381
2432.00,0.3382
2431.00,0.3383
2430.00,0.3385
2429.00,0.3387
2428.00,0.3389
2427.00,0.3390
2426.00,0.3391
2425.00,0.3393
2424.00,0.3395
2423.00,0.3396
2422.00,0.3398
2421.00,0.3399
2420.00,0.3400
2419.00,0.3403
2418.00,0.3405
2417.00,0.3408
2416.00,0.3411
2415.00,0.3413
2414.00,0.3416
2413.00,0.3417
2412.00,0.3418
2411.00,0.3418
2410.00,0.3418
2409.00,0.3417
2408.00,0.3417
2407.00,0.3417
2406.00,0.3418
2405.00,0.3420
2404.00,0.3422
2403.00,0.3423
2402.00,0.3424
2401.00,0.3423
2400.00,0.3422
2399.00,0.3421
2398.00,0.3420
2397.00,0.3419
2396.00,0.3418
2395.00,0.3418
2394.00,0.3417
2393.00,0.3418
2392.00,0.3418
2391.00,0.3416
2390.00,0.3415
2389.00,0.3413
2388.00,0.3412
2387.00,0.3412
2386.00,0.3412
2385.00,0.3411
2384.00,0.3410
2383.00,0.3410
2382.00,0.3411
2381.00,0.3411
2380.00,0.3410
2379.00,0.3409
2378.00,0.3407
2377.00,0.3407
2376.00,0.3409
2375.00,0.3413
2374.00,0.3416
2373.00,0.3419
2372.00,0.3419
2371.00,0.3419
2370.00,0.3419
2369.00,0.3418
2368.00,0.3418
2367.00,0.3417
2366.00,0.3417
2365.00,0.3419
2364.00,0.3420
2363.00,0.3422
2362.00,0.3423
2361.00,0.3423
2360.00,0.3423
2359.00,0.3423
2358.00,0.3424
2357.00,0.3426
2356.00,0.3429
2355.00,0.3430
2354.00,0.3430
2353.00,0.3428
2352.00,0.3426
2351.00,0.3426
2350.00,0.3427
2349.00,0.3427
2348.00,0.3428
2347.00,0.3427
2346.00,0.3427
2345.00,0.3427
2344.00,0.3427
2343.00,0.3428
2342.00,0.3428
2341.00,0.3427
2340.00,0.3427
2339.00,0.3428
2338.00,0.3432
2337.00,0.3435
2336.00,0.3435
2335.00,0.3433
2334.00,0.3430
2333.00,0.3430
2332.00,0.3430
2331.00,0.3429
2330.00,0.3426
2329.00,0.3421
2328.00,0.3417
2327.00,0.3415
2326.00,0.3414
2325.00,0.3413
2324.00,0.3411
2323.00,0.3408
2322.00,0.3406
2321.00,0.3403
2320.00,0.3401
2319.00,0.3398
2318.00,0.3395
2317.00,0.3394
2316.00,0.3392
2315.00,0.3389
2314.00,0.3386
2313.00,0.3381
2312.00,0.3376
2311.00,0.3372
2310.00,0.3368
2309.00,0.3365
2308.00,0.3363
2307.00,0.3359
2306.00,0.3355
2305.00,0.3351
2304.00,0.3347
2303.00,0.3342
2302.00,0.3338
2301.00,0.3334
2300.00,0.3331
2299.00,0.3327
2298.00,0.3322
2297.00,0.3316
2296.00,0.3312
2295.00,0.3309
2294.00,0.3306
2293.00,0.3303
2292.00,0.3299
2291.00,0.3295
2290.00,0.3292
2289.00,0.3289
2288.00,0.3286
2287.00,0.3282
2286.00,0.3279
2285.00,0.3275
2284.00,0.3271
2283.00,0.3268
2282.00,0.3264
2281.00,0.3261
2280.00,0.3257
2279.00,0.3254
2278.00,0.3250
2277.00,0.3247
2276.00,0.3244
2275.00,0.3242
2274.00,0.3240
2273.00,0.3237
2272.00,0.3236
2271.00,0.3234
2270.00,0.3231
2269.00,0.3227
2268.00,0.3224
2267.00,0.3222
2266.00,0.3220
2265.00,0.3218
2264.00,0.3216
2263.00,0.3213
2262.00,0.3211
2261.00,0.3208
2260.00,0.3205
2259.00,0.3202
2258.00,0.3201
2257.00,0.3200
2256.00,0.3199
2255.00,0.3197
2254.00,0.3194
2253.00,0.3191
2252.00,0.3188
2251.00,0.3185
2250.00,0.3183
2249.00,0.3181
2248.00,0.3179
2247.00,0.3177
2246.00,0.3174
2245.00,0.3172
2244.00,0.3170
2243.00,0.3168
2242.00,0.3166
2241.00,0.3164
2240.00,0.3163
2239.00,0.3161
2238.00,0.3159
2237.00,0.3156
2236.00,0.3155
2235.00,0.3153
2234.00,0.3151
2233.00,0.3149
2232.00,0.3146
2231.00,0.3143
2230.00,0.3142
2229.00,0.3141
2228.00,0.3141
2227.00,0.3141
2226.00,0.3140
2225.00,0.3139
2224.00,0.3139
2223.00,0.3139
2222.00,0.3138
2221.00,0.3138
2220.00,0.3139
2219.00,0.3140
2218.00,0.3142
2217.00,0.3143
2216.00,0.3143
2215.00,0.3142
2214.00,0.3142
2213.00,0.3141
2212.00,0.3142
2211.00,0.3144
2210.00,0.3145
2209.00,0.3145
2208.00,0.3145
2207.00,0.3145
2206.00,0.3145
2205.00,0.3145
2204.00,0.3145
2203.00,0.3145
2202.00,0.3145
2201.00,0.3144
2200.00,0.3143
2199.00,0.3143
2198.00,0.3141
2197.00,0.3140
2196.00,0.3139
2195.00,0.3139
2194.00,0.3140
2193.00,0.3140
2192.00,0.3141
2191.00,0.3143
2190.00,0.3144
2189.00,0.3146
2188.00,0.3147
2187.00,0.3147
2186.00,0.3147
2185.00,0.3147
2184.00,0.3148
2183.00,0.3149
2182.00,0.3149
2181.00,0.3150
2180.00,0.3150
2179.00,0.3149
2178.00,0.3148
2177.00,0.3146
2176.00,0.3145
2175.00,0.3145
2174.00,0.3145
2173.00,0.3146
2172.00,0.3145
2171.00,0.3144
2170.00,0.3143
2169.00,0.3140
2168.00,0.3138
2167.00,0.3136
2166.00,0.3134
2165.00,0.3134
2164.00,0.3134
2163.00,0.3135
2162.00,0.3136
2161.00,0.3136
2160.00,0.3136
2159.00,0.3135
2158.00,0.3133
2157.00,0.3132
2156.00,0.3132
2155.00,0.3131
2154.00,0.3132
2153.00,0.3132
2152.00,0.3132
2151.00,0.3131
2150.00,0.3130
2149.00,0.3128
2148.00,0.3124
2147.00,0.3120
2146.00,0.3116
2145.00,0.3111
2144.00,0.3107
2143.00,0.3102
2142.00,0.3098
2141.00,0.3094
2140.00,0.3089
2139.00,0.3084
2138.00,0.3079
2137.00,0.3075
2136.00,0.3072
2135.00,0.3068
2134.00,0.3065
2133.00,0.3063
2132.00,0.3061
2131.00,0.3059
2130.00,0.3056
2129.00,0.3053
2128.00,0.3051
2127.00,0.3049
2126.00,0.3047
2125.00,0.3046
2124.00,0.3047
2123.00,0.3046
2122.00,0.3046
2121.00,0.3044
2120.00,0.3043
2119.00,0.3042
2118.00,0.3041
2117.00,0.3040
2116.00,0.3040
2115.00,0.3039
2114.00,0.3038
2113.00,0.3038
2112.00,0.3039
2111.00,0.3041
2110.00,0.3042
2109.00,0.3043
2108.00,0.3045
2107.00,0.3046
2106.00,0.3047
2105.00,0.3049
2104.00,0.3050
2103.00,0.3050
2102.00,0.3049
2101.00,0.3049
2100.00,0.3048
2099.00,0.3048
2098.00,0.3048
2097.00,0.3049
2096.00,0.3049
2095.00,0.3048
2094.00,0.3047
2093.00,0.3047
2092.00,0.3047
2091.00,0.3048
2090.00,0.3048
2089.00,0.3048
2088.00,0.3048
2087.00,0.3048
2086.00,0.3049
2085.00,0.3049
2084.00,0.3050
2083.00,0.3052
2082.00,0.3053
2081.00,0.3052
2080.00,0.3051
2079.00,0.3050
2078.00,0.3051
2077.00,0.3055
2076.00,0.3059
2075.00,0.3061
2074.00,0.3062
2073.00,0.3063
2072.00,0.3065
2071.00,0.3067
2070.00,0.3069
2069.00,0.3073
2068.00,0.3077
2067.00,0.3080
2066.00,0.3083
2065.00,0.3085
2064.00,0.3088
2063.00,0.3090
2062.00,0.3093
2061.00,0.3095
2060.00,0.3097
2059.00,0.3099
2058.00,0.3100
2057.00,0.3101
2056.00,0.3103
2055.00,0.3105
2054.00,0.3108
2053.00,0.3111
2052.00,0.3114
2051.00,0.3115
2050.00,0.3116
2049.00,0.3118
2048.00,0.3121
2047.00,0.3124
2046.00,0.3126
2045.00,0.3128
2044.00,0.3129
2043.00,0.3131
2042.00,0.3132
2041.00,0.3135
2040.00,0.3138
2039.00,0.3141
2038.00,0.3145
2037.00,0.3149
2036.00,0.3153
2035.00,0.3155
2034.00,0.3156
2033.00,0.3157
2032.00,0.3158
2031.00,0.3159
2030.00,0.3159
2029.00,0.3159
2028.00,0.3159
2027.00,0.3158
2026.00,0.3157
2025.00,0.3155
2024.00,0.3154
2023.00,0.3151
2022.00,0.3145
2021.00,0.3138
2020.00,0.3130
2019.00,0.3120
2018.00,0.3109
2017.00,0.3099
2016.00,0.3090
2015.00,0.3081
2014.00,0.3072
2013.00,0.3063
2012.00,0.3054
2011.00,0.3045
2010.00,0.3037
2009.00,0.3031
2008.00,0.3026
2007.00,0.3021
2006.00,0.3015
2005.00,0.3010
2004.00,0.3006
2003.00,0.3002
2002.00,0.2999
2001.00,0.2997
2000.00,0.2995
1999.00,0.2993
1998.00,0.2991
1997.00,0.2990
1996.00,0.2988
1995.00,0.2987
1994.00,0.2984
1993.00,0.2981
1992.00,0.2979
1991.00,0.2978
1990.00,0.2978
1989.00,0.2979
1988.00,0.2979
1987.00,0.2979
1986.00,0.2978
1985.00,0.2979
1984.00,0.2979
1983.00,0.2978
1982.00,0.2975
1981.00,0.2972
1980.00,0.2970
1979.00,0.2969
1978.00,0.2968
1977.00,0.2966
1976.00,0.2966
1975.00,0.2966
1974.00,0.2965
1973.00,0.2965
1972.00,0.2964
1971.00,0.2963
1970.00,0.2962
1969.00,0.2960
1968.00,0.2959
1967.00,0.2957
1966.00,0.2957
1965.00,0.2960
1964.00,0.2963
1963.00,0.2965
1962.00,0.2966
1961.00,0.2967
1960.00,0.2968
1959.00,0.2970
1958.00,0.2971
1957.00,0.2973
1956.00,0.2974
1955.00,0.2975
1954.00,0.2976
1953.00,0.2977
1952.00,0.2978
1951.00,0.2978
1950.00,0.2978
1949.00,0.2978
1948.00,0.2978
1947.00,0.2977
1946.00,0.2976
1945.00,0.2974
1944.00,0.2971
1943.00,0.2968
1942.00,0.2967
1941.00,0.2968
1940.00,0.2972
1939.00,0.2976
1938.00,0.2977
1937.00,0.2978
1936.00,0.2978
1935.00,0.2978
1934.00,0.2977
1933.00,0.2976
1932.00,0.2977
1931.00,0.2978
1930.00,0.2978
1929.00,0.2976
1928.00,0.2975
1927.00,0.2973
1926.00,0.2972
1925.00,0.2969
1924.00,0.2966
1923.00,0.2964
1922.00,0.2963
1921.00,0.2965
1920.00,0.2968
1919.00,0.2970
1918.00,0.2971
1917.00,0.2972
1916.00,0.2975
1915.00,0.2978
1914.00,0.2980
1913.00,0.2981
1912.00,0.2982
1911.00,0.2981
1910.00,0.2980
1909.00,0.2979
1908.00,0.2980
1907.00,0.2981
1906.00,0.2982
1905.00,0.2982
1904.00,0.2983
1903.00,0.2983
1902.00,0.2982
1901.00,0.2980
1900.00,0.2979
1899.00,0.2978
1898.00,0.2978
1897.00,0.2978
1896.00,0.2977
1895.00,0.2976
1894.00,0.2976
1893.00,0.2976
1892.00,0.2977
1891.00,0.2977
1890.00,0.2976
1889.00,0.2975
1888.00,0.2976
1887.00,0.2979
1886.00,0.2982
1885.00,0.2983
1884.00,0.2985
1883.00,0.2988
1882.00,0.2991
1881.00,0.2994
1880.00,0.2996
1879.00,0.2997
1878.00,0.2997
1877.00,0.2997
1876.00,0.2997
1875.00,0.2997
1874.00,0.2996
1873.00,0.2995
1872.00,0.2993
1871.00,0.2990
1870.00,0.2986
1869.00,0.2982
1868.00,0.2980
1867.00,0.2982
1866.00,0.2985
1865.00,0.2987
1864.00,0.2989
1863.00,0.2989
1862.00,0.2987
1861.00,0.2986
1860.00,0.2985
1859.00,0.2985
1858.00,0.2984
1857.00,0.2984
1856.00,0.2985
1855.00,0.2988
1854.00,0.2989
1853.00,0.2990
1852.00,0.2989
1851.00,0.2989
1850.00,0.2988
1849.00,0.2987
1848.00,0.2986
1847.00,0.2986
1846.00,0.2986
1845.00,0.2986
1844.00,0.2987
1843.00,0.2988
1842.00,0.2992
1841.00,0.2996
1840.00,0.3000
1839.00,0.3004
1838.00,0.3006
1837.00,0.3008
1836.00,0.3009
1835.00,0.3011
1834.00,0.3013
1833.00,0.3015
1832.00,0.3017
1831.00,0.3019
1830.00,0.3020
1829.00,0.3021
1828.00,0.3023
1827.00,0.3025
1826.00,0.3024
1825.00,0.3024
1824.00,0.3029
1823.00,0.3037
1822.00,0.3047
1821.00,0.3055
1820.00,0.3062
1819.00,0.3068
1818.00,0.3072
1817.00,0.3077
1816.00,0.3083
1815.00,0.3091
1814.00,0.3098
1813.00,0.3105
1812.00,0.3111
1811.00,0.3118
1810.00,0.3126
1809.00,0.3134
1808.00,0.3143
1807.00,0.3153
1806.00,0.3164
1805.00,0.3174
1804.00,0.3183
1803.00,0.3189
1802.00,0.3196
1801.00,0.3205
1800.00,0.3219
1799.00,0.3235
1798.00,0.3250
1797.00,0.3262
1796.00,0.3274
1795.00,0.3286
1794.00,0.3299
1793.00,0.3312
1792.00,0.3325
1791.00,0.3341
1790.00,0.3359
1789.00,0.3380
1788.00,0.3401
1787.00,0.3420
1786.00,0.3437
1785.00,0.3453
1784.00,0.3473
1783.00,0.3497
1782.00,0.3523
1781.00,0.3550
1780.00,0.3578
1779.00,0.3608
1778.00,0.3639
1777.00,0.3671
1776.00,0.3704
1775.00,0.3740
1774.00,0.3778
1773.00,0.3821
1772.00,0.3869
1771.00,0.3918
1770.00,0.3964
1769.00,0.4013
1768.00,0.4072
1767.00,0.4144
1766.00,0.4225
1765.00,0.4313
1764.00,0.4410
1763.00,0.4524
1762.00,0.4659
1761.00,0.4816
1760.00,0.4993
1759.00,0.5196
1758.00,0.5441
1757.00,0.5751
1756.00,0.6135
1755.00,0.6589
1754.00,0.7120
1753.00,0.7778
1752.00,0.8642
1751.00,0.9773
1750.00,1.1180
1749.00,1.2853
1748.00,1.4793
1747.00,1.6965
1746.00,1.9239
1745.00,2.1394
1744.00,2.3080
1743.00,2.4105
1742.00,2.4703
1741.00,2.5021
1740.00,2.4830
1739.00,2.4029
1738.00,2.2938
1737.00,2.1589
1736.00,1.9772
1735.00,1.7576
1734.00,1.5406
1733.00,1.3592
1732.00,1.2140
1731.00,1.0910
1730.00,0.9825
1729.00,0.8883
1728.00,0.8099
1727.00,0.7458
1726.00,0.6928
1725.00,0.6481
1724.00,0.6101
1723.00,0.5783
1722.00,0.5524
1721.00,0.5318
1720.00,0.5144
1719.00,0.4982
1718.00,0.4826
1717.00,0.4690
1716.00,0.4583
1715.00,0.4501
1714.00,0.4436
1713.00,0.4383
1712.00,0.4336
1711.00,0.4292
1710.00,0.4251
1709.00,0.4214
1708.00,0.4181
1707.00,0.4150
1706.00,0.4122
1705.00,0.4101
1704.00,0.4088
1703.00,0.4082
1702.00,0.4077
1701.00,0.4070
1700.00,0.4056
1699.00,0.4036
1698.00,0.4009
1697.00,0.3971
1696.00,0.3916
1695.00,0.3853
1694.00,0.3799
1693.00,0.3757
1692.00,0.3719
1691.00,0.3679
1690.00,0.3638
1689.00,0.3601
1688.00,0.3572
1687.00,0.3548
1686.00,0.3526
1685.00,0.3501
1684.00,0.3473
1683.00,0.3449
1682.00,0.3433
1681.00,0.3422
1680.00,0.3414
1679.00,0.3407
1678.00,0.3402
1677.00,0.3398
1676.00,0.3392
1675.00,0.3383
1674.00,0.3375
1673.00,0.3369
1672.00,0.3365
1671.00,0.3358
1670.00,0.3348
1669.00,0.3340
1668.00,0.3334
1667.00,0.3331
1666.00,0.3331
1665.00,0.3331
1664.00,0.3330
1663.00,0.3327
1662.00,0.3322
1661.00,0.3319
1660.00,0.3317
1659.00,0.3314
1658.00,0.3310
1657.00,0.3308
1656.00,0.3307
1655.00,0.3304
1654.00,0.3300
1653.00,0.3294
1652.00,0.3290
1651.00,0.3285
1650.00,0.3283
1649.00,0.3284
1648.00,0.3283
1647.00,0.3278
1646.00,0.3273
1645.00,0.3271
1644.00,0.3271
1643.00,0.3270
1642.00,0.3269
1641.00,0.3268
1640.00,0.3267
1639.00,0.3266
1638.00,0.3266
1637.00,0.3267
1636.00,0.3269
1635.00,0.3269
1634.00,0.3267
1633.00,0.3266
1632.00,0.3266
1631.00,0.3266
1630.00,0.3268
1629.00,0.3271
1628.00,0.3274
1627.00,0.3276
1626.00,0.3277
1625.00,0.3277
1624.00,0.3276
1623.00,0.3275
1622.00,0.3274
1621.00,0.3275
1620.00,0.3280
1619.00,0.3286
1618.00,0.3293
1617.00,0.3300
1616.00,0.3305
1615.00,0.3307
1614.00,0.3308
1613.00,0.3311
1612.00,0.3314
1611.00,0.3317
1610.00,0.3320
1609.00,0.3324
1608.00,0.3329
1607.00,0.3331
1606.00,0.3333
1605.00,0.3338
1604.00,0.3347
1603.00,0.3361
1602.00,0.3379
1601.00,0.3401
1600.00,0.3423
1599.00,0.3440
1598.00,0.3453
1597.00,0.3469
1596.00,0.3489
1595.00,0.3511
1594.00,0.3528
1593.00,0.3536
1592.00,0.3531
1591.00,0.3513
1590.00,0.3489
1589.00,0.3467
1588.00,0.3451
1587.00,0.3438
1586.00,0.3428
1585.00,0.3421
1584.00,0.3416
1583.00,0.3412
1582.00,0.3408
1581.00,0.3405
1580.00,0.3401
1579.00,0.3398
1578.00,0.3395
1577.00,0.3393
1576.00,0.3389
1575.00,0.3384
1574.00,0.3379
1573.00,0.3378
1572.00,0.3380
1571.00,0.3381
1570.00,0.3382
1569.00,0.3385
1568.00,0.3390
1567.00,0.3394
1566.00,0.3399
1565.00,0.3405
1564.00,0.3413
1563.00,0.3419
1562.00,0.3422
1561.00,0.3426
1560.00,0.3431
1559.00,0.3433
1558.00,0.3437
1557.00,0.3444
1556.00,0.3448
1555.00,0.3449
1554.00,0.3450
1553.00,0.3454
1552.00,0.3459
1551.00,0.3462
1550.00,0.3465
1549.00,0.3473
1548.00,0.3487
1547.00,0.3501
1546.00,0.3511
1545.00,0.3521
1544.00,0.3534
1543.00,0.3551
1542.00,0.3572
1541.00,0.3599
1540.00,0.3626
1539.00,0.3643
1538.00,0.3651
1537.00,0.3654
1536.00,0.3658
1535.00,0.3662
1534.00,0.3666
1533.00,0.3672
1532.00,0.3682
1531.00,0.3693
1530.00,0.3703
1529.00,0.3714
1528.00,0.3726
1527.00,0.3737
1526.00,0.3751
1525.00,0.3770
1524.00,0.3793
1523.00,0.3812
1522.00,0.3828
1521.00,0.3846
1520.00,0.3870
1519.00,0.3896
1518.00,0.3921
1517.00,0.3950
1516.00,0.3980
1515.00,0.4011
1514.00,0.4045
1513.00,0.4081
1512.00,0.4117
1511.00,0.4149
1510.00,0.4180
1509.00,0.4217
1508.00,0.4268
1507.00,0.4334
1506.00,0.4413
1505.00,0.4490
1504.00,0.4550
1503.00,0.4594
1502.00,0.4636
1501.00,0.4687
1500.00,0.4750
1499.00,0.4823
1498.00,0.4909
1497.00,0.5023
1496.00,0.5166
1495.00,0.5328
1494.00,0.5508
1493.00,0.5722
1492.00,0.5976
1491.00,0.6253
1490.00,0.6517
1489.00,0.6737
1488.00,0.6914
1487.00,0.7081
1486.00,0.7277
1485.00,0.7524
1484.00,0.7812
1483.00,0.8133
1482.00,0.8499
1481.00,0.8927
1480.00,0.9408
1479.00,0.9936
1478.00,1.0545
1477.00,1.1284
1476.00,1.2165
1475.00,1.3187
1474.00,1.4441
1473.00,1.6109
1472.00,1.8277
1471.00,2.0744
1470.00,2.3135
1469.00,2.5186
1468.00,2.6559
1467.00,2.7071
1466.00,2.7269
1465.00,2.7547
1464.00,2.7514
1463.00,2.7118
1462.00,2.7037
1461.00,2.7419
1460.00,2.7634
1459.00,2.7261
1458.00,2.6947
1457.00,2.7071
1456.00,2.6829
1455.00,2.5823
1454.00,2.4809
1453.00,2.4070
1452.00,2.3384
1451.00,2.2614
1450.00,2.1813
1449.00,2.0973
1448.00,2.0058
1447.00,1.9174
1446.00,1.8447
1445.00,1.7845
1444.00,1.7263
1443.00,1.6671
1442.00,1.6110
1441.00,1.5591
1440.00,1.5086
1439.00,1.4569
1438.00,1.4021
1437.00,1.3404
1436.00,1.2725
1435.00,1.2042
1434.00,1.1384
1433.00,1.0728
1432.00,1.0067
1431.00,0.9430
1430.00,0.8855
1429.00,0.8362
1428.00,0.7963
1427.00,0.7662
1426.00,0.7446
1425.00,0.7295
1424.00,0.7206
1423.00,0.7177
1422.00,0.7194
1421.00,0.7235
1420.00,0.7288
1419.00,0.7344
1418.00,0.7386
1417.00,0.7395
1416.00,0.7366
1415.00,0.7299
1414.00,0.7194
1413.00,0.7055
1412.00,0.6891
1411.00,0.6718
1410.00,0.6545
1409.00,0.6379
1408.00,0.6222
1407.00,0.6084
1406.00,0.5968
1405.00,0.5879
1404.00,0.5824
1403.00,0.5812
1402.00,0.5838
1401.00,0.5895
1400.00,0.5982
1399.00,0.6107
1398.00,0.6264
1397.00,0.6447
1396.00,0.6656
1395.00,0.6894
1394.00,0.7153
1393.00,0.7415
1392.00,0.7670
1391.00,0.7927
1390.00,0.8208
1389.00,0.8554
1388.00,0.9015
1387.00,0.9622
1386.00,1.0366
1385.00,1.1217
1384.00,1.2184
1383.00,1.3307
1382.00,1.4619
1381.00,1.6111
1380.00,1.7693
1379.00,1.9087
1378.00,1.9796
1377.00,1.9541
1376.00,1.8563
1375.00,1.7281
1374.00,1.6039
1373.00,1.5039
1372.00,1.4340
1371.00,1.3909
1370.00,1.3688
1369.00,1.3622
1368.00,1.3637
1367.00,1.3646
1366.00,1.3571
1365.00,1.3359
1364.00,1.2983
1363.00,1.2468
1362.00,1.1908
1361.00,1.1407
1360.00,1.1013
1359.00,1.0718
1358.00,1.0499
1357.00,1.0339
1356.00,1.0221
1355.00,1.0127
1354.00,1.0041
1353.00,0.9947
1352.00,0.9832
1351.00,0.9688
1350.00,0.9519
1349.00,0.9339
1348.00,0.9162
1347.00,0.8998
1346.00,0.8856
1345.00,0.8745
1344.00,0.8662
1343.00,0.8596
1342.00,0.8526
1341.00,0.8426
1340.00,0.8281
1339.00,0.8093
1338.00,0.7885
1337.00,0.7684
1336.00,0.7503
1335.00,0.7345
1334.00,0.7202
1333.00,0.7073
1332.00,0.6956
1331.00,0.6856
1330.00,0.6776
1329.00,0.6718
1328.00,0.6684
1327.00,0.6675
1326.00,0.6689
1325.00,0.6724
1324.00,0.6778
1323.00,0.6847
1322.00,0.6926
1321.00,0.7014
1320.00,0.7109
1319.00,0.7211
1318.00,0.7316
1317.00,0.7420
1316.00,0.7518
1315.00,0.7613
1314.00,0.7710
1313.00,0.7810
1312.00,0.7910
1311.00,0.8002
1310.00,0.8080
1309.00,0.8145
1308.00,0.8196
1307.00,0.8232
1306.00,0.8251
1305.00,0.8254
1304.00,0.8245
1303.00,0.8231
1302.00,0.8215
1301.00,0.8198
1300.00,0.8177
1299.00,0.8152
1298.00,0.8134
1297.00,0.8131
1296.00,0.8147
1295.00,0.8178
1294.00,0.8218
1293.00,0.8263
1292.00,0.8310
1291.00,0.8354
1290.00,0.8391
1289.00,0.8414
1288.00,0.8424
1287.00,0.8421
1286.00,0.8403
1285.00,0.8370
1284.00,0.8319
1283.00,0.8251
1282.00,0.8173
1281.00,0.8094
1280.00,0.8021
1279.00,0.7958
1278.00,0.7905
1277.00,0.7867
1276.00,0.7845
1275.00,0.7838
1274.00,0.7846
1273.00,0.7870
1272.00,0.7908
1271.00,0.7960
1270.00,0.8025
1269.00,0.8101
1268.00,0.8184
1267.00,0.8272
1266.00,0.8365
1265.00,0.8464
1264.00,0.8569
1263.00,0.8676
1262.00,0.8781
1261.00,0.8882
1260.00,0.8978
1259.00,0.9070
1258.00,0.9158
1257.00,0.9238
1256.00,0.9303
1255.00,0.9351
1254.00,0.9384
1253.00,0.9406
1252.00,0.9415
1251.00,0.9410
1250.00,0.9394
1249.00,0.9377
1248.00,0.9364
1247.00,0.9358
1246.00,0.9360
1245.00,0.9368
1244.00,0.9377
1243.00,0.9381
1242.00,0.9381
1241.00,0.9380
1240.00,0.9373
1239.00,0.9356
1238.00,0.9330
1237.00,0.9299
1236.00,0.9262
1235.00,0.9219
1234.00,0.9178
1233.00,0.9147
1232.00,0.9130
1231.00,0.9126
1230.00,0.9135
1229.00,0.9163
1228.00,0.9213
1227.00,0.9282
1226.00,0.9368
1225.00,0.9460
1224.00,0.9540
1223.00,0.9591
1222.00,0.9608
1221.00,0.9600
1220.00,0.9573
1219.00,0.9534
1218.00,0.9484
1217.00,0.9431
1216.00,0.9378
1215.00,0.9324
1214.00,0.9272
1213.00,0.9226
1212.00,0.9190
1211.00,0.9161
1210.00,0.9133
1209.00,0.9102
1208.00,0.9071
1207.00,0.9043
1206.00,0.9026
1205.00,0.9031
1204.00,0.9058
1203.00,0.9105
1202.00,0.9168
1201.00,0.9246
1200.00,0.9341
1199.00,0.9459
1198.00,0.9606
1197.00,0.9788
1196.00,1.0003
1195.00,1.0236
1194.00,1.0473
1193.00,1.0707
1192.00,1.0933
1191.00,1.1147
1190.00,1.1341
1189.00,1.1509
1188.00,1.1646
1187.00,1.1752
1186.00,1.1835
1185.00,1.1903
1184.00,1.1958
1183.00,1.1997
1182.00,1.2026
1181.00,1.2061
1180.00,1.2117
1179.00,1.2193
1178.00,1.2277
1177.00,1.2356
1176.00,1.2422
1175.00,1.2477
1174.00,1.2529
1173.00,1.2580
1172.00,1.2624
1171.00,1.2649
1170.00,1.2644
1169.00,1.2603
1168.00,1.2518
1167.00,1.2388
1166.00,1.2228
1165.00,1.2057
1164.00,1.1880
1163.00,1.1691
1162.00,1.1490
1161.00,1.1287
1160.00,1.1083
1159.00,1.0876
1158.00,1.0671
1157.00,1.0477
1156.00,1.0304
1155.00,1.0160
1154.00,1.0054
1153.00,0.9995
1152.00,0.9983
1151.00,1.0008
1150.00,1.0057
1149.00,1.0124
1148.00,1.0205
1147.00,1.0295
1146.00,1.0385
1145.00,1.0461
1144.00,1.0510
1143.00,1.0524
1142.00,1.0497
1141.00,1.0429
1140.00,1.0317
1139.00,1.0160
1138.00,0.9963
1137.00,0.9734
1136.00,0.9478
1135.00,0.9200
1134.00,0.8909
1133.00,0.8618
1132.00,0.8334
1131.00,0.8061
1130.00,0.7799
1129.00,0.7551
1128.00,0.7316
1127.00,0.7095
1126.00,0.6887
1125.00,0.6691
1124.00,0.6509
1123.00,0.6342
1122.00,0.6188
1121.00,0.6043
1120.00,0.5908
1119.00,0.5787
1118.00,0.5684
1117.00,0.5597
1116.00,0.5524
1115.00,0.5459
1114.00,0.5398
1113.00,0.5334
1112.00,0.5267
1111.00,0.5201
1110.00,0.5137
1109.00,0.5078
1108.00,0.5022
1107.00,0.4973
1106.00,0.4937
1105.00,0.4913
1104.00,0.4901
1103.00,0.4899
1102.00,0.4910
1101.00,0.4935
1100.00,0.4974
1099.00,0.5026
1098.00,0.5087
1097.00,0.5152
1096.00,0.5214
1095.00,0.5270
1094.00,0.5320
1093.00,0.5369
1092.00,0.5421
1091.00,0.5479
1090.00,0.5544
1089.00,0.5614
1088.00,0.5689
1087.00,0.5772
1086.00,0.5864
1085.00,0.5964
1084.00,0.6069
1083.00,0.6174
1082.00,0.6277
1081.00,0.6373
1080.00,0.6455
1079.00,0.6518
1078.00,0.6559
1077.00,0.6578
1076.00,0.6577
1075.00,0.6557
1074.00,0.6521
1073.00,0.6478
1072.00,0.6435
1071.00,0.6395
1070.00,0.6361
1069.00,0.6334
1068.00,0.6314
1067.00,0.6304
1066.00,0.6302
1065.00,0.6304
1064.00,0.6300
1063.00,0.6282
1062.00,0.6247
1061.00,0.6193
1060.00,0.6122
1059.00,0.6043
1058.00,0.5964
1057.00,0.5891
1056.00,0.5826
1055.00,0.5767
1054.00,0.5711
1053.00,0.5655
1052.00,0.5602
1051.00,0.5551
1050.00,0.5501
1049.00,0.5450
1048.00,0.5397
1047.00,0.5349
1046.00,0.5306
1045.00,0.5266
1044.00,0.5226
1043.00,0.5186
1042.00,0.5153
1041.00,0.5125
1040.00,0.5099
1039.00,0.5070
1038.00,0.5040
1037.00,0.5013
1036.00,0.4994
1035.00,0.4984
1034.00,0.4985
1033.00,0.4992
1032.00,0.4998
1031.00,0.5001
1030.00,0.5007
1029.00,0.5020
1028.00,0.5045
1027.00,0.5078
1026.00,0.5108
1025.00,0.5131
1024.00,0.5145
1023.00,0.5152
1022.00,0.5158
1021.00,0.5166
1020.00,0.5176
1019.00,0.5190
1018.00,0.5206
1017.00,0.5221
1016.00,0.5231
1015.00,0.5238
1014.00,0.5246
1013.00,0.5256
1012.00,0.5268
1011.00,0.5284
1010.00,0.5306
1009.00,0.5332
1008.00,0.5350
1007.00,0.5351
1006.00,0.5334
1005.00,0.5310
1004.00,0.5290
1003.00,0.5277
1002.00,0.5270
1001.00,0.5264
1000.00,0.5257
999.00,0.5248
998.00,0.5238
997.00,0.5227
996.00,0.5215
995.00,0.5203
994.00,0.5195
993.00,0.5194
992.00,0.5198
991.00,0.5204
990.00,0.5213
989.00,0.5225
988.00,0.5240
987.00,0.5255
986.00,0.5265
985.00,0.5262
984.00,0.5246
983.00,0.5219
982.00,0.5186
981.00,0.5152
980.00,0.5120
979.00,0.5092
978.00,0.5070
977.00,0.5054
976.00,0.5041
975.00,0.5030
974.00,0.5021
973.00,0.5014
972.00,0.5006
971.00,0.4997
970.00,0.4988
969.00,0.4980
968.00,0.4974
967.00,0.4969
966.00,0.4963
965.00,0.4958
964.00,0.4954
963.00,0.4951
962.00,0.4946
961.00,0.4941
960.00,0.4936
959.00,0.4932
958.00,0.4928
957.00,0.4927
956.00,0.4934
955.00,0.4951
954.00,0.4976
953.00,0.5002
952.00,0.5024
951.00,0.5040
950.00,0.5050
949.00,0.5060
948.00,0.5077
947.00,0.5102
946.00,0.5132
945.00,0.5159
944.00,0.5175
943.00,0.5180
942.00,0.5175
941.00,0.5161
940.00,0.5142
939.00,0.5121
938.00,0.5097
937.00,0.5070
936.00,0.5036
935.00,0.4996
934.00,0.4953
933.00,0.4913
932.00,0.4875
931.00,0.4834
930.00,0.4786
929.00,0.4727
928.00,0.4663
927.00,0.4597
926.00,0.4533
925.00,0.4473
924.00,0.4422
923.00,0.4384
922.00,0.4357
921.00,0.4339
920.00,0.4324
919.00,0.4309
918.00,0.4291
917.00,0.4272
916.00,0.4250
915.00,0.4228
914.00,0.4209
913.00,0.4193
912.00,0.4182
911.00,0.4177
910.00,0.4177
909.00,0.4180
908.00,0.4181
907.00,0.4181
906.00,0.4178
905.00,0.4174
904.00,0.4173
903.00,0.4179
902.00,0.4189
901.00,0.4201
900.00,0.4213
899.00,0.4224
898.00,0.4238
897.00,0.4251
896.00,0.4260
895.00,0.4264
894.00,0.4267
893.00,0.4273
892.00,0.4282
891.00,0.4285
890.00,0.4275
889.00,0.4250
888.00,0.4210
887.00,0.4160
886.00,0.4106
885.00,0.4054
884.00,0.4012
883.00,0.3981
882.00,0.3957
881.00,0.3937
880.00,0.3919
879.00,0.3904
878.00,0.3892
877.00,0.3879
876.00,0.3864
875.00,0.3846
874.00,0.3829
873.00,0.3813
872.00,0.3798
871.00,0.3784
870.00,0.3768
869.00,0.3748
868.00,0.3723
867.00,0.3695
866.00,0.3669
865.00,0.3647
864.00,0.3629
863.00,0.3614
862.00,0.3601
861.00,0.3590
860.00,0.3583
859.00,0.3578
858.00,0.3573
857.00,0.3568
856.00,0.3562
855.00,0.3557
854.00,0.3555
853.00,0.3557
852.00,0.3564
851.00,0.3573
850.00,0.3578
849.00,0.3578
848.00,0.3575
847.00,0.3572
846.00,0.3569
845.00,0.3563
844.00,0.3555
843.00,0.3547
842.00,0.3543
841.00,0.3538
840.00,0.3533
839.00,0.3529
838.00,0.3530
837.00,0.3534
836.00,0.3539
835.00,0.3542
834.00,0.3542
833.00,0.3542
832.00,0.3546
831.00,0.3553
830.00,0.3563
829.00,0.3573
828.00,0.3583
827.00,0.3593
826.00,0.3599
825.00,0.3601
824.00,0.3600
823.00,0.3598
822.00,0.3593
821.00,0.3588
820.00,0.3585
819.00,0.3588
818.00,0.3594
817.00,0.3599
816.00,0.3604
815.00,0.3613
814.00,0.3627
813.00,0.3644
812.00,0.3662
811.00,0.3683
810.00,0.3710
809.00,0.3741
808.00,0.3775
807.00,0.3808
806.00,0.3839
805.00,0.3862
804.00,0.3874
803.00,0.3878
802.00,0.3879
801.00,0.3882
800.00,0.3885
799.00,0.3885
798.00,0.3879
797.00,0.3869
796.00,0.3865
795.00,0.3873
794.00,0.3895
793.00,0.3922
792.00,0.3946
791.00,0.3963
790.00,0.3974
789.00,0.3981
788.00,0.3989
787.00,0.4001
786.00,0.4015
785.00,0.4031
784.00,0.4046
783.00,0.4062
782.00,0.4083
781.00,0.4113
780.00,0.4149
779.00,0.4188
778.00,0.4228
777.00,0.4268
776.00,0.4313
775.00,0.4365
774.00,0.4421
773.00,0.4473
772.00,0.4519
771.00,0.4557
770.00,0.4589
769.00,0.4610
768.00,0.4620
767.00,0.4625
766.00,0.4633
765.00,0.4647
764.00,0.4665
763.00,0.4683
762.00,0.4705
761.00,0.4731
760.00,0.4764
759.00,0.4801
758.00,0.4840
757.00,0.4884
756.00,0.4933
755.00,0.4988
754.00,0.5044
753.00,0.5098
752.00,0.5146
751.00,0.5188
750.00,0.5228
749.00,0.5268
748.00,0.5310
747.00,0.5357
746.00,0.5405
745.00,0.5455
744.00,0.5509
743.00,0.5571
742.00,0.5647
741.00,0.5733
740.00,0.5826
739.00,0.5923
738.00,0.6025
737.00,0.6131
736.00,0.6241
735.00,0.6357
734.00,0.6488
733.00,0.6640
732.00,0.6821
731.00,0.7039
730.00,0.7302
729.00,0.7608
728.00,0.7951
727.00,0.8331
726.00,0.8754
725.00,0.9211
724.00,0.9668
723.00,1.0047
722.00,1.0236
721.00,1.0128
720.00,0.9709
719.00,0.9080
718.00,0.8382
717.00,0.7708
716.00,0.7107
715.00,0.6592
714.00,0.6155
713.00,0.5772
712.00,0.5424
711.00,0.5106
710.00,0.4820
709.00,0.4564
708.00,0.4337
707.00,0.4142
706.00,0.3980
705.00,0.3846
704.00,0.3737
703.00,0.3652
702.00,0.3590
701.00,0.3540
700.00,0.3488
699.00,0.3420
698.00,0.3334
697.00,0.3235
696.00,0.3140
695.00,0.3064
694.00,0.3017
693.00,0.2999
692.00,0.3004
691.00,0.3024
690.00,0.3050
689.00,0.3068
688.00,0.3065
687.00,0.3037
686.00,0.2988
685.00,0.2930
684.00,0.2877
683.00,0.2834
682.00,0.2803
681.00,0.2781
680.00,0.2768
679.00,0.2761
678.00,0.2759
677.00,0.2757
676.00,0.2753
675.00,0.2748
674.00,0.2745
673.00,0.2746
672.00,0.2748
671.00,0.2750
670.00,0.2755
669.00,0.2763
668.00,0.2772
667.00,0.2773
666.00,0.2768
665.00,0.2764
664.00,0.2764
663.00,0.2766
662.00,0.2770
661.00,0.2779
660.00,0.2792
659.00,0.2809
658.00,0.2827
657.00,0.2843
656.00,0.2854
655.00,0.2857
654.00,0.2852
653.00,0.2845
652.00,0.2845
651.00,0.2854
650.00,0.2872
649.00,0.2895
648.00,0.2918
647.00,0.2939
646.00,0.2958
645.00,0.2973
644.00,0.2985
643.00,0.2995
642.00,0.3005
641.00,0.3017
640.00,0.3032
639.00,0.3051
638.00,0.3072
637.00,0.3095
636.00,0.3114
635.00,0.3123
634.00,0.3120
633.00,0.3113
632.00,0.3111
631.00,0.3119
630.00,0.3134
629.00,0.3151
628.00,0.3171
627.00,0.3194
626.00,0.3222
625.00,0.3252
624.00,0.3281
623.00,0.3310
622.00,0.3339
621.00,0.3367
620.00,0.3394
619.00,0.3415
618.00,0.3430
617.00,0.3444
616.00,0.3459
615.00,0.3470
614.00,0.3473
613.00,0.3471
612.00,0.3474
611.00,0.3484
610.00,0.3495
609.00,0.3497
608.00,0.3489
607.00,0.3476
606.00,0.3463
605.00,0.3456
604.00,0.3456
603.00,0.3464
602.00,0.3474
601.00,0.3480
600.00,0.3484
599.00,0.3491
598.00,0.3505
597.00,0.3520
596.00,0.3532
595.00,0.3538
594.00,0.3542
593.00,0.3553
592.00,0.3578
591.00,0.3613
590.00,0.3645
589.00,0.3663
588.00,0.3670
587.00,0.3676
586.00,0.3689
585.00,0.3709
584.00,0.3731
583.00,0.3746
582.00,0.3752
581.00,0.3757
580.00,0.3768
579.00,0.3790
578.00,0.3813
577.00,0.3831
576.00,0.3844
575.00,0.3858
574.00,0.3871
573.00,0.3878
572.00,0.3874
571.00,0.3859
570.00,0.3839
569.00,0.3823
568.00,0.3813
567.00,0.3809
566.00,0.3804
565.00,0.3793
564.00,0.3781
563.00,0.3771
562.00,0.3762
561.00,0.3749
560.00,0.3732
559.00,0.3713
558.00,0.3700
557.00,0.3695
556.00,0.3697
555.00,0.3704
554.00,0.3711
553.00,0.3718
552.00,0.3722
551.00,0.3724
550.00,0.3720
