Created as New Dataset,Sample 008 By Dylan Kletzing Monday, March 10, 2025
cm-1,A
4000.00,0.3809
3999.00,0.3807
3998.00,0.3806
3997.00,0.3804
3996.00,0.3801
3995.00,0.3797
3994.00,0.3791
3993.00,0.3785
3992.00,0.3779
3991.00,0.3774
3990.00,0.3770
3989.00,0.3765
3988.00,0.3760
3987.00,0.3755
3986.00,0.3750
3985.00,0.3746
3984.00,0.3742
3983.00,0.3737
3982.00,0.3730
3981.00,0.3724
3980.00,0.3719
3979.00,0.3714
3978.00,0.3710
3977.00,0.3705
3976.00,0.3700
3975.00,0.3696
3974.00,0.3692
3973.00,0.3689
3972.00,0.3686
3971.00,0.3684
3970.00,0.3681
3969.00,0.3678
3968.00,0.3676
3967.00,0.3673
3966.00,0.3670
3965.00,0.3666
3964.00,0.3662
3963.00,0.3657
3962.00,0.3651
3961.00,0.3647
3960.00,0.3644
3959.00,0.3642
3958.00,0.3639
3957.00,0.3634
3956.00,0.3628
3955.00,0.3624
3954.00,0.3621
3953.00,0.3619
3952.00,0.3618
3951.00,0.3615
3950.00,0.3611
3949.00,0.3608
3948.00,0.3605
3947.00,0.3604
3946.00,0.3604
3945.00,0.3605
3944.00,0.3604
3943.00,0.3602
3942.00,0.3600
3941.00,0.3597
3940.00,0.3596
3939.00,0.3595
3938.00,0.3594
3937.00,0.3594
3936.00,0.3594
3935.00,0.3595
3934.00,0.3597
3933.00,0.3600
3932.00,0.3602
3931.00,0.3602
3930.00,0.3602
3929.00,0.3599
3928.00,0.3596
3927.00,0.3594
3926.00,0.3592
3925.00,0.3591
3924.00,0.3591
3923.00,0.3592
3922.00,0.3592
3921.00,0.3591
3920.00,0.3589
3919.00,0.3588
3918.00,0.3587
3917.00,0.3586
3916.00,0.3584
3915.00,0.3583
3914.00,0.3582
3913.00,0.3580
3912.00,0.3578
3911.00,0.3575
3910.00,0.3574
3909.00,0.3574
3908.00,0.3573
3907.00,0.3572
3906.00,0.3569
3905.00,0.3568
3904.00,0.3568
3903.00,0.3569
3902.00,0.3569
3901.00,0.3568
3900.00,0.3564
3899.00,0.3559
3898.00,0.3557
3897.00,0.3557
3896.00,0.3559
3895.00,0.3560
3894.00,0.3560
3893.00,0.3558
3892.00,0.3556
3891.00,0.3555
3890.00,0.3554
3889.00,0.3553
3888.00,0.3552
3887.00,0.3548
3886.00,0.3544
3885.00,0.3541
3884.00,0.3540
3883.00,0.3541
3882.00,0.3541
3881.00,0.3540
3880.00,0.3538
3879.00,0.3538
3878.00,0.3538
3877.00,0.3537
3876.00,0.3534
3875.00,0.3530
3874.00,0.3527
3873.00,0.3526
3872.00,0.3527
3871.00,0.3529
3870.00,0.3530
3869.00,0.3528
3868.00,0.3525
3867.00,0.3524
3866.00,0.3523
3865.00,0.3521
3864.00,0.3520
3863.00,0.3521
3862.00,0.3522
3861.00,0.3522
3860.00,0.3521
3859.00,0.3521
3858.00,0.3522
3857.00,0.3523
3856.00,0.3524
3855.00,0.3524
3854.00,0.3525
3853.00,0.3523
3852.00,0.3522
3851.00,0.3522
3850.00,0.3524
3849.00,0.3521
3848.00,0.3515
3847.00,0.3511
3846.00,0.3509
3845.00,0.3507
3844.00,0.3506
3843.00,0.3504
3842.00,0.3503
3841.00,0.3503
3840.00,0.3504
3839.00,0.3505
3838.00,0.3504
3837.00,0.3503
3836.00,0.3502
3835.00,0.3501
3834.00,0.3499
3833.00,0.3495
3832.00,0.3491
3831.00,0.3489
3830.00,0.3488
3829.00,0.3489
3828.00,0.3489
3827.00,0.3489
3826.00,0.3489
3825.00,0.3491
3824.00,0.3493
3823.00,0.3493
3822.00,0.3490
3821.00,0.3487
3820.00,0.3485
3819.00,0.3486
3818.00,0.3487
3817.00,0.3484
3816.00,0.3479
3815.00,0.3475
3814.00,0.3475
3813.00,0.3475
3812.00,0.3473
3811.00,0.3469
3810.00,0.3466
3809.00,0.3465
3808.00,0.3465
3807.00,0.3464
3806.00,0.3461
3805.00,0.3459
3804.00,0.3459
3803.00,0.3458
3802.00,0.3454
3801.00,0.3448
3800.00,0.3445
3799.00,0.3445
3798.00,0.3446
3797.00,0.3445
3796.00,0.3442
3795.00,0.3440
3794.00,0.3439
3793.00,0.3438
3792.00,0.3435
3791.00,0.3432
3790.00,0.3431
3789.00,0.3431
3788.00,0.3431
3787.00,0.3433
3786.00,0.3435
3785.00,0.3436
3784.00,0.3435
3783.00,0.3433
3782.00,0.3431
3781.00,0.3431
3780.00,0.3430
3779.00,0.3430
3778.00,0.3429
3777.00,0.3426
3776.00,0.3422
3775.00,0.3417
3774.00,0.3412
3773.00,0.3411
3772.00,0.3412
3771.00,0.3413
3770.00,0.3413
3769.00,0.3411
3768.00,0.3409
3767.00,0.3406
3766.00,0.3403
3765.00,0.3401
3764.00,0.3399
3763.00,0.3398
3762.00,0.3400
3761.00,0.3401
3760.00,0.3401
3759.00,0.3399
3758.00,0.3395
3757.00,0.3392
3756.00,0.3390
3755.00,0.3390
3754.00,0.3393
3753.00,0.3396
3752.00,0.3397
3751.00,0.3396
3750.00,0.3393
3749.00,0.3390
3748.00,0.3387
3747.00,0.3385
3746.00,0.3385
3745.00,0.3386
3744.00,0.3387
3743.00,0.3388
3742.00,0.3389
3741.00,0.3390
3740.00,0.3385
3739.00,0.3380
3738.00,0.3378
3737.00,0.3377
3736.00,0.3374
3735.00,0.3369
3734.00,0.3366
3733.00,0.3366
3732.00,0.3365
3731.00,0.3361
3730.00,0.3357
3729.00,0.3354
3728.00,0.3352
3727.00,0.3349
3726.00,0.3344
3725.00,0.3340
3724.00,0.3337
3723.00,0.3336
3722.00,0.3337
3721.00,0.3338
3720.00,0.3339
3719.00,0.3339
3718.00,0.3340
3717.00,0.3342
3716.00,0.3344
3715.00,0.3348
3714.00,0.3351
3713.00,0.3353
3712.00,0.3355
3711.00,0.3354
3710.00,0.3353
3709.00,0.3351
3708.00,0.3349
3707.00,0.3348
3706.00,0.3346
3705.00,0.3345
3704.00,0.3343
3703.00,0.3342
3702.00,0.3342
3701.00,0.3343
3700.00,0.3345
3699.00,0.3347
3698.00,0.3350
3697.00,0.3352
3696.00,0.3354
3695.00,0.3355
3694.00,0.3357
3693.00,0.3359
3692.00,0.3362
3691.00,0.3365
3690.00,0.3367
3689.00,0.3368
3688.00,0.3368
3687.00,0.3367
3686.00,0.3367
3685.00,0.3367
3684.00,0.3365
3683.00,0.3364
3682.00,0.3364
3681.00,0.3364
3680.00,0.3365
3679.00,0.3365
3678.00,0.3368
3677.00,0.3372
3676.00,0.3376
3675.00,0.3374
3674.00,0.3371
3673.00,0.3370
3672.00,0.3371
3671.00,0.3371
3670.00,0.3372
3669.00,0.3374
3668.00,0.3377
3667.00,0.3378
3666.00,0.3377
3665.00,0.3375
3664.00,0.3376
3663.00,0.3380
3662.00,0.3384
3661.00,0.3385
3660.00,0.3384
3659.00,0.3382
3658.00,0.3381
3657.00,0.3381
3656.00,0.3383
3655.00,0.3387
3654.00,0.3391
3653.00,0.3393
3652.00,0.3392
3651.00,0.3390
3650.00,0.3388
3649.00,0.3389
3648.00,0.3391
3647.00,0.3393
3646.00,0.3396
3645.00,0.3400
3644.00,0.3403
3643.00,0.3406
3642.00,0.3407
3641.00,0.3408
3640.00,0.3408
3639.00,0.3409
3638.00,0.3408
3637.00,0.3406
3636.00,0.3404
3635.00,0.3403
3634.00,0.3402
3633.00,0.3400
3632.00,0.3399
3631.00,0.3397
3630.00,0.3395
3629.00,0.3392
3628.00,0.3389
3627.00,0.3387
3626.00,0.3386
3625.00,0.3383
3624.00,0.3378
3623.00,0.3377
3622.00,0.3378
3621.00,0.3381
3620.00,0.3382
3619.00,0.3382
3618.00,0.3382
3617.00,0.3382
3616.00,0.3382
3615.00,0.3381
3614.00,0.3380
3613.00,0.3381
3612.00,0.3382
3611.00,0.3383
3610.00,0.3382
3609.00,0.3378
3608.00,0.3373
3607.00,0.3368
3606.00,0.3362
3605.00,0.3357
3604.00,0.3350
3603.00,0.3343
3602.00,0.3335
3601.00,0.3326
3600.00,0.3317
3599.00,0.3306
3598.00,0.3296
3597.00,0.3286
3596.00,0.3277
3595.00,0.3269
3594.00,0.3263
3593.00,0.3256
3592.00,0.3249
3591.00,0.3243
3590.00,0.3236
3589.00,0.3231
3588.00,0.3225
3587.00,0.3220
3586.00,0.3217
3585.00,0.3214
3584.00,0.3213
3583.00,0.3211
3582.00,0.3210
3581.00,0.3209
3580.00,0.3209
3579.00,0.3208
3578.00,0.3207
3577.00,0.3207
3576.00,0.3206
3575.00,0.3205
3574.00,0.3203
3573.00,0.3201
3572.00,0.3198
3571.00,0.3196
3570.00,0.3196
3569.00,0.3195
3568.00,0.3193
3567.00,0.3190
3566.00,0.3187
3565.00,0.3183
3564.00,0.3181
3563.00,0.3178
3562.00,0.3175
3561.00,0.3173
3560.00,0.3172
3559.00,0.3172
3558.00,0.3172
3557.00,0.3171
3556.00,0.3170
3555.00,0.3168
3554.00,0.3166
3553.00,0.3165
3552.00,0.3165
3551.00,0.3164
3550.00,0.3164
3549.00,0.3163
3548.00,0.3161
3547.00,0.3159
3546.00,0.3157
3545.00,0.3156
3544.00,0.3155
3543.00,0.3154
3542.00,0.3154
3541.00,0.3154
3540.00,0.3154
3539.00,0.3155
3538.00,0.3156
3537.00,0.3156
3536.00,0.3156
3535.00,0.3155
3534.00,0.3154
3533.00,0.3154
3532.00,0.3156
3531.00,0.3157
3530.00,0.3158
3529.00,0.3158
3528.00,0.3157
3527.00,0.3155
3526.00,0.3154
3525.00,0.3155
3524.00,0.3157
3523.00,0.3159
3522.00,0.3159
3521.00,0.3157
3520.00,0.3155
3519.00,0.3155
3518.00,0.3158
3517.00,0.3161
3516.00,0.3164
3515.00,0.3165
3514.00,0.3164
3513.00,0.3163
3512.00,0.3162
3511.00,0.3162
3510.00,0.3162
3509.00,0.3163
3508.00,0.3165
3507.00,0.3166
3506.00,0.3167
3505.00,0.3167
3504.00,0.3168
3503.00,0.3169
3502.00,0.3171
3501.00,0.3173
3500.00,0.3174
3499.00,0.3173
3498.00,0.3174
3497.00,0.3175
3496.00,0.3178
3495.00,0.3181
3494.00,0.3184
3493.00,0.3187
3492.00,0.3190
3491.00,0.3192
3490.00,0.3195
3489.00,0.3198
3488.00,0.3202
3487.00,0.3205
3486.00,0.3209
3485.00,0.3213
3484.00,0.3217
3483.00,0.3220
3482.00,0.3225
3481.00,0.3230
3480.00,0.3237
3479.00,0.3244
3478.00,0.3253
3477.00,0.3262
3476.00,0.3273
3475.00,0.3284
3474.00,0.3295
3473.00,0.3305
3472.00,0.3316
3471.00,0.3327
3470.00,0.3339
3469.00,0.3350
3468.00,0.3360
3467.00,0.3369
3466.00,0.3379
3465.00,0.3388
3464.00,0.3395
3463.00,0.3397
3462.00,0.3397
3461.00,0.3397
3460.00,0.3398
3459.00,0.3398
3458.00,0.3396
3457.00,0.3391
3456.00,0.3385
3455.00,0.3379
3454.00,0.3373
3453.00,0.3367
3452.00,0.3360
3451.00,0.3353
3450.00,0.3343
3449.00,0.3333
3448.00,0.3323
3447.00,0.3314
3446.00,0.3306
3445.00,0.3301
3444.00,0.3297
3443.00,0.3293
3442.00,0.3289
3441.00,0.3285
3440.00,0.3282
3439.00,0.3280
3438.00,0.3277
3437.00,0.3275
3436.00,0.3273
3435.00,0.3272
3434.00,0.3270
3433.00,0.3267
3432.00,0.3265
3431.00,0.3265
3430.00,0.3265
3429.00,0.3266
3428.00,0.3265
3427.00,0.3263
3426.00,0.3263
3425.00,0.3263
3424.00,0.3264
3423.00,0.3265
3422.00,0.3264
3421.00,0.3263
3420.00,0.3263
3419.00,0.3264
3418.00,0.3265
3417.00,0.3265
3416.00,0.3265
3415.00,0.3265
3414.00,0.3265
3413.00,0.3265
3412.00,0.3265
3411.00,0.3265
3410.00,0.3265
3409.00,0.3266
3408.00,0.3267
3407.00,0.3268
3406.00,0.3269
3405.00,0.3269
3404.00,0.3270
3403.00,0.3271
3402.00,0.3272
3401.00,0.3273
3400.00,0.3273
3399.00,0.3274
3398.00,0.3276
3397.00,0.3278
3396.00,0.3280
3395.00,0.3280
3394.00,0.3280
3393.00,0.3281
3392.00,0.3282
3391.00,0.3283
3390.00,0.3284
3389.00,0.3285
3388.00,0.3286
3387.00,0.3287
3386.00,0.3287
3385.00,0.3287
3384.00,0.3287
3383.00,0.3288
3382.00,0.3290
3381.00,0.3290
3380.00,0.3290
3379.00,0.3290
3378.00,0.3291
3377.00,0.3291
3376.00,0.3292
3375.00,0.3293
3374.00,0.3294
3373.00,0.3295
3372.00,0.3296
3371.00,0.3296
3370.00,0.3296
3369.00,0.3295
3368.00,0.3292
3367.00,0.3290
3366.00,0.3290
3365.00,0.3291
3364.00,0.3293
3363.00,0.3292
3362.00,0.3290
3361.00,0.3288
3360.00,0.3287
3359.00,0.3286
3358.00,0.3286
3357.00,0.3285
3356.00,0.3284
3355.00,0.3283
3354.00,0.3283
3353.00,0.3283
3352.00,0.3282
3351.00,0.3280
3350.00,0.3278
3349.00,0.3277
3348.00,0.3278
3347.00,0.3280
3346.00,0.3281
3345.00,0.3281
3344.00,0.3280
3343.00,0.3278
3342.00,0.3278
3341.00,0.3277
3340.00,0.3277
3339.00,0.3277
3338.00,0.3277
3337.00,0.3276
3336.00,0.3275
3335.00,0.3274
3334.00,0.3271
3333.00,0.3270
3332.00,0.3271
3331.00,0.3273
3330.00,0.3275
3329.00,0.3275
3328.00,0.3273
3327.00,0.3272
3326.00,0.3272
3325.00,0.3273
3324.00,0.3275
3323.00,0.3276
3322.00,0.3276
3321.00,0.3276
3320.00,0.3274
3319.00,0.3272
3318.00,0.3270
3317.00,0.3269
3316.00,0.3270
3315.00,0.3272
3314.00,0.3273
3313.00,0.3273
3312.00,0.3273
3311.00,0.3273
3310.00,0.3272
3309.00,0.3273
3308.00,0.3273
3307.00,0.3273
3306.00,0.3273
3305.00,0.3273
3304.00,0.3272
3303.00,0.3271
3302.00,0.3270
3301.00,0.3269
3300.00,0.3269
3299.00,0.3270
3298.00,0.3271
3297.00,0.3272
3296.00,0.3273
3295.00,0.3274
3294.00,0.3274
3293.00,0.3275
3292.00,0.3275
3291.00,0.3275
3290.00,0.3277
3289.00,0.3280
3288.00,0.3282
3287.00,0.3282
3286.00,0.3281
3285.00,0.3280
3284.00,0.3279
3283.00,0.3280
3282.00,0.3282
3281.00,0.3283
3280.00,0.3284
3279.00,0.3284
3278.00,0.3284
3277.00,0.3286
3276.00,0.3287
3275.00,0.3288
3274.00,0.3289
3273.00,0.3291
3272.00,0.3293
3271.00,0.3296
3270.00,0.3298
3269.00,0.3297
3268.00,0.3297
3267.00,0.3299
3266.00,0.3302
3265.00,0.3305
3264.00,0.3308
3263.00,0.3310
3262.00,0.3313
3261.00,0.3316
3260.00,0.3321
3259.00,0.3325
3258.00,0.3328
3257.00,0.3329
3256.00,0.3331
3255.00,0.3333
3254.00,0.3336
3253.00,0.3339
3252.00,0.3341
3251.00,0.3342
3250.00,0.3343
3249.00,0.3345
3248.00,0.3348
3247.00,0.3351
3246.00,0.3354
3245.00,0.3357
3244.00,0.3362
3243.00,0.3368
3242.00,0.3373
3241.00,0.3375
3240.00,0.3378
3239.00,0.3382
3238.00,0.3388
3237.00,0.3395
3236.00,0.3401
3235.00,0.3406
3234.00,0.3410
3233.00,0.3414
3232.00,0.3421
3231.00,0.3429
3230.00,0.3434
3229.00,0.3439
3228.00,0.3444
3227.00,0.3451
3226.00,0.3459
3225.00,0.3466
3224.00,0.3472
3223.00,0.3478
3222.00,0.3484
3221.00,0.3491
3220.00,0.3500
3219.00,0.3509
3218.00,0.3519
3217.00,0.3529
3216.00,0.3539
3215.00,0.3548
3214.00,0.3557
3213.00,0.3566
3212.00,0.3576
3211.00,0.3584
3210.00,0.3592
3209.00,0.3600
3208.00,0.3609
3207.00,0.3617
3206.00,0.3626
3205.00,0.3636
3204.00,0.3647
3203.00,0.3657
3202.00,0.3667
3201.00,0.3676
3200.00,0.3685
3199.00,0.3694
3198.00,0.3704
3197.00,0.3714
3196.00,0.3723
3195.00,0.3731
3194.00,0.3739
3193.00,0.3747
3192.00,0.3756
3191.00,0.3763
3190.00,0.3769
3189.00,0.3773
3188.00,0.3777
3187.00,0.3781
3186.00,0.3785
3185.00,0.3789
3184.00,0.3794
3183.00,0.3798
3182.00,0.3802
3181.00,0.3806
3180.00,0.3809
3179.00,0.3812
3178.00,0.3815
3177.00,0.3819
3176.00,0.3822
3175.00,0.3825
3174.00,0.3826
3173.00,0.3826
3172.00,0.3826
3171.00,0.3826
3170.00,0.3828
3169.00,0.3830
3168.00,0.3832
3167.00,0.3835
3166.00,0.3838
3165.00,0.3840
3164.00,0.3841
3163.00,0.3842
3162.00,0.3843
3161.00,0.3845
3160.00,0.3847
3159.00,0.3849
3158.00,0.3851
3157.00,0.3852
3156.00,0.3853
3155.00,0.3855
3154.00,0.3857
3153.00,0.3858
3152.00,0.3858
3151.00,0.3859
3150.00,0.3861
3149.00,0.3864
3148.00,0.3866
3147.00,0.3867
3146.00,0.3867
3145.00,0.3867
3144.00,0.3869
3143.00,0.3873
3142.00,0.3876
3141.00,0.3879
3140.00,0.3881
3139.00,0.3882
3138.00,0.3884
3137.00,0.3886
3136.00,0.3888
3135.00,0.3889
3134.00,0.3891
3133.00,0.3894
3132.00,0.3899
3131.00,0.3904
3130.00,0.3908
3129.00,0.3912
3128.00,0.3917
3127.00,0.3921
3126.00,0.3926
3125.00,0.3931
3124.00,0.3936
3123.00,0.3942
3122.00,0.3949
3121.00,0.3956
3120.00,0.3961
3119.00,0.3966
3118.00,0.3970
3117.00,0.3974
3116.00,0.3979
3115.00,0.3985
3114.00,0.3992
3113.00,0.3998
3112.00,0.4005
3111.00,0.4012
3110.00,0.4022
3109.00,0.4032
3108.00,0.4041
3107.00,0.4049
3106.00,0.4056
3105.00,0.4064
3104.00,0.4073
3103.00,0.4084
3102.00,0.4095
3101.00,0.4107
3100.00,0.4120
3099.00,0.4133
3098.00,0.4146
3097.00,0.4157
3096.00,0.4167
3095.00,0.4176
3094.00,0.4187
3093.00,0.4200
3092.00,0.4214
3091.00,0.4228
3090.00,0.4244
3089.00,0.4262
3088.00,0.4280
3087.00,0.4298
3086.00,0.4316
3085.00,0.4333
3084.00,0.4349
3083.00,0.4366
3082.00,0.4384
3081.00,0.4404
3080.00,0.4426
3079.00,0.4447
3078.00,0.4467
3077.00,0.4488
3076.00,0.4508
3075.00,0.4530
3074.00,0.4551
3073.00,0.4573
3072.00,0.4595
3071.00,0.4618
3070.00,0.4641
3069.00,0.4664
3068.00,0.4688
3067.00,0.4713
3066.00,0.4738
3065.00,0.4766
3064.00,0.4793
3063.00,0.4820
3062.00,0.4847
3061.00,0.4873
3060.00,0.4900
3059.00,0.4927
3058.00,0.4952
3057.00,0.4977
3056.00,0.5003
3055.00,0.5031
3054.00,0.5062
3053.00,0.5094
3052.00,0.5127
3051.00,0.5161
3050.00,0.5198
3049.00,0.5236
3048.00,0.5277
3047.00,0.5318
3046.00,0.5359
3045.00,0.5399
3044.00,0.5441
3043.00,0.5483
3042.00,0.5527
3041.00,0.5571
3040.00,0.5618
3039.00,0.5667
3038.00,0.5717
3037.00,0.5767
3036.00,0.5818
3035.00,0.5870
3034.00,0.5925
3033.00,0.5984
3032.00,0.6046
3031.00,0.6110
3030.00,0.6173
3029.00,0.6236
3028.00,0.6301
3027.00,0.6368
3026.00,0.6437
3025.00,0.6507
3024.00,0.6577
3023.00,0.6649
3022.00,0.6724
3021.00,0.6803
3020.00,0.6888
3019.00,0.6979
3018.00,0.7074
3017.00,0.7174
3016.00,0.7279
3015.00,0.7388
3014.00,0.7500
3013.00,0.7618
3012.00,0.7745
3011.00,0.7883
3010.00,0.8029
3009.00,0.8179
3008.00,0.8330
3007.00,0.8486
3006.00,0.8652
3005.00,0.8835
3004.00,0.9035
3003.00,0.9248
3002.00,0.9473
3001.00,0.9707
3000.00,0.9953
2999.00,1.0216
2998.00,1.0498
2997.00,1.0802
2996.00,1.1135
2995.00,1.1499
2994.00,1.1892
2993.00,1.2306
2992.00,1.2739
2991.00,1.3196
2990.00,1.3694
2989.00,1.4241
2988.00,1.4833
2987.00,1.5468
2986.00,1.6154
2985.00,1.6900
2984.00,1.7692
2983.00,1.8497
2982.00,1.9300
2981.00,2.0128
2980.00,2.1011
2979.00,2.1929
2978.00,2.2815
2977.00,2.3607
2976.00,2.4268
2975.00,2.4756
2974.00,2.5068
2973.00,2.5288
2972.00,2.5504
2971.00,2.5666
2970.00,2.5626
2969.00,2.5388
2968.00,2.5175
2967.00,2.5201
2966.00,2.5477
2965.00,2.5804
2964.00,2.5958
2963.00,2.5923
2962.00,2.5847
2961.00,2.5818
2960.00,2.5821
2959.00,2.5848
2958.00,2.5923
2957.00,2.6009
2956.00,2.5999
2955.00,2.5886
2954.00,2.5826
2953.00,2.5966
2952.00,2.6246
2951.00,2.6402
2950.00,2.6242
2949.00,2.5921
2948.00,2.5754
2947.00,2.5921
2946.00,2.6368
2945.00,2.6816
2944.00,2.6943
2943.00,2.6730
2942.00,2.6465
2941.00,2.6386
2940.00,2.6500
2939.00,2.6646
2938.00,2.6678
2937.00,2.6630
2936.00,2.6660
2935.00,2.6873
2934.00,2.7242
2933.00,2.7657
2932.00,2.8018
2931.00,2.8292
2930.00,2.8437
2929.00,2.8378
2928.00,2.8159
2927.00,2.8013
2926.00,2.8111
2925.00,2.8354
2924.00,2.8489
2923.00,2.8435
2922.00,2.8359
2921.00,2.8391
2920.00,2.8440
2919.00,2.8344
2918.00,2.8142
2917.00,2.8074
2916.00,2.8250
2915.00,2.8403
2914.00,2.8078
2913.00,2.7309
2912.00,2.6607
2911.00,2.6310
2910.00,2.6384
2909.00,2.6539
2908.00,2.6495
2907.00,2.6268
2906.00,2.6063
2905.00,2.5987
2904.00,2.5973
2903.00,2.5890
2902.00,2.5703
2901.00,2.5512
2900.00,2.5418
2899.00,2.5406
2898.00,2.5388
2897.00,2.5344
2896.00,2.5344
2895.00,2.5412
2894.00,2.5433
2893.00,2.5305
2892.00,2.5131
2891.00,2.5089
2890.00,2.5182
2889.00,2.5238
2888.00,2.5153
2887.00,2.5036
2886.00,2.5014
2885.00,2.5083
2884.00,2.5190
2883.00,2.5324
2882.00,2.5437
2881.00,2.5418
2880.00,2.5278
2879.00,2.5225
2878.00,2.5407
2877.00,2.5687
2876.00,2.5750
2875.00,2.5514
2874.00,2.5242
2873.00,2.5176
2872.00,2.5361
2871.00,2.5710
2870.00,2.6087
2869.00,2.6328
2868.00,2.6297
2867.00,2.6027
2866.00,2.5721
2865.00,2.5593
2864.00,2.5769
2863.00,2.6228
2862.00,2.6721
2861.00,2.6857
2860.00,2.6576
2859.00,2.6248
2858.00,2.6126
2857.00,2.6145
2856.00,2.6153
2855.00,2.6203
2854.00,2.6472
2853.00,2.6928
2852.00,2.7212
2851.00,2.6992
2850.00,2.6435
2849.00,2.5941
2848.00,2.5717
2847.00,2.5735
2846.00,2.5777
2845.00,2.5609
2844.00,2.5254
2843.00,2.4943
2842.00,2.4783
2841.00,2.4629
2840.00,2.4267
2839.00,2.3688
2838.00,2.3050
2837.00,2.2434
2836.00,2.1788
2835.00,2.1050
2834.00,2.0237
2833.00,1.9412
2832.00,1.8616
2831.00,1.7860
2830.00,1.7148
2829.00,1.6488
2828.00,1.5897
2827.00,1.5378
2826.00,1.4917
2825.00,1.4487
2824.00,1.4075
2823.00,1.3681
2822.00,1.3314
2821.00,1.2972
2820.00,1.2646
2819.00,1.2331
2818.00,1.2029
2817.00,1.1743
2816.00,1.1472
2815.00,1.1214
2814.00,1.0966
2813.00,1.0728
2812.00,1.0502
2811.00,1.0286
2810.00,1.0079
2809.00,0.9881
2808.00,0.9692
2807.00,0.9511
2806.00,0.9334
2805.00,0.9159
2804.00,0.8988
2803.00,0.8825
2802.00,0.8671
2801.00,0.8523
2800.00,0.8378
2799.00,0.8239
2798.00,0.8106
2797.00,0.7981
2796.00,0.7859
2795.00,0.7742
2794.00,0.7629
2793.00,0.7523
2792.00,0.7422
2791.00,0.7325
2790.00,0.7230
2789.00,0.7136
2788.00,0.7045
2787.00,0.6957
2786.00,0.6871
2785.00,0.6786
2784.00,0.6702
2783.00,0.6618
2782.00,0.6535
2781.00,0.6455
2780.00,0.6377
2779.00,0.6304
2778.00,0.6234
2777.00,0.6167
2776.00,0.6105
2775.00,0.6048
2774.00,0.5995
2773.00,0.5944
2772.00,0.5896
2771.00,0.5853
2770.00,0.5816
2769.00,0.5782
2768.00,0.5751
2767.00,0.5725
2766.00,0.5703
2765.00,0.5684
2764.00,0.5668
2763.00,0.5652
2762.00,0.5639
2761.00,0.5627
2760.00,0.5617
2759.00,0.5607
2758.00,0.5598
2757.00,0.5593
2756.00,0.5588
2755.00,0.5583
2754.00,0.5578
2753.00,0.5573
2752.00,0.5572
2751.00,0.5576
2750.00,0.5584
2749.00,0.5596
2748.00,0.5608
2747.00,0.5620
2746.00,0.5632
2745.00,0.5645
2744.00,0.5661
2743.00,0.5683
2742.00,0.5709
2741.00,0.5737
2740.00,0.5767
2739.00,0.5799
2738.00,0.5833
2737.00,0.5870
2736.00,0.5911
2735.00,0.5955
2734.00,0.6002
2733.00,0.6049
2732.00,0.6090
2731.00,0.6119
2730.00,0.6133
2729.00,0.6129
2728.00,0.6110
2727.00,0.6078
2726.00,0.6039
2725.00,0.5997
2724.00,0.5954
2723.00,0.5913
2722.00,0.5874
2721.00,0.5840
2720.00,0.5811
2719.00,0.5786
2718.00,0.5763
2717.00,0.5740
2716.00,0.5714
2715.00,0.5684
2714.00,0.5652
2713.00,0.5619
2712.00,0.5587
2711.00,0.5558
2710.00,0.5532
2709.00,0.5509
2708.00,0.5488
2707.00,0.5469
2706.00,0.5454
2705.00,0.5443
2704.00,0.5436
2703.00,0.5431
2702.00,0.5427
2701.00,0.5425
2700.00,0.5427
2699.00,0.5434
2698.00,0.5445
2697.00,0.5459
2696.00,0.5476
2695.00,0.5494
2694.00,0.5512
2693.00,0.5530
2692.00,0.5548
2691.00,0.5568
2690.00,0.5588
2689.00,0.5607
2688.00,0.5623
2687.00,0.5638
2686.00,0.5650
2685.00,0.5660
2684.00,0.5667
2683.00,0.5672
2682.00,0.5675
2681.00,0.5677
2680.00,0.5679
2679.00,0.5681
2678.00,0.5683
2677.00,0.5682
2676.00,0.5678
2675.00,0.5673
2674.00,0.5669
2673.00,0.5664
2672.00,0.5657
2671.00,0.5647
2670.00,0.5633
2669.00,0.5616
2668.00,0.5596
2667.00,0.5571
2666.00,0.5544
2665.00,0.5514
2664.00,0.5482
2663.00,0.5451
2662.00,0.5423
2661.00,0.5396
2660.00,0.5369
2659.00,0.5343
2658.00,0.5318
2657.00,0.5295
2656.00,0.5273
2655.00,0.5252
2654.00,0.5231
2653.00,0.5212
2652.00,0.5194
2651.00,0.5177
2650.00,0.5160
2649.00,0.5143
2648.00,0.5127
2647.00,0.5112
2646.00,0.5096
2645.00,0.5081
2644.00,0.5067
2643.00,0.5054
2642.00,0.5042
2641.00,0.5030
2640.00,0.5019
2639.00,0.5008
2638.00,0.4997
2637.00,0.4987
2636.00,0.4978
2635.00,0.4967
2634.00,0.4956
2633.00,0.4945
2632.00,0.4934
2631.00,0.4924
2630.00,0.4914
2629.00,0.4904
2628.00,0.4895
2627.00,0.4888
2626.00,0.4882
2625.00,0.4875
2624.00,0.4866
2623.00,0.4857
2622.00,0.4846
2621.00,0.4834
2620.00,0.4824
2619.00,0.4814
2618.00,0.4807
2617.00,0.4799
2616.00,0.4791
2615.00,0.4782
2614.00,0.4773
2613.00,0.4764
2612.00,0.4753
2611.00,0.4743
2610.00,0.4733
2609.00,0.4723
2608.00,0.4712
2607.00,0.4700
2606.00,0.4687
2605.00,0.4673
2604.00,0.4661
2603.00,0.4648
2602.00,0.4636
2601.00,0.4624
2600.00,0.4610
2599.00,0.4597
2598.00,0.4583
2597.00,0.4569
2596.00,0.4555
2595.00,0.4539
2594.00,0.4522
2593.00,0.4504
2592.00,0.4488
2591.00,0.4473
2590.00,0.4459
2589.00,0.4446
2588.00,0.4431
2587.00,0.4415
2586.00,0.4398
2585.00,0.4382
2584.00,0.4366
2583.00,0.4350
2582.00,0.4333
2581.00,0.4316
2580.00,0.4298
2579.00,0.4281
2578.00,0.4263
2577.00,0.4246
2576.00,0.4229
2575.00,0.4212
2574.00,0.4196
2573.00,0.4178
2572.00,0.4160
2571.00,0.4140
2570.00,0.4120
2569.00,0.4103
2568.00,0.4088
2567.00,0.4075
2566.00,0.4062
2565.00,0.4047
2564.00,0.4032
2563.00,0.4016
2562.00,0.4001
2561.00,0.3987
2560.00,0.3975
2559.00,0.3964
2558.00,0.3953
2557.00,0.3942
2556.00,0.3930
2555.00,0.3918
2554.00,0.3906
2553.00,0.3896
2552.00,0.3886
2551.00,0.3875
2550.00,0.3865
2549.00,0.3857
2548.00,0.3851
2547.00,0.3845
2546.00,0.3840
2545.00,0.3834
2544.00,0.3828
2543.00,0.3821
2542.00,0.3815
2541.00,0.3808
2540.00,0.3803
2539.00,0.3796
2538.00,0.3789
2537.00,0.3782
2536.00,0.3775
2535.00,0.3769
2534.00,0.3763
2533.00,0.3757
2532.00,0.3751
2531.00,0.3744
2530.00,0.3736
2529.00,0.3727
2528.00,0.3718
2527.00,0.3707
2526.00,0.3696
2525.00,0.3685
2524.00,0.3677
2523.00,0.3669
2522.00,0.3661
2521.00,0.3652
2520.00,0.3642
2519.00,0.3632
2518.00,0.3623
2517.00,0.3613
2516.00,0.3603
2515.00,0.3593
2514.00,0.3585
2513.00,0.3576
2512.00,0.3567
2511.00,0.3557
2510.00,0.3547
2509.00,0.3538
2508.00,0.3530
2507.00,0.3523
2506.00,0.3516
2505.00,0.3509
2504.00,0.3502
2503.00,0.3495
2502.00,0.3488
2501.00,0.3482
2500.00,0.3476
2499.00,0.3469
2498.00,0.3464
2497.00,0.3460
2496.00,0.3456
2495.00,0.3451
2494.00,0.3446
2493.00,0.3440
2492.00,0.3437
2491.00,0.3434
2490.00,0.3432
2489.00,0.3429
2488.00,0.3425
2487.00,0.3420
2486.00,0.3417
2485.00,0.3414
2484.00,0.3411
2483.00,0.3408
2482.00,0.3405
2481.00,0.3402
2480.00,0.3400
2479.00,0.3398
2478.00,0.3395
2477.00,0.3394
2476.00,0.3392
2475.00,0.3390
2474.00,0.3387
2473.00,0.3384
2472.00,0.3380
2471.00,0.3378
2470.00,0.3375
2469.00,0.3373
2468.00,0.3372
2467.00,0.3372
2466.00,0.3372
2465.00,0.3373
2464.00,0.3374
2463.00,0.3373
2462.00,0.3371
2461.00,0.3370
2460.00,0.3370
2459.00,0.3370
2458.00,0.3370
2457.00,0.3371
2456.00,0.3372
2455.00,0.3373
2454.00,0.3373
2453.00,0.3372
2452.00,0.3372
2451.00,0.3371
2450.00,0.3371
2449.00,0.3371
2448.00,0.3372
2447.00,0.3373
2446.00,0.3373
2445.00,0.3374
2444.00,0.3375
2443.00,0.3376
2442.00,0.3376
2441.00,0.3376
2440.00,0.3378
2439.00,0.3380
2438.00,0.3382
2437.00,0.3384
2436.00,0.3386
2435.00,0.3388
2434.00,0.3390
2433.00,0.3391
2432.00,0.3391
2431.00,0.3392
2430.00,0.3392
2429.00,0.3393
2428.00,0.3393
2427.00,0.3395
2426.00,0.3398
2425.00,0.3400
2424.00,0.3402
2423.00,0.3402
2422.00,0.3404
2421.00,0.3407
2420.00,0.3411
2419.00,0.3415
2418.00,0.3415
2417.00,0.3414
2416.00,0.3414
2415.00,0.3415
2414.00,0.3417
2413.00,0.3419
2412.00,0.3420
2411.00,0.3421
2410.00,0.3422
2409.00,0.3423
2408.00,0.3424
2407.00,0.3426
2406.00,0.3427
2405.00,0.3427
2404.00,0.3427
2403.00,0.3427
2402.00,0.3426
2401.00,0.3426
2400.00,0.3427
2399.00,0.3428
2398.00,0.3428
2397.00,0.3427
2396.00,0.3425
2395.00,0.3424
2394.00,0.3424
2393.00,0.3424
2392.00,0.3423
2391.00,0.3422
2390.00,0.3421
2389.00,0.3421
2388.00,0.3421
2387.00,0.3420
2386.00,0.3420
2385.00,0.3419
2384.00,0.3419
2383.00,0.3419
2382.00,0.3420
2381.00,0.3421
2380.00,0.3422
2379.00,0.3422
2378.00,0.3422
2377.00,0.3421
2376.00,0.3420
2375.00,0.3418
2374.00,0.3416
2373.00,0.3414
2372.00,0.3411
2371.00,0.3408
2370.00,0.3405
2369.00,0.3403
2368.00,0.3402
2367.00,0.3403
2366.00,0.3403
2365.00,0.3402
2364.00,0.3402
2363.00,0.3401
2362.00,0.3399
2361.00,0.3398
2360.00,0.3397
2359.00,0.3396
2358.00,0.3395
2357.00,0.3394
2356.00,0.3396
2355.00,0.3398
2354.00,0.3399
2353.00,0.3397
2352.00,0.3395
2351.00,0.3394
2350.00,0.3397
2349.00,0.3401
2348.00,0.3408
2347.00,0.3414
2346.00,0.3418
2345.00,0.3419
2344.00,0.3418
2343.00,0.3416
2342.00,0.3414
2341.00,0.3414
2340.00,0.3416
2339.00,0.3419
2338.00,0.3424
2337.00,0.3425
2336.00,0.3430
2335.00,0.3424
2334.00,0.3438
2333.00,0.3342
2332.00,0.3323
2331.00,0.3336
2330.00,0.3333
2329.00,0.3338
2328.00,0.3341
2327.00,0.3347
2326.00,0.3350
2325.00,0.3350
2324.00,0.3347
2323.00,0.3344
2322.00,0.3341
2321.00,0.3340
2320.00,0.3340
2319.00,0.3342
2318.00,0.3344
2317.00,0.3345
2316.00,0.3349
2315.00,0.3354
2314.00,0.3360
2313.00,0.3368
2312.00,0.3378
2311.00,0.3387
2310.00,0.3396
2309.00,0.3401
2308.00,0.3404
2307.00,0.3406
2306.00,0.3406
2305.00,0.3405
2304.00,0.3402
2303.00,0.3397
2302.00,0.3393
2301.00,0.3389
2300.00,0.3385
2299.00,0.3379
2298.00,0.3373
2297.00,0.3366
2296.00,0.3359
2295.00,0.3351
2294.00,0.3343
2293.00,0.3336
2292.00,0.3331
2291.00,0.3326
2290.00,0.3320
2289.00,0.3313
2288.00,0.3308
2287.00,0.3304
2286.00,0.3300
2285.00,0.3296
2284.00,0.3292
2283.00,0.3288
2282.00,0.3285
2281.00,0.3281
2280.00,0.3277
2279.00,0.3273
2278.00,0.3269
2277.00,0.3265
2276.00,0.3260
2275.00,0.3255
2274.00,0.3250
2273.00,0.3246
2272.00,0.3244
2271.00,0.3243
2270.00,0.3240
2269.00,0.3237
2268.00,0.3234
2267.00,0.3232
2266.00,0.3229
2265.00,0.3227
2264.00,0.3226
2263.00,0.3224
2262.00,0.3222
2261.00,0.3222
2260.00,0.3222
2259.00,0.3221
2258.00,0.3219
2257.00,0.3216
2256.00,0.3214
2255.00,0.3212
2254.00,0.3210
2253.00,0.3208
2252.00,0.3205
2251.00,0.3203
2250.00,0.3200
2249.00,0.3198
2248.00,0.3196
2247.00,0.3194
2246.00,0.3191
2245.00,0.3187
2244.00,0.3184
2243.00,0.3182
2242.00,0.3180
2241.00,0.3177
2240.00,0.3176
2239.00,0.3174
2238.00,0.3172
2237.00,0.3170
2236.00,0.3168
2235.00,0.3167
2234.00,0.3167
2233.00,0.3166
2232.00,0.3164
2231.00,0.3163
2230.00,0.3161
2229.00,0.3161
2228.00,0.3162
2227.00,0.3162
2226.00,0.3162
2225.00,0.3160
2224.00,0.3160
2223.00,0.3161
2222.00,0.3162
2221.00,0.3162
2220.00,0.3163
2219.00,0.3164
2218.00,0.3166
2217.00,0.3167
2216.00,0.3167
2215.00,0.3166
2214.00,0.3166
2213.00,0.3166
2212.00,0.3166
2211.00,0.3166
2210.00,0.3166
2209.00,0.3166
2208.00,0.3166
2207.00,0.3164
2206.00,0.3162
2205.00,0.3161
2204.00,0.3161
2203.00,0.3160
2202.00,0.3160
2201.00,0.3158
2200.00,0.3158
2199.00,0.3158
2198.00,0.3157
2197.00,0.3157
2196.00,0.3157
2195.00,0.3157
2194.00,0.3158
2193.00,0.3159
2192.00,0.3161
2191.00,0.3163
2190.00,0.3165
2189.00,0.3167
2188.00,0.3170
2187.00,0.3172
2186.00,0.3173
2185.00,0.3173
2184.00,0.3173
2183.00,0.3171
2182.00,0.3170
2181.00,0.3169
2180.00,0.3169
2179.00,0.3169
2178.00,0.3169
2177.00,0.3168
2176.00,0.3166
2175.00,0.3166
2174.00,0.3166
2173.00,0.3166
2172.00,0.3166
2171.00,0.3166
2170.00,0.3164
2169.00,0.3162
2168.00,0.3161
2167.00,0.3160
2166.00,0.3159
2165.00,0.3159
2164.00,0.3159
2163.00,0.3158
2162.00,0.3157
2161.00,0.3156
2160.00,0.3155
2159.00,0.3156
2158.00,0.3156
2157.00,0.3158
2156.00,0.3159
2155.00,0.3161
2154.00,0.3161
2153.00,0.3160
2152.00,0.3159
2151.00,0.3158
2150.00,0.3156
2149.00,0.3154
2148.00,0.3150
2147.00,0.3145
2146.00,0.3140
2145.00,0.3135
2144.00,0.3131
2143.00,0.3126
2142.00,0.3121
2141.00,0.3115
2140.00,0.3108
2139.00,0.3103
2138.00,0.3098
2137.00,0.3095
2136.00,0.3091
2135.00,0.3088
2134.00,0.3085
2133.00,0.3083
2132.00,0.3082
2131.00,0.3081
2130.00,0.3078
2129.00,0.3074
2128.00,0.3071
2127.00,0.3070
2126.00,0.3069
2125.00,0.3068
2124.00,0.3067
2123.00,0.3067
2122.00,0.3067
2121.00,0.3068
2120.00,0.3068
2119.00,0.3068
2118.00,0.3069
2117.00,0.3069
2116.00,0.3069
2115.00,0.3070
2114.00,0.3071
2113.00,0.3072
2112.00,0.3073
2111.00,0.3073
2110.00,0.3073
2109.00,0.3073
2108.00,0.3074
2107.00,0.3074
2106.00,0.3075
2105.00,0.3075
2104.00,0.3075
2103.00,0.3075
2102.00,0.3074
2101.00,0.3073
2100.00,0.3073
2099.00,0.3073
2098.00,0.3073
2097.00,0.3071
2096.00,0.3070
2095.00,0.3069
2094.00,0.3069
2093.00,0.3068
2092.00,0.3068
2091.00,0.3067
2090.00,0.3066
2089.00,0.3066
2088.00,0.3067
2087.00,0.3068
2086.00,0.3069
2085.00,0.3070
2084.00,0.3072
2083.00,0.3074
2082.00,0.3077
2081.00,0.3078
2080.00,0.3079
2079.00,0.3081
2078.00,0.3083
2077.00,0.3086
2076.00,0.3089
2075.00,0.3091
2074.00,0.3093
2073.00,0.3095
2072.00,0.3097
2071.00,0.3099
2070.00,0.3100
2069.00,0.3102
2068.00,0.3104
2067.00,0.3107
2066.00,0.3109
2065.00,0.3110
2064.00,0.3112
2063.00,0.3114
2062.00,0.3116
2061.00,0.3118
2060.00,0.3120
2059.00,0.3122
2058.00,0.3123
2057.00,0.3124
2056.00,0.3126
2055.00,0.3128
2054.00,0.3131
2053.00,0.3134
2052.00,0.3136
2051.00,0.3138
2050.00,0.3140
2049.00,0.3142
2048.00,0.3145
2047.00,0.3147
2046.00,0.3150
2045.00,0.3153
2044.00,0.3156
2043.00,0.3159
2042.00,0.3163
2041.00,0.3167
2040.00,0.3169
2039.00,0.3170
2038.00,0.3171
2037.00,0.3174
2036.00,0.3177
2035.00,0.3180
2034.00,0.3183
2033.00,0.3185
2032.00,0.3186
2031.00,0.3185
2030.00,0.3185
2029.00,0.3185
2028.00,0.3185
2027.00,0.3184
2026.00,0.3183
2025.00,0.3181
2024.00,0.3178
2023.00,0.3174
2022.00,0.3168
2021.00,0.3160
2020.00,0.3153
2019.00,0.3143
2018.00,0.3133
2017.00,0.3122
2016.00,0.3113
2015.00,0.3105
2014.00,0.3098
2013.00,0.3090
2012.00,0.3082
2011.00,0.3074
2010.00,0.3065
2009.00,0.3058
2008.00,0.3051
2007.00,0.3045
2006.00,0.3040
2005.00,0.3036
2004.00,0.3034
2003.00,0.3031
2002.00,0.3029
2001.00,0.3027
2000.00,0.3025
1999.00,0.3022
1998.00,0.3019
1997.00,0.3017
1996.00,0.3015
1995.00,0.3014
1994.00,0.3011
1993.00,0.3007
1992.00,0.3004
1991.00,0.3003
1990.00,0.3002
1989.00,0.3001
1988.00,0.3000
1987.00,0.2999
1986.00,0.2999
1985.00,0.2998
1984.00,0.2997
1983.00,0.2994
1982.00,0.2991
1981.00,0.2988
1980.00,0.2987
1979.00,0.2987
1978.00,0.2987
1977.00,0.2987
1976.00,0.2986
1975.00,0.2985
1974.00,0.2984
1973.00,0.2985
1972.00,0.2987
1971.00,0.2988
1970.00,0.2989
1969.00,0.2989
1968.00,0.2987
1967.00,0.2986
1966.00,0.2985
1965.00,0.2986
1964.00,0.2988
1963.00,0.2991
1962.00,0.2993
1961.00,0.2997
1960.00,0.2999
1959.00,0.3001
1958.00,0.3001
1957.00,0.3001
1956.00,0.3002
1955.00,0.3002
1954.00,0.3002
1953.00,0.3002
1952.00,0.3001
1951.00,0.3000
1950.00,0.2998
1949.00,0.2997
1948.00,0.2996
1947.00,0.2995
1946.00,0.2993
1945.00,0.2991
1944.00,0.2988
1943.00,0.2985
1942.00,0.2984
1941.00,0.2986
1940.00,0.2991
1939.00,0.2995
1938.00,0.2997
1937.00,0.2998
1936.00,0.2999
1935.00,0.3000
1934.00,0.2999
1933.00,0.2999
1932.00,0.3000
1931.00,0.3000
1930.00,0.3000
1929.00,0.2998
1928.00,0.2996
1927.00,0.2995
1926.00,0.2994
1925.00,0.2993
1924.00,0.2992
1923.00,0.2991
1922.00,0.2991
1921.00,0.2993
1920.00,0.2996
1919.00,0.2997
1918.00,0.2995
1917.00,0.2994
1916.00,0.2995
1915.00,0.2998
1914.00,0.3001
1913.00,0.3003
1912.00,0.3003
1911.00,0.3003
1910.00,0.3001
1909.00,0.2998
1908.00,0.2998
1907.00,0.2998
1906.00,0.2999
1905.00,0.3000
1904.00,0.3000
1903.00,0.2999
1902.00,0.2998
1901.00,0.2997
1900.00,0.2997
1899.00,0.2998
1898.00,0.2998
1897.00,0.2998
1896.00,0.2998
1895.00,0.2998
1894.00,0.2998
1893.00,0.2998
1892.00,0.2998
1891.00,0.2998
1890.00,0.2997
1889.00,0.2997
1888.00,0.3000
1887.00,0.3004
1886.00,0.3007
1885.00,0.3008
1884.00,0.3009
1883.00,0.3009
1882.00,0.3010
1881.00,0.3012
1880.00,0.3013
1879.00,0.3014
1878.00,0.3014
1877.00,0.3013
1876.00,0.3011
1875.00,0.3011
1874.00,0.3010
1873.00,0.3010
1872.00,0.3009
1871.00,0.3006
1870.00,0.3001
1869.00,0.2997
1868.00,0.2997
1867.00,0.3000
1866.00,0.3004
1865.00,0.3007
1864.00,0.3009
1863.00,0.3009
1862.00,0.3008
1861.00,0.3005
1860.00,0.3005
1859.00,0.3006
1858.00,0.3007
1857.00,0.3009
1856.00,0.3011
1855.00,0.3014
1854.00,0.3015
1853.00,0.3015
1852.00,0.3015
1851.00,0.3013
1850.00,0.3011
1849.00,0.3008
1848.00,0.3006
1847.00,0.3005
1846.00,0.3004
1845.00,0.3004
1844.00,0.3004
1843.00,0.3005
1842.00,0.3008
1841.00,0.3013
1840.00,0.3019
1839.00,0.3023
1838.00,0.3024
1837.00,0.3024
1836.00,0.3025
1835.00,0.3025
1834.00,0.3027
1833.00,0.3030
1832.00,0.3033
1831.00,0.3036
1830.00,0.3039
1829.00,0.3041
1828.00,0.3045
1827.00,0.3048
1826.00,0.3049
1825.00,0.3050
1824.00,0.3054
1823.00,0.3062
1822.00,0.3071
1821.00,0.3080
1820.00,0.3087
1819.00,0.3092
1818.00,0.3097
1817.00,0.3103
1816.00,0.3111
1815.00,0.3119
1814.00,0.3127
1813.00,0.3133
1812.00,0.3139
1811.00,0.3146
1810.00,0.3154
1809.00,0.3162
1808.00,0.3169
1807.00,0.3178
1806.00,0.3187
1805.00,0.3196
1804.00,0.3204
1803.00,0.3211
1802.00,0.3217
1801.00,0.3226
1800.00,0.3241
1799.00,0.3258
1798.00,0.3275
1797.00,0.3289
1796.00,0.3300
1795.00,0.3311
1794.00,0.3324
1793.00,0.3337
1792.00,0.3351
1791.00,0.3367
1790.00,0.3387
1789.00,0.3408
1788.00,0.3429
1787.00,0.3447
1786.00,0.3462
1785.00,0.3478
1784.00,0.3498
1783.00,0.3524
1782.00,0.3552
1781.00,0.3581
1780.00,0.3610
1779.00,0.3638
1778.00,0.3667
1777.00,0.3697
1776.00,0.3730
1775.00,0.3767
1774.00,0.3807
1773.00,0.3852
1772.00,0.3902
1771.00,0.3953
1770.00,0.4001
1769.00,0.4050
1768.00,0.4109
1767.00,0.4181
1766.00,0.4263
1765.00,0.4353
1764.00,0.4453
1763.00,0.4569
1762.00,0.4707
1761.00,0.4868
1760.00,0.5050
1759.00,0.5258
1758.00,0.5510
1757.00,0.5828
1756.00,0.6222
1755.00,0.6684
1754.00,0.7223
1753.00,0.7890
1752.00,0.8767
1751.00,0.9914
1750.00,1.1336
1749.00,1.3003
1748.00,1.4891
1747.00,1.6952
1746.00,1.9086
1745.00,2.1134
1744.00,2.2752
1743.00,2.3647
1742.00,2.4025
1741.00,2.4148
1740.00,2.3908
1739.00,2.3216
1738.00,2.2299
1737.00,2.1152
1736.00,1.9533
1735.00,1.7469
1734.00,1.5359
1733.00,1.3574
1732.00,1.2146
1731.00,1.0939
1730.00,0.9872
1729.00,0.8939
1728.00,0.8155
1727.00,0.7510
1726.00,0.6976
1725.00,0.6526
1724.00,0.6144
1723.00,0.5822
1722.00,0.5561
1721.00,0.5352
1720.00,0.5175
1719.00,0.5011
1718.00,0.4855
1717.00,0.4719
1716.00,0.4611
1715.00,0.4526
1714.00,0.4459
1713.00,0.4405
1712.00,0.4360
1711.00,0.4317
1710.00,0.4276
1709.00,0.4239
1708.00,0.4206
1707.00,0.4176
1706.00,0.4147
1705.00,0.4125
1704.00,0.4111
1703.00,0.4103
1702.00,0.4097
1701.00,0.4086
1700.00,0.4070
1699.00,0.4051
1698.00,0.4029
1697.00,0.3996
1696.00,0.3942
1695.00,0.3876
1694.00,0.3817
1693.00,0.3773
1692.00,0.3733
1691.00,0.3691
1690.00,0.3648
1689.00,0.3609
1688.00,0.3580
1687.00,0.3558
1686.00,0.3539
1685.00,0.3518
1684.00,0.3494
1683.00,0.3471
1682.00,0.3453
1681.00,0.3440
1680.00,0.3430
1679.00,0.3420
1678.00,0.3413
1677.00,0.3407
1676.00,0.3401
1675.00,0.3392
1674.00,0.3386
1673.00,0.3383
1672.00,0.3380
1671.00,0.3374
1670.00,0.3366
1669.00,0.3357
1668.00,0.3351
1667.00,0.3346
1666.00,0.3345
1665.00,0.3344
1664.00,0.3343
1663.00,0.3341
1662.00,0.3338
1661.00,0.3336
1660.00,0.3335
1659.00,0.3332
1658.00,0.3329
1657.00,0.3328
1656.00,0.3327
1655.00,0.3326
1654.00,0.3325
1653.00,0.3323
1652.00,0.3321
1651.00,0.3318
1650.00,0.3318
1649.00,0.3319
1648.00,0.3317
1647.00,0.3312
1646.00,0.3305
1645.00,0.3301
1644.00,0.3300
1643.00,0.3299
1642.00,0.3297
1641.00,0.3296
1640.00,0.3295
1639.00,0.3294
1638.00,0.3295
1637.00,0.3297
1636.00,0.3298
1635.00,0.3294
1634.00,0.3288
1633.00,0.3287
1632.00,0.3290
1631.00,0.3292
1630.00,0.3293
1629.00,0.3294
1628.00,0.3295
1627.00,0.3295
1626.00,0.3296
1625.00,0.3299
1624.00,0.3302
1623.00,0.3302
1622.00,0.3301
1621.00,0.3301
1620.00,0.3305
1619.00,0.3311
1618.00,0.3317
1617.00,0.3324
1616.00,0.3329
1615.00,0.3331
1614.00,0.3332
1613.00,0.3336
1612.00,0.3342
1611.00,0.3347
1610.00,0.3352
1609.00,0.3357
1608.00,0.3363
1607.00,0.3367
1606.00,0.3371
1605.00,0.3378
1604.00,0.3388
1603.00,0.3402
1602.00,0.3419
1601.00,0.3443
1600.00,0.3466
1599.00,0.3485
1598.00,0.3499
1597.00,0.3515
1596.00,0.3536
1595.00,0.3559
1594.00,0.3576
1593.00,0.3583
1592.00,0.3576
1591.00,0.3555
1590.00,0.3528
1589.00,0.3503
1588.00,0.3485
1587.00,0.3472
1586.00,0.3460
1585.00,0.3453
1584.00,0.3448
1583.00,0.3443
1582.00,0.3437
1581.00,0.3433
1580.00,0.3430
1579.00,0.3428
1578.00,0.3428
1577.00,0.3428
1576.00,0.3428
1575.00,0.3425
1574.00,0.3422
1573.00,0.3422
1572.00,0.3424
1571.00,0.3426
1570.00,0.3428
1569.00,0.3431
1568.00,0.3434
1567.00,0.3437
1566.00,0.3442
1565.00,0.3450
1564.00,0.3458
1563.00,0.3462
1562.00,0.3464
1561.00,0.3466
1560.00,0.3469
1559.00,0.3476
1558.00,0.3482
1557.00,0.3487
1556.00,0.3491
1555.00,0.3493
1554.00,0.3493
1553.00,0.3495
1552.00,0.3498
1551.00,0.3499
1550.00,0.3501
1549.00,0.3509
1548.00,0.3524
1547.00,0.3537
1546.00,0.3545
1545.00,0.3554
1544.00,0.3569
1543.00,0.3590
1542.00,0.3615
1541.00,0.3644
1540.00,0.3671
1539.00,0.3686
1538.00,0.3688
1537.00,0.3690
1536.00,0.3692
1535.00,0.3694
1534.00,0.3693
1533.00,0.3696
1532.00,0.3705
1531.00,0.3717
1530.00,0.3731
1529.00,0.3745
1528.00,0.3757
1527.00,0.3767
1526.00,0.3779
1525.00,0.3797
1524.00,0.3821
1523.00,0.3843
1522.00,0.3861
1521.00,0.3880
1520.00,0.3901
1519.00,0.3924
1518.00,0.3950
1517.00,0.3980
1516.00,0.4011
1515.00,0.4041
1514.00,0.4071
1513.00,0.4104
1512.00,0.4139
1511.00,0.4174
1510.00,0.4210
1509.00,0.4254
1508.00,0.4312
1507.00,0.4387
1506.00,0.4468
1505.00,0.4543
1504.00,0.4602
1503.00,0.4649
1502.00,0.4693
1501.00,0.4745
1500.00,0.4807
1499.00,0.4876
1498.00,0.4960
1497.00,0.5071
1496.00,0.5212
1495.00,0.5373
1494.00,0.5552
1493.00,0.5767
1492.00,0.6024
1491.00,0.6308
1490.00,0.6579
1489.00,0.6800
1488.00,0.6967
1487.00,0.7119
1486.00,0.7304
1485.00,0.7544
1484.00,0.7832
1483.00,0.8153
1482.00,0.8516
1481.00,0.8939
1480.00,0.9415
1479.00,0.9937
1478.00,1.0539
1477.00,1.1268
1476.00,1.2138
1475.00,1.3156
1474.00,1.4411
1473.00,1.6072
1472.00,1.8179
1471.00,2.0450
1470.00,2.2456
1469.00,2.3962
1468.00,2.4799
1467.00,2.5002
1466.00,2.5042
1465.00,2.5216
1464.00,2.5267
1463.00,2.5053
1462.00,2.4954
1461.00,2.5152
1460.00,2.5352
1459.00,2.5266
1458.00,2.5133
1457.00,2.5169
1456.00,2.5044
1455.00,2.4586
1454.00,2.4090
1453.00,2.3604
1452.00,2.2931
1451.00,2.2094
1450.00,2.1299
1449.00,2.0570
1448.00,1.9802
1447.00,1.9020
1446.00,1.8335
1445.00,1.7743
1444.00,1.7169
1443.00,1.6596
1442.00,1.6059
1441.00,1.5562
1440.00,1.5064
1439.00,1.4541
1438.00,1.3977
1437.00,1.3352
1436.00,1.2680
1435.00,1.2014
1434.00,1.1376
1433.00,1.0737
1432.00,1.0087
1431.00,0.9457
1430.00,0.8887
1429.00,0.8398
1428.00,0.8001
1427.00,0.7701
1426.00,0.7483
1425.00,0.7330
1424.00,0.7240
1423.00,0.7209
1422.00,0.7223
1421.00,0.7260
1420.00,0.7308
1419.00,0.7362
1418.00,0.7406
1417.00,0.7422
1416.00,0.7400
1415.00,0.7339
1414.00,0.7238
1413.00,0.7100
1412.00,0.6939
1411.00,0.6768
1410.00,0.6599
1409.00,0.6434
1408.00,0.6277
1407.00,0.6136
1406.00,0.6016
1405.00,0.5924
1404.00,0.5868
1403.00,0.5852
1402.00,0.5873
1401.00,0.5925
1400.00,0.6011
1399.00,0.6137
1398.00,0.6299
1397.00,0.6486
1396.00,0.6700
1395.00,0.6943
1394.00,0.7203
1393.00,0.7459
1392.00,0.7702
1391.00,0.7946
1390.00,0.8215
1389.00,0.8546
1388.00,0.8990
1387.00,0.9573
1386.00,1.0285
1385.00,1.1101
1384.00,1.2033
1383.00,1.3127
1382.00,1.4419
1381.00,1.5894
1380.00,1.7441
1379.00,1.8742
1378.00,1.9307
1377.00,1.8972
1376.00,1.8039
1375.00,1.6863
1374.00,1.5717
1373.00,1.4788
1372.00,1.4144
1371.00,1.3754
1370.00,1.3556
1369.00,1.3491
1368.00,1.3502
1367.00,1.3514
1366.00,1.3449
1365.00,1.3240
1364.00,1.2863
1363.00,1.2361
1362.00,1.1828
1361.00,1.1357
1360.00,1.0989
1359.00,1.0713
1358.00,1.0508
1357.00,1.0355
1356.00,1.0241
1355.00,1.0151
1354.00,1.0070
1353.00,0.9980
1352.00,0.9869
1351.00,0.9728
1350.00,0.9561
1349.00,0.9376
1348.00,0.9188
1347.00,0.9014
1346.00,0.8867
1345.00,0.8756
1344.00,0.8678
1343.00,0.8618
1342.00,0.8552
1341.00,0.8453
1340.00,0.8305
1339.00,0.8113
1338.00,0.7905
1337.00,0.7704
1336.00,0.7522
1335.00,0.7357
1334.00,0.7208
1333.00,0.7073
1332.00,0.6954
1331.00,0.6854
1330.00,0.6776
1329.00,0.6723
1328.00,0.6693
1327.00,0.6687
1326.00,0.6704
1325.00,0.6743
1324.00,0.6801
1323.00,0.6873
1322.00,0.6954
1321.00,0.7041
1320.00,0.7133
1319.00,0.7229
1318.00,0.7330
1317.00,0.7433
1316.00,0.7539
1315.00,0.7644
1314.00,0.7748
1313.00,0.7851
1312.00,0.7952
1311.00,0.8048
1310.00,0.8134
1309.00,0.8203
1308.00,0.8255
1307.00,0.8288
1306.00,0.8305
1305.00,0.8309
1304.00,0.8303
1303.00,0.8289
1302.00,0.8269
1301.00,0.8245
1300.00,0.8221
1299.00,0.8200
1298.00,0.8188
1297.00,0.8188
1296.00,0.8201
1295.00,0.8226
1294.00,0.8262
1293.00,0.8307
1292.00,0.8352
1291.00,0.8393
1290.00,0.8426
1289.00,0.8452
1288.00,0.8466
1287.00,0.8462
1286.00,0.8439
1285.00,0.8401
1284.00,0.8349
1283.00,0.8284
1282.00,0.8207
1281.00,0.8123
1280.00,0.8040
1279.00,0.7966
1278.00,0.7908
1277.00,0.7868
1276.00,0.7848
1275.00,0.7845
1274.00,0.7860
1273.00,0.7890
1272.00,0.7934
1271.00,0.7988
1270.00,0.8050
1269.00,0.8120
1268.00,0.8197
1267.00,0.8278
1266.00,0.8365
1265.00,0.8463
1264.00,0.8574
1263.00,0.8694
1262.00,0.8812
1261.00,0.8919
1260.00,0.9017
1259.00,0.9112
1258.00,0.9206
1257.00,0.9295
1256.00,0.9367
1255.00,0.9416
1254.00,0.9445
1253.00,0.9459
1252.00,0.9463
1251.00,0.9461
1250.00,0.9456
1249.00,0.9451
1248.00,0.9446
1247.00,0.9439
1246.00,0.9429
1245.00,0.9419
1244.00,0.9417
1243.00,0.9425
1242.00,0.9439
1241.00,0.9443
1240.00,0.9423
1239.00,0.9382
1238.00,0.9337
1237.00,0.9302
1236.00,0.9276
1235.00,0.9250
1234.00,0.9224
1233.00,0.9201
1232.00,0.9185
1231.00,0.9178
1230.00,0.9185
1229.00,0.9211
1228.00,0.9259
1227.00,0.9321
1226.00,0.9393
1225.00,0.9468
1224.00,0.9539
1223.00,0.9594
1222.00,0.9621
1221.00,0.9620
1220.00,0.9596
1219.00,0.9559
1218.00,0.9516
1217.00,0.9471
1216.00,0.9421
1215.00,0.9367
1214.00,0.9317
1213.00,0.9275
1212.00,0.9237
1211.00,0.9198
1210.00,0.9157
1209.00,0.9118
1208.00,0.9084
1207.00,0.9056
1206.00,0.9036
1205.00,0.9032
1204.00,0.9051
1203.00,0.9097
1202.00,0.9167
1201.00,0.9261
1200.00,0.9380
1199.00,0.9527
1198.00,0.9699
1197.00,0.9894
1196.00,1.0106
1195.00,1.0329
1194.00,1.0561
1193.00,1.0800
1192.00,1.1034
1191.00,1.1247
1190.00,1.1431
1189.00,1.1587
1188.00,1.1711
1187.00,1.1805
1186.00,1.1875
1185.00,1.1936
1184.00,1.1997
1183.00,1.2051
1182.00,1.2092
1181.00,1.2128
1180.00,1.2172
1179.00,1.2228
1178.00,1.2291
1177.00,1.2355
1176.00,1.2420
1175.00,1.2483
1174.00,1.2543
1173.00,1.2592
1172.00,1.2623
1171.00,1.2636
1170.00,1.2629
1169.00,1.2591
1168.00,1.2507
1167.00,1.2379
1166.00,1.2227
1165.00,1.2069
1164.00,1.1907
1163.00,1.1737
1162.00,1.1555
1161.00,1.1361
1160.00,1.1149
1159.00,1.0920
1158.00,1.0690
1157.00,1.0482
1156.00,1.0312
1155.00,1.0182
1154.00,1.0094
1153.00,1.0045
1152.00,1.0032
1151.00,1.0047
1150.00,1.0085
1149.00,1.0143
1148.00,1.0213
1147.00,1.0287
1146.00,1.0357
1145.00,1.0417
1144.00,1.0453
1143.00,1.0460
1142.00,1.0439
1141.00,1.0389
1140.00,1.0302
1139.00,1.0163
1138.00,0.9972
1137.00,0.9739
1136.00,0.9476
1135.00,0.9195
1134.00,0.8910
1133.00,0.8630
1132.00,0.8355
1131.00,0.8082
1130.00,0.7814
1129.00,0.7557
1128.00,0.7318
1127.00,0.7096
1126.00,0.6888
1125.00,0.6692
1124.00,0.6507
1123.00,0.6337
1122.00,0.6183
1121.00,0.6043
1120.00,0.5917
1119.00,0.5802
1118.00,0.5698
1117.00,0.5606
1116.00,0.5526
1115.00,0.5457
1114.00,0.5398
1113.00,0.5344
1112.00,0.5290
1111.00,0.5231
1110.00,0.5169
1109.00,0.5106
1108.00,0.5048
1107.00,0.5000
1106.00,0.4964
1105.00,0.4940
1104.00,0.4927
1103.00,0.4927
1102.00,0.4941
1101.00,0.4969
1100.00,0.5008
1099.00,0.5056
1098.00,0.5111
1097.00,0.5170
1096.00,0.5232
1095.00,0.5291
1094.00,0.5346
1093.00,0.5396
1092.00,0.5444
1091.00,0.5498
1090.00,0.5560
1089.00,0.5629
1088.00,0.5705
1087.00,0.5787
1086.00,0.5877
1085.00,0.5970
1084.00,0.6066
1083.00,0.6161
1082.00,0.6253
1081.00,0.6339
1080.00,0.6417
1079.00,0.6484
1078.00,0.6533
1077.00,0.6557
1076.00,0.6553
1075.00,0.6527
1074.00,0.6490
1073.00,0.6448
1072.00,0.6406
1071.00,0.6367
1070.00,0.6334
1069.00,0.6308
1068.00,0.6286
1067.00,0.6269
1066.00,0.6258
1065.00,0.6249
1064.00,0.6240
1063.00,0.6223
1062.00,0.6194
1061.00,0.6146
1060.00,0.6082
1059.00,0.6008
1058.00,0.5933
1057.00,0.5862
1056.00,0.5796
1055.00,0.5737
1054.00,0.5681
1053.00,0.5628
1052.00,0.5575
1051.00,0.5522
1050.00,0.5470
1049.00,0.5419
1048.00,0.5370
1047.00,0.5323
1046.00,0.5280
1045.00,0.5240
1044.00,0.5201
1043.00,0.5163
1042.00,0.5131
1041.00,0.5104
1040.00,0.5082
1039.00,0.5061
1038.00,0.5040
1037.00,0.5018
1036.00,0.5001
1035.00,0.4990
1034.00,0.4986
1033.00,0.4986
1032.00,0.4986
1031.00,0.4989
1030.00,0.4998
1029.00,0.5016
1028.00,0.5040
1027.00,0.5068
1026.00,0.5094
1025.00,0.5115
1024.00,0.5130
1023.00,0.5138
1022.00,0.5144
1021.00,0.5152
1020.00,0.5162
1019.00,0.5178
1018.00,0.5197
1017.00,0.5218
1016.00,0.5233
1015.00,0.5241
1014.00,0.5246
1013.00,0.5254
1012.00,0.5269
1011.00,0.5291
1010.00,0.5319
1009.00,0.5350
1008.00,0.5372
1007.00,0.5375
1006.00,0.5361
1005.00,0.5337
1004.00,0.5317
1003.00,0.5306
1002.00,0.5301
1001.00,0.5298
1000.00,0.5295
999.00,0.5291
998.00,0.5281
997.00,0.5267
996.00,0.5249
995.00,0.5235
994.00,0.5228
993.00,0.5227
992.00,0.5231
991.00,0.5237
990.00,0.5246
989.00,0.5259
988.00,0.5275
987.00,0.5289
986.00,0.5294
985.00,0.5287
984.00,0.5268
983.00,0.5242
982.00,0.5211
981.00,0.5179
980.00,0.5149
979.00,0.5122
978.00,0.5100
977.00,0.5080
976.00,0.5062
975.00,0.5043
974.00,0.5025
973.00,0.5010
972.00,0.4998
971.00,0.4990
970.00,0.4984
969.00,0.4978
968.00,0.4975
967.00,0.4973
966.00,0.4971
965.00,0.4967
964.00,0.4960
963.00,0.4952
962.00,0.4945
961.00,0.4938
960.00,0.4931
959.00,0.4927
958.00,0.4925
957.00,0.4930
956.00,0.4942
955.00,0.4961
954.00,0.4983
953.00,0.5005
952.00,0.5025
951.00,0.5045
950.00,0.5066
949.00,0.5087
948.00,0.5111
947.00,0.5138
946.00,0.5167
945.00,0.5194
944.00,0.5213
943.00,0.5223
942.00,0.5222
941.00,0.5209
940.00,0.5187
939.00,0.5158
938.00,0.5126
937.00,0.5090
936.00,0.5052
935.00,0.5013
934.00,0.4974
933.00,0.4935
932.00,0.4894
931.00,0.4849
930.00,0.4800
929.00,0.4742
928.00,0.4677
927.00,0.4607
926.00,0.4536
925.00,0.4468
924.00,0.4409
923.00,0.4365
922.00,0.4337
921.00,0.4319
920.00,0.4305
919.00,0.4290
918.00,0.4273
917.00,0.4256
916.00,0.4239
915.00,0.4222
914.00,0.4207
913.00,0.4196
912.00,0.4189
911.00,0.4185
910.00,0.4186
909.00,0.4188
908.00,0.4191
907.00,0.4192
906.00,0.4192
905.00,0.4191
904.00,0.4192
903.00,0.4197
902.00,0.4209
901.00,0.4225
900.00,0.4243
899.00,0.4259
898.00,0.4274
897.00,0.4285
896.00,0.4293
895.00,0.4301
894.00,0.4309
893.00,0.4318
892.00,0.4325
891.00,0.4323
890.00,0.4310
889.00,0.4283
888.00,0.4246
887.00,0.4201
886.00,0.4150
885.00,0.4099
884.00,0.4053
883.00,0.4020
882.00,0.4000
881.00,0.3985
880.00,0.3967
879.00,0.3945
878.00,0.3923
877.00,0.3904
876.00,0.3886
875.00,0.3873
874.00,0.3861
873.00,0.3847
872.00,0.3830
871.00,0.3810
870.00,0.3790
869.00,0.3768
868.00,0.3742
867.00,0.3715
866.00,0.3692
865.00,0.3673
864.00,0.3658
863.00,0.3644
862.00,0.3630
861.00,0.3616
860.00,0.3604
859.00,0.3593
858.00,0.3585
857.00,0.3581
856.00,0.3579
855.00,0.3581
854.00,0.3584
853.00,0.3586
852.00,0.3588
851.00,0.3590
850.00,0.3591
849.00,0.3591
848.00,0.3591
847.00,0.3591
846.00,0.3594
845.00,0.3596
844.00,0.3595
843.00,0.3591
842.00,0.3588
841.00,0.3584
840.00,0.3579
839.00,0.3574
838.00,0.3570
837.00,0.3568
836.00,0.3566
835.00,0.3564
834.00,0.3563
833.00,0.3567
832.00,0.3573
831.00,0.3582
830.00,0.3590
829.00,0.3597
828.00,0.3605
827.00,0.3613
826.00,0.3619
825.00,0.3622
824.00,0.3622
823.00,0.3622
822.00,0.3621
821.00,0.3619
820.00,0.3616
819.00,0.3615
818.00,0.3616
817.00,0.3618
816.00,0.3621
815.00,0.3628
814.00,0.3643
813.00,0.3662
812.00,0.3683
811.00,0.3706
810.00,0.3733
809.00,0.3768
808.00,0.3808
807.00,0.3849
806.00,0.3884
805.00,0.3908
804.00,0.3922
803.00,0.3928
802.00,0.3930
801.00,0.3928
800.00,0.3924
799.00,0.3921
798.00,0.3919
797.00,0.3918
796.00,0.3919
795.00,0.3926
794.00,0.3938
793.00,0.3952
792.00,0.3963
791.00,0.3971
790.00,0.3981
789.00,0.3992
788.00,0.4007
787.00,0.4023
786.00,0.4041
785.00,0.4060
784.00,0.4080
783.00,0.4099
782.00,0.4123
781.00,0.4154
780.00,0.4190
779.00,0.4227
778.00,0.4262
777.00,0.4295
776.00,0.4332
775.00,0.4378
774.00,0.4433
773.00,0.4494
772.00,0.4553
771.00,0.4600
770.00,0.4629
769.00,0.4643
768.00,0.4650
767.00,0.4657
766.00,0.4666
765.00,0.4676
764.00,0.4688
763.00,0.4705
762.00,0.4728
761.00,0.4753
760.00,0.4779
759.00,0.4811
758.00,0.4855
757.00,0.4913
756.00,0.4978
755.00,0.5044
754.00,0.5105
753.00,0.5157
752.00,0.5197
751.00,0.5232
750.00,0.5268
749.00,0.5309
748.00,0.5354
747.00,0.5398
746.00,0.5438
745.00,0.5481
744.00,0.5535
743.00,0.5607
742.00,0.5691
741.00,0.5781
740.00,0.5868
739.00,0.5955
738.00,0.6045
737.00,0.6144
736.00,0.6254
735.00,0.6377
734.00,0.6523
733.00,0.6694
732.00,0.6892
731.00,0.7113
730.00,0.7361
729.00,0.7646
728.00,0.7983
727.00,0.8385
726.00,0.8845
725.00,0.9332
724.00,0.9794
723.00,1.0165
722.00,1.0352
721.00,1.0258
720.00,0.9856
719.00,0.9239
718.00,0.8544
717.00,0.7866
716.00,0.7252
715.00,0.6715
714.00,0.6253
713.00,0.5853
712.00,0.5503
711.00,0.5194
710.00,0.4918
709.00,0.4665
708.00,0.4437
707.00,0.4237
706.00,0.4067
705.00,0.3922
704.00,0.3798
703.00,0.3700
702.00,0.3627
701.00,0.3573
700.00,0.3520
699.00,0.3456
698.00,0.3374
697.00,0.3282
696.00,0.3192
695.00,0.3118
694.00,0.3065
693.00,0.3033
692.00,0.3025
691.00,0.3040
690.00,0.3067
689.00,0.3089
688.00,0.3089
687.00,0.3059
686.00,0.3007
685.00,0.2944
684.00,0.2882
683.00,0.2831
682.00,0.2796
681.00,0.2767
680.00,0.2753
679.00,0.2733
678.00,0.2753
677.00,0.2794
676.00,0.2783
675.00,0.2787
674.00,0.2787
673.00,0.2793
672.00,0.2795
671.00,0.2791
670.00,0.2780
669.00,0.2762
668.00,0.2749
667.00,0.2756
666.00,0.2777
665.00,0.2798
664.00,0.2811
663.00,0.2817
662.00,0.2822
661.00,0.2829
660.00,0.2837
659.00,0.2846
658.00,0.2855
657.00,0.2863
656.00,0.2871
655.00,0.2872
654.00,0.2883
653.00,0.2873
652.00,0.2859
651.00,0.2885
650.00,0.2901
649.00,0.2922
648.00,0.2941
647.00,0.2964
646.00,0.2987
645.00,0.3008
644.00,0.3027
643.00,0.3044
642.00,0.3059
641.00,0.3068
640.00,0.3074
639.00,0.3086
638.00,0.3103
637.00,0.3119
636.00,0.3124
635.00,0.3119
634.00,0.3115
633.00,0.3119
632.00,0.3131
631.00,0.3146
630.00,0.3165
629.00,0.3186
628.00,0.3209
627.00,0.3230
626.00,0.3251
625.00,0.3273
624.00,0.3301
623.00,0.3335
622.00,0.3372
621.00,0.3408
620.00,0.3436
619.00,0.3456
618.00,0.3473
617.00,0.3489
616.00,0.3503
615.00,0.3513
614.00,0.3520
613.00,0.3525
612.00,0.3526
611.00,0.3524
610.00,0.3520
609.00,0.3515
608.00,0.3510
607.00,0.3508
606.00,0.3510
605.00,0.3518
604.00,0.3526
603.00,0.3531
602.00,0.3530
601.00,0.3525
600.00,0.3521
599.00,0.3524
598.00,0.3537
597.00,0.3556
596.00,0.3572
595.00,0.3584
594.00,0.3594
593.00,0.3608
592.00,0.3628
591.00,0.3650
590.00,0.3672
589.00,0.3694
588.00,0.3712
587.00,0.3727
586.00,0.3741
585.00,0.3757
584.00,0.3772
583.00,0.3782
582.00,0.3788
581.00,0.3794
580.00,0.3801
579.00,0.3812
578.00,0.3828
577.00,0.3848
576.00,0.3868
575.00,0.3883
574.00,0.3890
573.00,0.3889
572.00,0.3878
571.00,0.3859
570.00,0.3838
569.00,0.3827
568.00,0.3825
567.00,0.3824
566.00,0.3816
565.00,0.3798
564.00,0.3779
563.00,0.3767
562.00,0.3765
561.00,0.3771
560.00,0.3783
559.00,0.3795
558.00,0.3802
557.00,0.3800
556.00,0.3785
555.00,0.3765
554.00,0.3751
553.00,0.3748
552.00,0.3754
551.00,0.3764
550.00,0.3773
