Created as New Dataset,
cm-1,A
4000.00,1.9701
3999.00,1.9700
3998.00,1.9700
3997.00,1.9697
3996.00,1.9693
3995.00,1.9692
3994.00,1.9694
3993.00,1.9696
3992.00,1.9695
3991.00,1.9692
3990.00,1.9692
3989.00,1.9695
3988.00,1.9694
3987.00,1.9684
3986.00,1.9665
3985.00,1.9646
3984.00,1.9639
3983.00,1.9650
3982.00,1.9674
3981.00,1.9700
3980.00,1.9718
3979.00,1.9721
3978.00,1.9712
3977.00,1.9696
3976.00,1.9673
3975.00,1.9642
3974.00,1.9607
3973.00,1.9578
3972.00,1.9564
3971.00,1.9563
3970.00,1.9570
3969.00,1.9578
3968.00,1.9588
3967.00,1.9599
3966.00,1.9609
3965.00,1.9614
3964.00,1.9608
3963.00,1.9595
3962.00,1.9581
3961.00,1.9575
3960.00,1.9588
3959.00,1.9620
3958.00,1.9655
3957.00,1.9675
3956.00,1.9667
3955.00,1.9641
3954.00,1.9613
3953.00,1.9596
3952.00,1.9590
3951.00,1.9587
3950.00,1.9586
3949.00,1.9588
3948.00,1.9598
3947.00,1.9610
3946.00,1.9621
3945.00,1.9626
3944.00,1.9626
3943.00,1.9623
3942.00,1.9619
3941.00,1.9617
3940.00,1.9613
3939.00,1.9600
3938.00,1.9575
3937.00,1.9543
3936.00,1.9519
3935.00,1.9511
3934.00,1.9518
3933.00,1.9528
3932.00,1.9534
3931.00,1.9540
3930.00,1.9549
3929.00,1.9559
3928.00,1.9571
3927.00,1.9581
3926.00,1.9587
3925.00,1.9587
3924.00,1.9584
3923.00,1.9587
3922.00,1.9592
3921.00,1.9590
3920.00,1.9576
3919.00,1.9559
3918.00,1.9550
3917.00,1.9555
3916.00,1.9566
3915.00,1.9577
3914.00,1.9580
3913.00,1.9576
3912.00,1.9569
3911.00,1.9565
3910.00,1.9564
3909.00,1.9560
3908.00,1.9550
3907.00,1.9539
3906.00,1.9530
3905.00,1.9522
3904.00,1.9513
3903.00,1.9518
3902.00,1.9549
3901.00,1.9595
3900.00,1.9625
3899.00,1.9621
3898.00,1.9595
3897.00,1.9567
3896.00,1.9549
3895.00,1.9543
3894.00,1.9551
3893.00,1.9568
3892.00,1.9573
3891.00,1.9550
3890.00,1.9512
3889.00,1.9487
3888.00,1.9492
3887.00,1.9511
3886.00,1.9523
3885.00,1.9524
3884.00,1.9532
3883.00,1.9549
3882.00,1.9558
3881.00,1.9544
3880.00,1.9511
3879.00,1.9486
3878.00,1.9485
3877.00,1.9507
3876.00,1.9534
3875.00,1.9551
3874.00,1.9553
3873.00,1.9552
3872.00,1.9558
3871.00,1.9559
3870.00,1.9540
3869.00,1.9518
3868.00,1.9523
3867.00,1.9551
3866.00,1.9566
3865.00,1.9541
3864.00,1.9491
3863.00,1.9449
3862.00,1.9432
3861.00,1.9434
3860.00,1.9446
3859.00,1.9459
3858.00,1.9473
3857.00,1.9491
3856.00,1.9516
3855.00,1.9548
3854.00,1.9565
3853.00,1.9561
3852.00,1.9557
3851.00,1.9563
3850.00,1.9569
3849.00,1.9562
3848.00,1.9542
3847.00,1.9518
3846.00,1.9498
3845.00,1.9486
3844.00,1.9475
3843.00,1.9460
3842.00,1.9442
3841.00,1.9429
3840.00,1.9426
3839.00,1.9428
3838.00,1.9431
3837.00,1.9436
3836.00,1.9441
3835.00,1.9442
3834.00,1.9440
3833.00,1.9437
3832.00,1.9441
3831.00,1.9457
3830.00,1.9481
3829.00,1.9504
3828.00,1.9513
3827.00,1.9495
3826.00,1.9452
3825.00,1.9408
3824.00,1.9390
3823.00,1.9409
3822.00,1.9441
3821.00,1.9447
3820.00,1.9421
3819.00,1.9391
3818.00,1.9384
3817.00,1.9398
3816.00,1.9414
3815.00,1.9424
3814.00,1.9434
3813.00,1.9441
3812.00,1.9434
3811.00,1.9415
3810.00,1.9398
3809.00,1.9397
3808.00,1.9404
3807.00,1.9396
3806.00,1.9375
3805.00,1.9366
3804.00,1.9388
3803.00,1.9424
3802.00,1.9439
3801.00,1.9419
3800.00,1.9395
3799.00,1.9391
3798.00,1.9400
3797.00,1.9398
3796.00,1.9382
3795.00,1.9369
3794.00,1.9374
3793.00,1.9384
3792.00,1.9380
3791.00,1.9356
3790.00,1.9326
3789.00,1.9309
3788.00,1.9310
3787.00,1.9323
3786.00,1.9334
3785.00,1.9337
3784.00,1.9340
3783.00,1.9351
3782.00,1.9370
3781.00,1.9382
3780.00,1.9376
3779.00,1.9357
3778.00,1.9339
3777.00,1.9331
3776.00,1.9330
3775.00,1.9326
3774.00,1.9320
3773.00,1.9321
3772.00,1.9331
3771.00,1.9338
3770.00,1.9329
3769.00,1.9308
3768.00,1.9292
3767.00,1.9287
3766.00,1.9289
3765.00,1.9294
3764.00,1.9311
3763.00,1.9345
3762.00,1.9380
3761.00,1.9391
3760.00,1.9371
3759.00,1.9339
3758.00,1.9316
3757.00,1.9305
3756.00,1.9302
3755.00,1.9300
3754.00,1.9299
3753.00,1.9299
3752.00,1.9306
3751.00,1.9324
3750.00,1.9347
3749.00,1.9360
3748.00,1.9365
3747.00,1.9374
3746.00,1.9393
3745.00,1.9404
3744.00,1.9395
3743.00,1.9387
3742.00,1.9392
3741.00,1.9395
3740.00,1.9387
3739.00,1.9377
3738.00,1.9378
3737.00,1.9389
3736.00,1.9400
3735.00,1.9408
3734.00,1.9416
3733.00,1.9418
3732.00,1.9408
3731.00,1.9391
3730.00,1.9377
3729.00,1.9371
3728.00,1.9362
3727.00,1.9346
3726.00,1.9329
3725.00,1.9324
3724.00,1.9329
3723.00,1.9331
3722.00,1.9321
3721.00,1.9303
3720.00,1.9288
3719.00,1.9281
3718.00,1.9281
3717.00,1.9286
3716.00,1.9295
3715.00,1.9310
3714.00,1.9326
3713.00,1.9337
3712.00,1.9338
3711.00,1.9329
3710.00,1.9320
3709.00,1.9326
3708.00,1.9349
3707.00,1.9381
3706.00,1.9403
3705.00,1.9407
3704.00,1.9398
3703.00,1.9389
3702.00,1.9388
3701.00,1.9391
3700.00,1.9387
3699.00,1.9374
3698.00,1.9354
3697.00,1.9332
3696.00,1.9313
3695.00,1.9305
3694.00,1.9309
3693.00,1.9318
3692.00,1.9330
3691.00,1.9350
3690.00,1.9381
3689.00,1.9416
3688.00,1.9449
3687.00,1.9480
3686.00,1.9508
3685.00,1.9528
3684.00,1.9529
3683.00,1.9508
3682.00,1.9473
3681.00,1.9432
3680.00,1.9391
3679.00,1.9358
3678.00,1.9347
3677.00,1.9358
3676.00,1.9370
3675.00,1.9378
3674.00,1.9406
3673.00,1.9464
3672.00,1.9528
3671.00,1.9567
3670.00,1.9571
3669.00,1.9562
3668.00,1.9559
3667.00,1.9553
3666.00,1.9531
3665.00,1.9498
3664.00,1.9466
3663.00,1.9445
3662.00,1.9436
3661.00,1.9434
3660.00,1.9438
3659.00,1.9451
3658.00,1.9471
3657.00,1.9482
3656.00,1.9473
3655.00,1.9452
3654.00,1.9439
3653.00,1.9447
3652.00,1.9470
3651.00,1.9496
3650.00,1.9518
3649.00,1.9539
3648.00,1.9563
3647.00,1.9589
3646.00,1.9609
3645.00,1.9617
3644.00,1.9608
3643.00,1.9577
3642.00,1.9527
3641.00,1.9475
3640.00,1.9441
3639.00,1.9433
3638.00,1.9445
3637.00,1.9465
3636.00,1.9487
3635.00,1.9502
3634.00,1.9503
3633.00,1.9497
3632.00,1.9502
3631.00,1.9527
3630.00,1.9558
3629.00,1.9570
3628.00,1.9569
3627.00,1.9580
3626.00,1.9607
3625.00,1.9630
3624.00,1.9637
3623.00,1.9632
3622.00,1.9628
3621.00,1.9630
3620.00,1.9632
3619.00,1.9626
3618.00,1.9614
3617.00,1.9601
3616.00,1.9591
3615.00,1.9583
3614.00,1.9576
3613.00,1.9574
3612.00,1.9579
3611.00,1.9590
3610.00,1.9601
3609.00,1.9611
3608.00,1.9621
3607.00,1.9631
3606.00,1.9635
3605.00,1.9626
3604.00,1.9605
3603.00,1.9582
3602.00,1.9564
3601.00,1.9559
3600.00,1.9569
3599.00,1.9591
3598.00,1.9610
3597.00,1.9612
3596.00,1.9599
3595.00,1.9583
3594.00,1.9577
3593.00,1.9581
3592.00,1.9593
3591.00,1.9609
3590.00,1.9629
3589.00,1.9651
3588.00,1.9670
3587.00,1.9684
3586.00,1.9694
3585.00,1.9702
3584.00,1.9701
3583.00,1.9691
3582.00,1.9677
3581.00,1.9663
3580.00,1.9651
3579.00,1.9641
3578.00,1.9634
3577.00,1.9634
3576.00,1.9645
3575.00,1.9664
3574.00,1.9684
3573.00,1.9695
3572.00,1.9693
3571.00,1.9679
3570.00,1.9668
3569.00,1.9676
3568.00,1.9701
3567.00,1.9729
3566.00,1.9742
3565.00,1.9734
3564.00,1.9716
3563.00,1.9700
3562.00,1.9690
3561.00,1.9685
3560.00,1.9682
3559.00,1.9687
3558.00,1.9697
3557.00,1.9706
3556.00,1.9705
3555.00,1.9701
3554.00,1.9708
3553.00,1.9731
3552.00,1.9759
3551.00,1.9770
3550.00,1.9760
3549.00,1.9743
3548.00,1.9736
3547.00,1.9741
3546.00,1.9743
3545.00,1.9726
3544.00,1.9693
3543.00,1.9666
3542.00,1.9666
3541.00,1.9696
3540.00,1.9736
3539.00,1.9764
3538.00,1.9773
3537.00,1.9769
3536.00,1.9765
3535.00,1.9765
3534.00,1.9767
3533.00,1.9767
3532.00,1.9761
3531.00,1.9752
3530.00,1.9743
3529.00,1.9745
3528.00,1.9761
3527.00,1.9788
3526.00,1.9815
3525.00,1.9828
3524.00,1.9822
3523.00,1.9802
3522.00,1.9781
3521.00,1.9772
3520.00,1.9779
3519.00,1.9794
3518.00,1.9809
3517.00,1.9819
3516.00,1.9823
3515.00,1.9820
3514.00,1.9810
3513.00,1.9797
3512.00,1.9788
3511.00,1.9790
3510.00,1.9804
3509.00,1.9825
3508.00,1.9844
3507.00,1.9860
3506.00,1.9872
3505.00,1.9884
3504.00,1.9897
3503.00,1.9905
3502.00,1.9909
3501.00,1.9907
3500.00,1.9900
3499.00,1.9886
3498.00,1.9871
3497.00,1.9862
3496.00,1.9862
3495.00,1.9866
3494.00,1.9865
3493.00,1.9864
3492.00,1.9870
3491.00,1.9887
3490.00,1.9906
3489.00,1.9916
3488.00,1.9910
3487.00,1.9892
3486.00,1.9874
3485.00,1.9870
3484.00,1.9887
3483.00,1.9918
3482.00,1.9945
3481.00,1.9950
3480.00,1.9934
3479.00,1.9914
3478.00,1.9908
3477.00,1.9922
3476.00,1.9947
3475.00,1.9972
3474.00,1.9997
3473.00,2.0026
3472.00,2.0052
3471.00,2.0062
3470.00,2.0051
3469.00,2.0026
3468.00,2.0002
3467.00,1.9987
3466.00,1.9983
3465.00,1.9990
3464.00,2.0005
3463.00,2.0022
3462.00,2.0035
3461.00,2.0046
3460.00,2.0060
3459.00,2.0078
3458.00,2.0089
3457.00,2.0087
3456.00,2.0076
3455.00,2.0068
3454.00,2.0069
3453.00,2.0080
3452.00,2.0099
3451.00,2.0123
3450.00,2.0147
3449.00,2.0161
3448.00,2.0158
3447.00,2.0141
3446.00,2.0128
3445.00,2.0138
3444.00,2.0170
3443.00,2.0212
3442.00,2.0247
3441.00,2.0266
3440.00,2.0274
3439.00,2.0272
3438.00,2.0266
3437.00,2.0261
3436.00,2.0259
3435.00,2.0255
3434.00,2.0244
3433.00,2.0229
3432.00,2.0216
3431.00,2.0210
3430.00,2.0212
3429.00,2.0219
3428.00,2.0228
3427.00,2.0237
3426.00,2.0240
3425.00,2.0241
3424.00,2.0245
3423.00,2.0256
3422.00,2.0272
3421.00,2.0286
3420.00,2.0296
3419.00,2.0298
3418.00,2.0293
3417.00,2.0287
3416.00,2.0286
3415.00,2.0293
3414.00,2.0301
3413.00,2.0304
3412.00,2.0297
3411.00,2.0286
3410.00,2.0280
3409.00,2.0289
3408.00,2.0309
3407.00,2.0322
3406.00,2.0311
3405.00,2.0282
3404.00,2.0255
3403.00,2.0245
3402.00,2.0248
3401.00,2.0252
3400.00,2.0251
3399.00,2.0250
3398.00,2.0249
3397.00,2.0249
3396.00,2.0246
3395.00,2.0242
3394.00,2.0238
3393.00,2.0239
3392.00,2.0246
3391.00,2.0255
3390.00,2.0261
3389.00,2.0259
3388.00,2.0245
3387.00,2.0223
3386.00,2.0198
3385.00,2.0179
3384.00,2.0170
3383.00,2.0165
3382.00,2.0159
3381.00,2.0158
3380.00,2.0173
3379.00,2.0201
3378.00,2.0221
3377.00,2.0217
3376.00,2.0190
3375.00,2.0158
3374.00,2.0138
3373.00,2.0138
3372.00,2.0152
3371.00,2.0164
3370.00,2.0159
3369.00,2.0141
3368.00,2.0128
3367.00,2.0129
3366.00,2.0136
3365.00,2.0137
3364.00,2.0132
3363.00,2.0131
3362.00,2.0138
3361.00,2.0148
3360.00,2.0158
3359.00,2.0165
3358.00,2.0168
3357.00,2.0162
3356.00,2.0146
3355.00,2.0124
3354.00,2.0104
3353.00,2.0088
3352.00,2.0079
3351.00,2.0075
3350.00,2.0071
3349.00,2.0061
3348.00,2.0046
3347.00,2.0034
3346.00,2.0033
3345.00,2.0044
3344.00,2.0060
3343.00,2.0074
3342.00,2.0080
3341.00,2.0077
3340.00,2.0067
3339.00,2.0054
3338.00,2.0038
3337.00,2.0020
3336.00,2.0002
3335.00,1.9985
3334.00,1.9967
3333.00,1.9950
3332.00,1.9937
3331.00,1.9933
3330.00,1.9942
3329.00,1.9963
3328.00,1.9989
3327.00,2.0009
3326.00,2.0018
3325.00,2.0023
3324.00,2.0036
3323.00,2.0052
3322.00,2.0062
3321.00,2.0059
3320.00,2.0047
3319.00,2.0033
3318.00,2.0013
3317.00,1.9989
3316.00,1.9970
3315.00,1.9963
3314.00,1.9965
3313.00,1.9967
3312.00,1.9965
3311.00,1.9960
3310.00,1.9956
3309.00,1.9956
3308.00,1.9962
3307.00,1.9975
3306.00,1.9986
3305.00,1.9987
3304.00,1.9976
3303.00,1.9959
3302.00,1.9946
3301.00,1.9942
3300.00,1.9946
3299.00,1.9954
3298.00,1.9959
3297.00,1.9957
3296.00,1.9950
3295.00,1.9945
3294.00,1.9941
3293.00,1.9936
3292.00,1.9928
3291.00,1.9918
3290.00,1.9912
3289.00,1.9911
3288.00,1.9912
3287.00,1.9915
3286.00,1.9921
3285.00,1.9936
3284.00,1.9966
3283.00,2.0003
3282.00,2.0030
3281.00,2.0034
3280.00,2.0017
3279.00,1.9988
3278.00,1.9958
3277.00,1.9934
3276.00,1.9925
3275.00,1.9937
3274.00,1.9961
3273.00,1.9982
3272.00,1.9994
3271.00,2.0004
3270.00,2.0015
3269.00,2.0018
3268.00,2.0005
3267.00,1.9979
3266.00,1.9948
3265.00,1.9921
3264.00,1.9901
3263.00,1.9889
3262.00,1.9886
3261.00,1.9894
3260.00,1.9916
3259.00,1.9947
3258.00,1.9977
3257.00,1.9992
3256.00,1.9991
3255.00,1.9977
3254.00,1.9959
3253.00,1.9943
3252.00,1.9939
3251.00,1.9950
3250.00,1.9971
3249.00,1.9992
3248.00,2.0005
3247.00,2.0009
3246.00,2.0005
3245.00,1.9999
3244.00,2.0000
3243.00,2.0013
3242.00,2.0031
3241.00,2.0041
3240.00,2.0038
3239.00,2.0022
3238.00,2.0000
3237.00,1.9976
3236.00,1.9963
3235.00,1.9967
3234.00,1.9982
3233.00,1.9993
3232.00,1.9992
3231.00,1.9993
3230.00,2.0009
3229.00,2.0041
3228.00,2.0078
3227.00,2.0107
3226.00,2.0120
3225.00,2.0114
3224.00,2.0092
3223.00,2.0062
3222.00,2.0033
3221.00,2.0009
3220.00,1.9992
3219.00,1.9983
3218.00,1.9982
3217.00,1.9985
3216.00,1.9988
3215.00,1.9993
3214.00,2.0003
3213.00,2.0018
3212.00,2.0032
3211.00,2.0039
3210.00,2.0043
3209.00,2.0047
3208.00,2.0053
3207.00,2.0056
3206.00,2.0047
3205.00,2.0027
3204.00,2.0004
3203.00,1.9989
3202.00,1.9984
3201.00,1.9981
3200.00,1.9973
3199.00,1.9960
3198.00,1.9951
3197.00,1.9949
3196.00,1.9953
3195.00,1.9956
3194.00,1.9954
3193.00,1.9947
3192.00,1.9940
3191.00,1.9934
3190.00,1.9923
3189.00,1.9905
3188.00,1.9886
3187.00,1.9871
3186.00,1.9861
3185.00,1.9850
3184.00,1.9836
3183.00,1.9823
3182.00,1.9813
3181.00,1.9802
3180.00,1.9789
3179.00,1.9780
3178.00,1.9774
3177.00,1.9759
3176.00,1.9731
3175.00,1.9702
3174.00,1.9688
3173.00,1.9690
3172.00,1.9696
3171.00,1.9698
3170.00,1.9695
3169.00,1.9692
3168.00,1.9687
3167.00,1.9678
3166.00,1.9664
3165.00,1.9646
3164.00,1.9625
3163.00,1.9602
3162.00,1.9584
3161.00,1.9581
3160.00,1.9597
3159.00,1.9622
3158.00,1.9640
3157.00,1.9637
3156.00,1.9611
3155.00,1.9572
3154.00,1.9539
3153.00,1.9522
3152.00,1.9516
3151.00,1.9504
3150.00,1.9480
3149.00,1.9454
3148.00,1.9442
3147.00,1.9450
3146.00,1.9463
3145.00,1.9463
3144.00,1.9445
3143.00,1.9416
3142.00,1.9386
3141.00,1.9361
3140.00,1.9344
3139.00,1.9335
3138.00,1.9337
3137.00,1.9344
3136.00,1.9348
3135.00,1.9337
3134.00,1.9313
3133.00,1.9286
3132.00,1.9268
3131.00,1.9255
3130.00,1.9240
3129.00,1.9219
3128.00,1.9200
3127.00,1.9194
3126.00,1.9200
3125.00,1.9210
3124.00,1.9212
3123.00,1.9205
3122.00,1.9193
3121.00,1.9180
3120.00,1.9172
3119.00,1.9172
3118.00,1.9178
3117.00,1.9185
3116.00,1.9183
3115.00,1.9167
3114.00,1.9143
3113.00,1.9121
3112.00,1.9109
3111.00,1.9109
3110.00,1.9112
3109.00,1.9109
3108.00,1.9093
3107.00,1.9070
3106.00,1.9054
3105.00,1.9059
3104.00,1.9079
3103.00,1.9092
3102.00,1.9083
3101.00,1.9057
3100.00,1.9033
3099.00,1.9023
3098.00,1.9021
3097.00,1.9019
3096.00,1.9012
3095.00,1.8999
3094.00,1.8983
3093.00,1.8968
3092.00,1.8959
3091.00,1.8960
3090.00,1.8965
3089.00,1.8966
3088.00,1.8959
3087.00,1.8946
3086.00,1.8934
3085.00,1.8927
3084.00,1.8925
3083.00,1.8926
3082.00,1.8922
3081.00,1.8913
3080.00,1.8903
3079.00,1.8899
3078.00,1.8897
3077.00,1.8893
3076.00,1.8886
3075.00,1.8882
3074.00,1.8881
3073.00,1.8882
3072.00,1.8887
3071.00,1.8896
3070.00,1.8900
3069.00,1.8888
3068.00,1.8861
3067.00,1.8835
3066.00,1.8822
3065.00,1.8819
3064.00,1.8819
3063.00,1.8815
3062.00,1.8805
3061.00,1.8790
3060.00,1.8776
3059.00,1.8773
3058.00,1.8780
3057.00,1.8790
3056.00,1.8794
3055.00,1.8792
3054.00,1.8784
3053.00,1.8769
3052.00,1.8751
3051.00,1.8736
3050.00,1.8731
3049.00,1.8733
3048.00,1.8737
3047.00,1.8744
3046.00,1.8754
3045.00,1.8766
3044.00,1.8772
3043.00,1.8772
3042.00,1.8766
3041.00,1.8759
3040.00,1.8753
3039.00,1.8751
3038.00,1.8756
3037.00,1.8768
3036.00,1.8780
3035.00,1.8782
3034.00,1.8772
3033.00,1.8753
3032.00,1.8731
3031.00,1.8713
3030.00,1.8698
3029.00,1.8683
3028.00,1.8669
3027.00,1.8664
3026.00,1.8676
3025.00,1.8699
3024.00,1.8720
3023.00,1.8729
3022.00,1.8722
3021.00,1.8704
3020.00,1.8680
3019.00,1.8661
3018.00,1.8651
3017.00,1.8649
3016.00,1.8650
3015.00,1.8649
3014.00,1.8646
3013.00,1.8648
3012.00,1.8655
3011.00,1.8660
3010.00,1.8658
3009.00,1.8650
3008.00,1.8640
3007.00,1.8631
3006.00,1.8625
3005.00,1.8624
3004.00,1.8628
3003.00,1.8633
3002.00,1.8632
3001.00,1.8624
3000.00,1.8615
2999.00,1.8609
2998.00,1.8608
2997.00,1.8605
2996.00,1.8600
2995.00,1.8596
2994.00,1.8591
2993.00,1.8584
2992.00,1.8576
2991.00,1.8574
2990.00,1.8584
2989.00,1.8603
2988.00,1.8624
2987.00,1.8640
2986.00,1.8646
2985.00,1.8644
2984.00,1.8640
2983.00,1.8639
2982.00,1.8641
2981.00,1.8644
2980.00,1.8649
2979.00,1.8657
2978.00,1.8669
2977.00,1.8681
2976.00,1.8690
2975.00,1.8695
2974.00,1.8695
2973.00,1.8690
2972.00,1.8684
2971.00,1.8684
2970.00,1.8694
2969.00,1.8706
2968.00,1.8711
2967.00,1.8706
2966.00,1.8699
2965.00,1.8699
2964.00,1.8707
2963.00,1.8713
2962.00,1.8712
2961.00,1.8703
2960.00,1.8696
2959.00,1.8702
2958.00,1.8719
2957.00,1.8742
2956.00,1.8764
2955.00,1.8787
2954.00,1.8807
2953.00,1.8818
2952.00,1.8816
2951.00,1.8801
2950.00,1.8777
2949.00,1.8751
2948.00,1.8730
2947.00,1.8723
2946.00,1.8731
2945.00,1.8746
2944.00,1.8756
2943.00,1.8755
2942.00,1.8744
2941.00,1.8730
2940.00,1.8718
2939.00,1.8710
2938.00,1.8706
2937.00,1.8712
2936.00,1.8730
2935.00,1.8763
2934.00,1.8799
2933.00,1.8823
2932.00,1.8831
2931.00,1.8833
2930.00,1.8838
2929.00,1.8844
2928.00,1.8845
2927.00,1.8843
2926.00,1.8847
2925.00,1.8856
2924.00,1.8862
2923.00,1.8863
2922.00,1.8860
2921.00,1.8857
2920.00,1.8846
2919.00,1.8825
2918.00,1.8800
2917.00,1.8783
2916.00,1.8781
2915.00,1.8792
2914.00,1.8805
2913.00,1.8804
2912.00,1.8783
2911.00,1.8745
2910.00,1.8705
2909.00,1.8672
2908.00,1.8650
2907.00,1.8637
2906.00,1.8629
2905.00,1.8626
2904.00,1.8621
2903.00,1.8611
2902.00,1.8597
2901.00,1.8581
2900.00,1.8567
2899.00,1.8561
2898.00,1.8563
2897.00,1.8568
2896.00,1.8573
2895.00,1.8577
2894.00,1.8583
2893.00,1.8587
2892.00,1.8581
2891.00,1.8561
2890.00,1.8538
2889.00,1.8525
2888.00,1.8521
2887.00,1.8518
2886.00,1.8510
2885.00,1.8500
2884.00,1.8498
2883.00,1.8504
2882.00,1.8513
2881.00,1.8520
2880.00,1.8520
2879.00,1.8513
2878.00,1.8502
2877.00,1.8494
2876.00,1.8495
2875.00,1.8505
2874.00,1.8519
2873.00,1.8530
2872.00,1.8535
2871.00,1.8534
2870.00,1.8531
2869.00,1.8532
2868.00,1.8539
2867.00,1.8548
2866.00,1.8554
2865.00,1.8560
2864.00,1.8569
2863.00,1.8583
2862.00,1.8596
2861.00,1.8603
2860.00,1.8603
2859.00,1.8601
2858.00,1.8602
2857.00,1.8608
2856.00,1.8616
2855.00,1.8629
2854.00,1.8645
2853.00,1.8662
2852.00,1.8673
2851.00,1.8670
2850.00,1.8655
2849.00,1.8635
2848.00,1.8623
2847.00,1.8618
2846.00,1.8612
2845.00,1.8599
2844.00,1.8581
2843.00,1.8562
2842.00,1.8544
2841.00,1.8525
2840.00,1.8505
2839.00,1.8491
2838.00,1.8491
2837.00,1.8508
2836.00,1.8536
2835.00,1.8562
2834.00,1.8576
2833.00,1.8574
2832.00,1.8563
2831.00,1.8555
2830.00,1.8555
2829.00,1.8563
2828.00,1.8570
2827.00,1.8574
2826.00,1.8575
2825.00,1.8581
2824.00,1.8594
2823.00,1.8609
2822.00,1.8622
2821.00,1.8631
2820.00,1.8641
2819.00,1.8654
2818.00,1.8669
2817.00,1.8681
2816.00,1.8686
2815.00,1.8686
2814.00,1.8686
2813.00,1.8690
2812.00,1.8696
2811.00,1.8702
2810.00,1.8708
2809.00,1.8719
2808.00,1.8737
2807.00,1.8758
2806.00,1.8774
2805.00,1.8787
2804.00,1.8798
2803.00,1.8808
2802.00,1.8814
2801.00,1.8813
2800.00,1.8807
2799.00,1.8797
2798.00,1.8781
2797.00,1.8764
2796.00,1.8752
2795.00,1.8748
2794.00,1.8747
2793.00,1.8740
2792.00,1.8727
2791.00,1.8713
2790.00,1.8698
2789.00,1.8683
2788.00,1.8671
2787.00,1.8662
2786.00,1.8657
2785.00,1.8650
2784.00,1.8639
2783.00,1.8626
2782.00,1.8618
2781.00,1.8617
2780.00,1.8625
2779.00,1.8635
2778.00,1.8638
2777.00,1.8628
2776.00,1.8608
2775.00,1.8588
2774.00,1.8574
2773.00,1.8567
2772.00,1.8563
2771.00,1.8559
2770.00,1.8553
2769.00,1.8544
2768.00,1.8533
2767.00,1.8522
2766.00,1.8511
2765.00,1.8498
2764.00,1.8485
2763.00,1.8476
2762.00,1.8476
2761.00,1.8478
2760.00,1.8473
2759.00,1.8456
2758.00,1.8435
2757.00,1.8420
2756.00,1.8418
2755.00,1.8423
2754.00,1.8425
2753.00,1.8419
2752.00,1.8413
2751.00,1.8415
2750.00,1.8425
2749.00,1.8431
2748.00,1.8427
2747.00,1.8417
2746.00,1.8409
2745.00,1.8407
2744.00,1.8408
2743.00,1.8409
2742.00,1.8411
2741.00,1.8418
2740.00,1.8428
2739.00,1.8436
2738.00,1.8437
2737.00,1.8432
2736.00,1.8426
2735.00,1.8427
2734.00,1.8437
2733.00,1.8448
2732.00,1.8457
2731.00,1.8463
2730.00,1.8473
2729.00,1.8485
2728.00,1.8492
2727.00,1.8491
2726.00,1.8489
2725.00,1.8492
2724.00,1.8503
2723.00,1.8513
2722.00,1.8514
2721.00,1.8510
2720.00,1.8508
2719.00,1.8510
2718.00,1.8510
2717.00,1.8505
2716.00,1.8497
2715.00,1.8495
2714.00,1.8499
2713.00,1.8506
2712.00,1.8510
2711.00,1.8514
2710.00,1.8523
2709.00,1.8539
2708.00,1.8554
2707.00,1.8564
2706.00,1.8567
2705.00,1.8569
2704.00,1.8574
2703.00,1.8584
2702.00,1.8598
2701.00,1.8607
2700.00,1.8603
2699.00,1.8585
2698.00,1.8562
2697.00,1.8547
2696.00,1.8541
2695.00,1.8538
2694.00,1.8531
2693.00,1.8525
2692.00,1.8527
2691.00,1.8538
2690.00,1.8550
2689.00,1.8555
2688.00,1.8552
2687.00,1.8543
2686.00,1.8538
2685.00,1.8542
2684.00,1.8559
2683.00,1.8582
2682.00,1.8599
2681.00,1.8598
2680.00,1.8581
2679.00,1.8556
2678.00,1.8534
2677.00,1.8519
2676.00,1.8514
2675.00,1.8516
2674.00,1.8520
2673.00,1.8523
2672.00,1.8526
2671.00,1.8533
2670.00,1.8544
2669.00,1.8553
2668.00,1.8557
2667.00,1.8559
2666.00,1.8565
2665.00,1.8571
2664.00,1.8573
2663.00,1.8572
2662.00,1.8573
2661.00,1.8580
2660.00,1.8593
2659.00,1.8607
2658.00,1.8619
2657.00,1.8624
2656.00,1.8622
2655.00,1.8615
2654.00,1.8608
2653.00,1.8605
2652.00,1.8608
2651.00,1.8612
2650.00,1.8616
2649.00,1.8616
2648.00,1.8613
2647.00,1.8608
2646.00,1.8603
2645.00,1.8599
2644.00,1.8597
2643.00,1.8601
2642.00,1.8609
2641.00,1.8621
2640.00,1.8632
2639.00,1.8640
2638.00,1.8643
2637.00,1.8648
2636.00,1.8660
2635.00,1.8679
2634.00,1.8692
2633.00,1.8691
2632.00,1.8674
2631.00,1.8654
2630.00,1.8642
2629.00,1.8641
2628.00,1.8650
2627.00,1.8663
2626.00,1.8676
2625.00,1.8690
2624.00,1.8704
2623.00,1.8716
2622.00,1.8726
2621.00,1.8730
2620.00,1.8731
2619.00,1.8734
2618.00,1.8740
2617.00,1.8752
2616.00,1.8765
2615.00,1.8775
2614.00,1.8778
2613.00,1.8776
2612.00,1.8775
2611.00,1.8781
2610.00,1.8791
2609.00,1.8800
2608.00,1.8808
2607.00,1.8817
2606.00,1.8825
2605.00,1.8825
2604.00,1.8820
2603.00,1.8820
2602.00,1.8834
2601.00,1.8854
2600.00,1.8868
2599.00,1.8870
2598.00,1.8867
2597.00,1.8870
2596.00,1.8881
2595.00,1.8896
2594.00,1.8906
2593.00,1.8909
2592.00,1.8903
2591.00,1.8892
2590.00,1.8884
2589.00,1.8887
2588.00,1.8900
2587.00,1.8913
2586.00,1.8919
2585.00,1.8918
2584.00,1.8925
2583.00,1.8946
2582.00,1.8975
2581.00,1.8996
2580.00,1.8999
2579.00,1.8989
2578.00,1.8979
2577.00,1.8982
2576.00,1.8995
2575.00,1.9014
2574.00,1.9029
2573.00,1.9039
2572.00,1.9047
2571.00,1.9055
2570.00,1.9067
2569.00,1.9083
2568.00,1.9097
2567.00,1.9104
2566.00,1.9107
2565.00,1.9115
2564.00,1.9133
2563.00,1.9154
2562.00,1.9172
2561.00,1.9188
2560.00,1.9205
2559.00,1.9224
2558.00,1.9238
2557.00,1.9249
2556.00,1.9263
2555.00,1.9286
2554.00,1.9313
2553.00,1.9333
2552.00,1.9343
2551.00,1.9341
2550.00,1.9331
2549.00,1.9317
2548.00,1.9311
2547.00,1.9322
2546.00,1.9344
2545.00,1.9365
2544.00,1.9372
2543.00,1.9370
2542.00,1.9372
2541.00,1.9388
2540.00,1.9415
2539.00,1.9442
2538.00,1.9455
2537.00,1.9450
2536.00,1.9434
2535.00,1.9415
2534.00,1.9399
2533.00,1.9388
2532.00,1.9386
2531.00,1.9398
2530.00,1.9421
2529.00,1.9444
2528.00,1.9453
2527.00,1.9445
2526.00,1.9432
2525.00,1.9428
2524.00,1.9435
2523.00,1.9439
2522.00,1.9428
2521.00,1.9408
2520.00,1.9394
2519.00,1.9389
2518.00,1.9386
2517.00,1.9375
2516.00,1.9356
2515.00,1.9331
2514.00,1.9292
2513.00,1.9235
2512.00,1.9163
2511.00,1.9086
2510.00,1.9010
2509.00,1.8934
2508.00,1.8862
2507.00,1.8794
2506.00,1.8726
2505.00,1.8651
2504.00,1.8569
2503.00,1.8487
2502.00,1.8413
2501.00,1.8351
2500.00,1.8299
2499.00,1.8253
2498.00,1.8211
2497.00,1.8168
2496.00,1.8126
2495.00,1.8093
2494.00,1.8069
2493.00,1.8051
2492.00,1.8033
2491.00,1.8011
2490.00,1.7987
2489.00,1.7965
2488.00,1.7945
2487.00,1.7926
2486.00,1.7906
2485.00,1.7889
2484.00,1.7876
2483.00,1.7867
2482.00,1.7862
2481.00,1.7857
2480.00,1.7850
2479.00,1.7840
2478.00,1.7825
2477.00,1.7809
2476.00,1.7793
2475.00,1.7782
2474.00,1.7773
2473.00,1.7763
2472.00,1.7754
2471.00,1.7746
2470.00,1.7739
2469.00,1.7732
2468.00,1.7723
2467.00,1.7713
2466.00,1.7705
2465.00,1.7699
2464.00,1.7695
2463.00,1.7691
2462.00,1.7684
2461.00,1.7676
2460.00,1.7666
2459.00,1.7653
2458.00,1.7636
2457.00,1.7614
2456.00,1.7591
2455.00,1.7571
2454.00,1.7552
2453.00,1.7537
2452.00,1.7527
2451.00,1.7522
2450.00,1.7516
2449.00,1.7506
2448.00,1.7492
2447.00,1.7481
2446.00,1.7475
2445.00,1.7472
2444.00,1.7470
2443.00,1.7468
2442.00,1.7467
2441.00,1.7467
2440.00,1.7464
2439.00,1.7455
2438.00,1.7437
2437.00,1.7418
2436.00,1.7406
2435.00,1.7406
2434.00,1.7414
2433.00,1.7423
2432.00,1.7430
2431.00,1.7436
2430.00,1.7442
2429.00,1.7446
2428.00,1.7447
2427.00,1.7448
2426.00,1.7452
2425.00,1.7459
2424.00,1.7465
2423.00,1.7471
2422.00,1.7481
2421.00,1.7503
2420.00,1.7539
2419.00,1.7582
2418.00,1.7623
2417.00,1.7661
2416.00,1.7696
2415.00,1.7729
2414.00,1.7756
2413.00,1.7773
2412.00,1.7787
2411.00,1.7802
2410.00,1.7820
2409.00,1.7841
2408.00,1.7861
2407.00,1.7877
2406.00,1.7883
2405.00,1.7879
2404.00,1.7870
2403.00,1.7863
2402.00,1.7866
2401.00,1.7880
2400.00,1.7898
2399.00,1.7911
2398.00,1.7914
2397.00,1.7911
2396.00,1.7910
2395.00,1.7918
2394.00,1.7929
2393.00,1.7940
2392.00,1.7950
2391.00,1.7957
2390.00,1.7957
2389.00,1.7953
2388.00,1.7949
2387.00,1.7950
2386.00,1.7954
2385.00,1.7960
2384.00,1.7974
2383.00,1.7999
2382.00,1.8034
2381.00,1.8074
2380.00,1.8116
2379.00,1.8159
2378.00,1.8198
2377.00,1.8232
2376.00,1.8262
2375.00,1.8291
2374.00,1.8312
2373.00,1.8321
2372.00,1.8320
2371.00,1.8322
2370.00,1.8338
2369.00,1.8366
2368.00,1.8400
2367.00,1.8432
2366.00,1.8455
2365.00,1.8468
2364.00,1.8478
2363.00,1.8493
2362.00,1.8513
2361.00,1.8539
2360.00,1.8573
2359.00,1.8616
2358.00,1.8661
2357.00,1.8698
2356.00,1.8726
2355.00,1.8750
2354.00,1.8761
2353.00,1.8748
2352.00,1.8718
2351.00,1.8694
2350.00,1.8692
2349.00,1.8709
2348.00,1.8725
2347.00,1.8727
2346.00,1.8722
2345.00,1.8723
2344.00,1.8739
2343.00,1.8758
2342.00,1.8764
2341.00,1.8760
2340.00,1.8759
2339.00,1.8772
2338.00,1.8795
2337.00,1.8811
2336.00,1.8812
2335.00,1.8800
2334.00,1.8788
2333.00,1.8783
2332.00,1.8789
2331.00,1.8801
2330.00,1.8808
2329.00,1.8805
2328.00,1.8800
2327.00,1.8803
2326.00,1.8807
2325.00,1.8798
2324.00,1.8774
2323.00,1.8741
2322.00,1.8710
2321.00,1.8682
2320.00,1.8660
2319.00,1.8643
2318.00,1.8623
2317.00,1.8587
2316.00,1.8535
2315.00,1.8478
2314.00,1.8429
2313.00,1.8390
2312.00,1.8356
2311.00,1.8322
2310.00,1.8288
2309.00,1.8252
2308.00,1.8214
2307.00,1.8171
2306.00,1.8124
2305.00,1.8078
2304.00,1.8033
2303.00,1.7990
2302.00,1.7944
2301.00,1.7897
2300.00,1.7849
2299.00,1.7804
2298.00,1.7761
2297.00,1.7723
2296.00,1.7696
2295.00,1.7677
2294.00,1.7659
2293.00,1.7636
2292.00,1.7611
2291.00,1.7587
2290.00,1.7566
2289.00,1.7543
2288.00,1.7518
2287.00,1.7493
2286.00,1.7471
2285.00,1.7452
2284.00,1.7438
2283.00,1.7433
2282.00,1.7435
2281.00,1.7439
2280.00,1.7442
2279.00,1.7443
2278.00,1.7439
2277.00,1.7427
2276.00,1.7405
2275.00,1.7384
2274.00,1.7370
2273.00,1.7364
2272.00,1.7360
2271.00,1.7353
2270.00,1.7341
2269.00,1.7324
2268.00,1.7305
2267.00,1.7289
2266.00,1.7277
2265.00,1.7268
2264.00,1.7257
2263.00,1.7240
2262.00,1.7218
2261.00,1.7195
2260.00,1.7178
2259.00,1.7166
2258.00,1.7156
2257.00,1.7147
2256.00,1.7135
2255.00,1.7118
2254.00,1.7093
2253.00,1.7061
2252.00,1.7030
2251.00,1.7005
2250.00,1.6988
2249.00,1.6969
2248.00,1.6942
2247.00,1.6904
2246.00,1.6857
2245.00,1.6807
2244.00,1.6762
2243.00,1.6726
2242.00,1.6702
2241.00,1.6684
2240.00,1.6666
2239.00,1.6644
2238.00,1.6617
2237.00,1.6589
2236.00,1.6566
2235.00,1.6550
2234.00,1.6538
2233.00,1.6525
2232.00,1.6512
2231.00,1.6500
2230.00,1.6488
2229.00,1.6473
2228.00,1.6456
2227.00,1.6439
2226.00,1.6426
2225.00,1.6417
2224.00,1.6409
2223.00,1.6401
2222.00,1.6392
2221.00,1.6381
2220.00,1.6368
2219.00,1.6354
2218.00,1.6340
2217.00,1.6321
2216.00,1.6300
2215.00,1.6280
2214.00,1.6266
2213.00,1.6254
2212.00,1.6240
2211.00,1.6223
2210.00,1.6202
2209.00,1.6179
2208.00,1.6156
2207.00,1.6137
2206.00,1.6124
2205.00,1.6111
2204.00,1.6094
2203.00,1.6073
2202.00,1.6051
2201.00,1.6032
2200.00,1.6020
2199.00,1.6014
2198.00,1.6011
2197.00,1.6003
2196.00,1.5989
2195.00,1.5975
2194.00,1.5967
2193.00,1.5966
2192.00,1.5965
2191.00,1.5962
2190.00,1.5954
2189.00,1.5944
2188.00,1.5935
2187.00,1.5928
2186.00,1.5925
2185.00,1.5926
2184.00,1.5933
2183.00,1.5940
2182.00,1.5944
2181.00,1.5942
2180.00,1.5936
2179.00,1.5931
2178.00,1.5931
2177.00,1.5936
2176.00,1.5940
2175.00,1.5941
2174.00,1.5942
2173.00,1.5943
2172.00,1.5945
2171.00,1.5946
2170.00,1.5946
2169.00,1.5945
2168.00,1.5945
2167.00,1.5943
2166.00,1.5940
2165.00,1.5935
2164.00,1.5932
2163.00,1.5928
2162.00,1.5921
2161.00,1.5908
2160.00,1.5894
2159.00,1.5884
2158.00,1.5880
2157.00,1.5877
2156.00,1.5872
2155.00,1.5862
2154.00,1.5849
2153.00,1.5833
2152.00,1.5817
2151.00,1.5801
2150.00,1.5788
2149.00,1.5777
2148.00,1.5766
2147.00,1.5754
2146.00,1.5740
2145.00,1.5728
2144.00,1.5717
2143.00,1.5708
2142.00,1.5699
2141.00,1.5690
2140.00,1.5679
2139.00,1.5667
2138.00,1.5656
2137.00,1.5644
2136.00,1.5632
2135.00,1.5617
2134.00,1.5601
2133.00,1.5587
2132.00,1.5576
2131.00,1.5567
2130.00,1.5558
2129.00,1.5549
2128.00,1.5541
2127.00,1.5532
2126.00,1.5519
2125.00,1.5505
2124.00,1.5492
2123.00,1.5481
2122.00,1.5468
2121.00,1.5449
2120.00,1.5427
2119.00,1.5406
2118.00,1.5389
2117.00,1.5375
2116.00,1.5361
2115.00,1.5346
2114.00,1.5329
2113.00,1.5311
2112.00,1.5295
2111.00,1.5281
2110.00,1.5266
2109.00,1.5249
2108.00,1.5232
2107.00,1.5215
2106.00,1.5200
2105.00,1.5186
2104.00,1.5173
2103.00,1.5157
2102.00,1.5140
2101.00,1.5122
2100.00,1.5104
2099.00,1.5086
2098.00,1.5066
2097.00,1.5043
2096.00,1.5022
2095.00,1.5005
2094.00,1.4990
2093.00,1.4977
2092.00,1.4966
2091.00,1.4959
2090.00,1.4955
2089.00,1.4948
2088.00,1.4939
2087.00,1.4929
2086.00,1.4919
2085.00,1.4908
2084.00,1.4894
2083.00,1.4879
2082.00,1.4865
2081.00,1.4858
2080.00,1.4857
2079.00,1.4859
2078.00,1.4857
2077.00,1.4848
2076.00,1.4834
2075.00,1.4820
2074.00,1.4808
2073.00,1.4801
2072.00,1.4800
2071.00,1.4804
2070.00,1.4812
2069.00,1.4820
2068.00,1.4825
2067.00,1.4827
2066.00,1.4827
2065.00,1.4823
2064.00,1.4818
2063.00,1.4815
2062.00,1.4812
2061.00,1.4809
2060.00,1.4805
2059.00,1.4799
2058.00,1.4790
2057.00,1.4776
2056.00,1.4758
2055.00,1.4738
2054.00,1.4716
2053.00,1.4693
2052.00,1.4671
2051.00,1.4653
2050.00,1.4641
2049.00,1.4630
2048.00,1.4617
2047.00,1.4601
2046.00,1.4582
2045.00,1.4563
2044.00,1.4545
2043.00,1.4530
2042.00,1.4517
2041.00,1.4502
2040.00,1.4486
2039.00,1.4472
2038.00,1.4462
2037.00,1.4452
2036.00,1.4444
2035.00,1.4437
2034.00,1.4431
2033.00,1.4423
2032.00,1.4413
2031.00,1.4401
2030.00,1.4387
2029.00,1.4375
2028.00,1.4368
2027.00,1.4368
2026.00,1.4372
2025.00,1.4375
2024.00,1.4375
2023.00,1.4372
2022.00,1.4369
2021.00,1.4364
2020.00,1.4362
2019.00,1.4363
2018.00,1.4368
2017.00,1.4372
2016.00,1.4372
2015.00,1.4372
2014.00,1.4373
2013.00,1.4374
2012.00,1.4372
2011.00,1.4368
2010.00,1.4365
2009.00,1.4362
2008.00,1.4357
2007.00,1.4353
2006.00,1.4352
2005.00,1.4354
2004.00,1.4356
2003.00,1.4356
2002.00,1.4352
2001.00,1.4348
2000.00,1.4346
1999.00,1.4346
1998.00,1.4348
1997.00,1.4345
1996.00,1.4337
1995.00,1.4325
1994.00,1.4316
1993.00,1.4310
1992.00,1.4306
1991.00,1.4306
1990.00,1.4309
1989.00,1.4315
1988.00,1.4320
1987.00,1.4325
1986.00,1.4331
1985.00,1.4338
1984.00,1.4345
1983.00,1.4351
1982.00,1.4356
1981.00,1.4360
1980.00,1.4363
1979.00,1.4367
1978.00,1.4374
1977.00,1.4383
1976.00,1.4392
1975.00,1.4400
1974.00,1.4406
1973.00,1.4409
1972.00,1.4407
1971.00,1.4401
1970.00,1.4395
1969.00,1.4390
1968.00,1.4387
1967.00,1.4386
1966.00,1.4389
1965.00,1.4391
1964.00,1.4390
1963.00,1.4381
1962.00,1.4366
1961.00,1.4346
1960.00,1.4324
1959.00,1.4302
1958.00,1.4281
1957.00,1.4261
1956.00,1.4243
1955.00,1.4226
1954.00,1.4207
1953.00,1.4186
1952.00,1.4163
1951.00,1.4142
1950.00,1.4123
1949.00,1.4106
1948.00,1.4088
1947.00,1.4072
1946.00,1.4060
1945.00,1.4052
1944.00,1.4043
1943.00,1.4031
1942.00,1.4015
1941.00,1.3999
1940.00,1.3984
1939.00,1.3969
1938.00,1.3953
1937.00,1.3936
1936.00,1.3920
1935.00,1.3905
1934.00,1.3889
1933.00,1.3870
1932.00,1.3852
1931.00,1.3834
1930.00,1.3816
1929.00,1.3796
1928.00,1.3773
1927.00,1.3751
1926.00,1.3732
1925.00,1.3718
1924.00,1.3705
1923.00,1.3689
1922.00,1.3671
1921.00,1.3653
1920.00,1.3638
1919.00,1.3622
1918.00,1.3601
1917.00,1.3575
1916.00,1.3550
1915.00,1.3527
1914.00,1.3506
1913.00,1.3484
1912.00,1.3463
1911.00,1.3446
1910.00,1.3430
1909.00,1.3413
1908.00,1.3393
1907.00,1.3370
1906.00,1.3345
1905.00,1.3319
1904.00,1.3293
1903.00,1.3269
1902.00,1.3247
1901.00,1.3226
1900.00,1.3206
1899.00,1.3187
1898.00,1.3170
1897.00,1.3154
1896.00,1.3137
1895.00,1.3117
1894.00,1.3097
1893.00,1.3079
1892.00,1.3063
1891.00,1.3048
1890.00,1.3031
1889.00,1.3009
1888.00,1.2983
1887.00,1.2959
1886.00,1.2939
1885.00,1.2925
1884.00,1.2914
1883.00,1.2905
1882.00,1.2894
1881.00,1.2881
1880.00,1.2863
1879.00,1.2844
1878.00,1.2825
1877.00,1.2811
1876.00,1.2799
1875.00,1.2788
1874.00,1.2775
1873.00,1.2761
1872.00,1.2748
1871.00,1.2738
1870.00,1.2727
1869.00,1.2714
1868.00,1.2696
1867.00,1.2676
1866.00,1.2657
1865.00,1.2638
1864.00,1.2618
1863.00,1.2596
1862.00,1.2573
1861.00,1.2552
1860.00,1.2530
1859.00,1.2506
1858.00,1.2480
1857.00,1.2453
1856.00,1.2428
1855.00,1.2405
1854.00,1.2383
1853.00,1.2363
1852.00,1.2344
1851.00,1.2327
1850.00,1.2310
1849.00,1.2289
1848.00,1.2265
1847.00,1.2242
1846.00,1.2225
1845.00,1.2211
1844.00,1.2193
1843.00,1.2171
1842.00,1.2151
1841.00,1.2135
1840.00,1.2117
1839.00,1.2096
1838.00,1.2074
1837.00,1.2055
1836.00,1.2040
1835.00,1.2026
1834.00,1.2012
1833.00,1.1999
1832.00,1.1989
1831.00,1.1981
1830.00,1.1970
1829.00,1.1956
1828.00,1.1945
1827.00,1.1939
1826.00,1.1934
1825.00,1.1924
1824.00,1.1909
1823.00,1.1895
1822.00,1.1883
1821.00,1.1873
1820.00,1.1865
1819.00,1.1860
1818.00,1.1856
1817.00,1.1853
1816.00,1.1848
1815.00,1.1841
1814.00,1.1832
1813.00,1.1825
1812.00,1.1820
1811.00,1.1813
1810.00,1.1802
1809.00,1.1789
1808.00,1.1775
1807.00,1.1760
1806.00,1.1744
1805.00,1.1729
1804.00,1.1714
1803.00,1.1700
1802.00,1.1685
1801.00,1.1669
1800.00,1.1654
1799.00,1.1639
1798.00,1.1624
1797.00,1.1607
1796.00,1.1588
1795.00,1.1569
1794.00,1.1554
1793.00,1.1542
1792.00,1.1530
1791.00,1.1515
1790.00,1.1500
1789.00,1.1484
1788.00,1.1466
1787.00,1.1445
1786.00,1.1425
1785.00,1.1407
1784.00,1.1392
1783.00,1.1381
1782.00,1.1372
1781.00,1.1359
1780.00,1.1342
1779.00,1.1322
1778.00,1.1305
1777.00,1.1289
1776.00,1.1272
1775.00,1.1257
1774.00,1.1247
1773.00,1.1240
1772.00,1.1227
1771.00,1.1211
1770.00,1.1195
1769.00,1.1179
1768.00,1.1157
1767.00,1.1130
1766.00,1.1105
1765.00,1.1086
1764.00,1.1075
1763.00,1.1065
1762.00,1.1052
1761.00,1.1035
1760.00,1.1022
1759.00,1.1014
1758.00,1.1009
1757.00,1.1000
1756.00,1.0987
1755.00,1.0977
1754.00,1.0975
1753.00,1.0979
1752.00,1.0987
1751.00,1.0996
1750.00,1.1007
1749.00,1.1018
1748.00,1.1024
1747.00,1.1025
1746.00,1.1024
1745.00,1.1025
1744.00,1.1027
1743.00,1.1029
1742.00,1.1033
1741.00,1.1039
1740.00,1.1043
1739.00,1.1040
1738.00,1.1030
1737.00,1.1023
1736.00,1.1023
1735.00,1.1024
1734.00,1.1017
1733.00,1.1008
1732.00,1.1007
1731.00,1.1006
1730.00,1.0995
1729.00,1.0972
1728.00,1.0944
1727.00,1.0919
1726.00,1.0899
1725.00,1.0881
1724.00,1.0863
1723.00,1.0842
1722.00,1.0820
1721.00,1.0804
1720.00,1.0794
1719.00,1.0788
1718.00,1.0776
1717.00,1.0766
1716.00,1.0763
1715.00,1.0761
1714.00,1.0753
1713.00,1.0739
1712.00,1.0724
1711.00,1.0710
1710.00,1.0699
1709.00,1.0693
1708.00,1.0695
1707.00,1.0703
1706.00,1.0708
1705.00,1.0704
1704.00,1.0695
1703.00,1.0691
1702.00,1.0703
1701.00,1.0724
1700.00,1.0734
1699.00,1.0734
1698.00,1.0742
1697.00,1.0758
1696.00,1.0767
1695.00,1.0762
1694.00,1.0757
1693.00,1.0762
1692.00,1.0771
1691.00,1.0777
1690.00,1.0780
1689.00,1.0781
1688.00,1.0782
1687.00,1.0788
1686.00,1.0810
1685.00,1.0843
1684.00,1.0866
1683.00,1.0877
1682.00,1.0889
1681.00,1.0900
1680.00,1.0902
1679.00,1.0899
1678.00,1.0903
1677.00,1.0921
1676.00,1.0945
1675.00,1.0965
1674.00,1.0980
1673.00,1.0998
1672.00,1.1024
1671.00,1.1054
1670.00,1.1081
1669.00,1.1104
1668.00,1.1124
1667.00,1.1146
1666.00,1.1172
1665.00,1.1204
1664.00,1.1241
1663.00,1.1276
1662.00,1.1308
1661.00,1.1341
1660.00,1.1376
1659.00,1.1414
1658.00,1.1452
1657.00,1.1490
1656.00,1.1533
1655.00,1.1592
1654.00,1.1666
1653.00,1.1728
1652.00,1.1776
1651.00,1.1829
1650.00,1.1887
1649.00,1.1947
1648.00,1.2006
1647.00,1.2061
1646.00,1.2112
1645.00,1.2164
1644.00,1.2221
1643.00,1.2278
1642.00,1.2334
1641.00,1.2392
1640.00,1.2452
1639.00,1.2517
1638.00,1.2590
1637.00,1.2673
1636.00,1.2755
1635.00,1.2823
1634.00,1.2880
1633.00,1.2939
1632.00,1.3002
1631.00,1.3068
1630.00,1.3138
1629.00,1.3214
1628.00,1.3287
1627.00,1.3355
1626.00,1.3425
1625.00,1.3507
1624.00,1.3600
1623.00,1.3693
1622.00,1.3782
1621.00,1.3872
1620.00,1.3969
1619.00,1.4079
1618.00,1.4209
1617.00,1.4362
1616.00,1.4527
1615.00,1.4701
1614.00,1.4890
1613.00,1.5110
1612.00,1.5359
1611.00,1.5629
1610.00,1.5906
1609.00,1.6185
1608.00,1.6465
1607.00,1.6739
1606.00,1.7010
1605.00,1.7281
1604.00,1.7553
1603.00,1.7819
1602.00,1.8077
1601.00,1.8337
1600.00,1.8597
1599.00,1.8844
1598.00,1.9077
1597.00,1.9317
1596.00,1.9576
1595.00,1.9836
1594.00,2.0085
1593.00,2.0329
1592.00,2.0574
1591.00,2.0816
1590.00,2.1058
1589.00,2.1310
1588.00,2.1556
1587.00,2.1772
1586.00,2.1975
1585.00,2.2218
1584.00,2.2508
1583.00,2.2801
1582.00,2.3063
1581.00,2.3307
1580.00,2.3536
1579.00,2.3730
1578.00,2.3903
1577.00,2.4123
1576.00,2.4415
1575.00,2.4711
1574.00,2.4966
1573.00,2.5223
1572.00,2.5509
1571.00,2.5771
1570.00,2.5961
1569.00,2.6121
1568.00,2.6293
1567.00,2.6454
1566.00,2.6621
1565.00,2.6862
1564.00,2.7155
1563.00,2.7361
1562.00,2.7428
1561.00,2.7508
1560.00,2.7755
1559.00,2.8070
1558.00,2.8222
1557.00,2.8254
1556.00,2.8319
1555.00,2.8396
1554.00,2.8445
1553.00,2.8513
1552.00,2.8649
1551.00,2.8804
1550.00,2.8910
1549.00,2.8977
1548.00,2.9026
1547.00,2.9035
1546.00,2.9056
1545.00,2.9223
1544.00,2.9555
1543.00,2.9872
1542.00,3.0002
1541.00,3.0012
1540.00,3.0004
1539.00,2.9916
1538.00,2.9737
1537.00,2.9593
1536.00,2.9573
1535.00,2.9715
1534.00,3.0054
1533.00,3.0553
1532.00,3.0979
1531.00,3.1090
1530.00,3.0986
1529.00,3.0942
1528.00,3.1029
1527.00,3.1131
1526.00,3.1235
1525.00,3.1455
1524.00,3.1705
1523.00,3.1683
1522.00,3.1382
1521.00,3.1162
1520.00,3.1134
1519.00,3.1077
1518.00,3.0937
1517.00,3.0909
1516.00,3.1046
1515.00,3.1188
1514.00,3.1219
1513.00,3.1175
1512.00,3.1064
1511.00,3.0858
1510.00,3.0645
1509.00,3.0551
1508.00,3.0513
1507.00,3.0332
1506.00,3.0103
1505.00,3.0138
1504.00,3.0418
1503.00,3.0607
1502.00,3.0500
1501.00,3.0242
1500.00,3.0050
1499.00,2.9994
1498.00,3.0072
1497.00,3.0303
1496.00,3.0618
1495.00,3.0839
1494.00,3.0918
1493.00,3.0958
1492.00,3.0934
1491.00,3.0718
1490.00,3.0430
1489.00,3.0409
1488.00,3.0794
1487.00,3.1394
1486.00,3.1929
1485.00,3.2289
1484.00,3.2514
1483.00,3.2653
1482.00,3.2769
1481.00,3.2903
1480.00,3.2950
1479.00,3.2730
1478.00,3.2261
1477.00,3.1755
1476.00,3.1367
1475.00,3.1165
1474.00,3.1247
1473.00,3.1654
1472.00,3.2099
1471.00,3.2163
1470.00,3.1889
1469.00,3.1593
1468.00,3.1372
1467.00,3.1141
1466.00,3.0913
1465.00,3.0860
1464.00,3.1059
1463.00,3.1348
1462.00,3.1523
1461.00,3.1561
1460.00,3.1521
1459.00,3.1466
1458.00,3.1572
1457.00,3.2039
1456.00,3.2628
1455.00,3.2755
1454.00,3.2474
1453.00,3.2315
1452.00,3.2497
1451.00,3.2835
1450.00,3.3044
1449.00,3.3103
1448.00,3.3050
1447.00,3.2889
1446.00,3.2747
1445.00,3.2773
1444.00,3.2969
1443.00,3.3121
1442.00,3.3104
1441.00,3.3122
1440.00,3.3331
1439.00,3.3538
1438.00,3.3547
1437.00,3.3565
1436.00,3.3810
1435.00,3.4025
1434.00,3.3864
1433.00,3.3532
1432.00,3.3340
1431.00,3.3321
1430.00,3.3403
1429.00,3.3503
1428.00,3.3406
1427.00,3.2990
1426.00,3.2601
1425.00,3.2658
1424.00,3.3200
1423.00,3.3757
1422.00,3.3719
1421.00,3.3145
1420.00,3.2540
1419.00,3.2145
1418.00,3.1972
1417.00,3.2041
1416.00,3.2288
1415.00,3.2471
1414.00,3.2405
1413.00,3.2175
1412.00,3.1971
1411.00,3.1926
1410.00,3.2182
1409.00,3.2896
1408.00,3.4092
1407.00,3.5274
1406.00,3.5584
1405.00,3.5137
1404.00,3.4597
1403.00,3.4110
1402.00,3.3598
1401.00,3.3199
1400.00,3.3107
1399.00,3.3330
1398.00,3.3651
1397.00,3.3674
1396.00,3.3477
1395.00,3.3558
1394.00,3.3962
1393.00,3.4423
1392.00,3.4869
1391.00,3.5249
1390.00,3.5400
1389.00,3.5221
1388.00,3.4740
1387.00,3.4282
1386.00,3.4149
1385.00,3.4157
1384.00,3.3826
1383.00,3.3092
1382.00,3.2396
1381.00,3.2104
1380.00,3.2294
1379.00,3.2773
1378.00,3.3152
1377.00,3.3149
1376.00,3.2881
1375.00,3.2647
1374.00,3.2600
1373.00,3.2695
1372.00,3.2766
1371.00,3.2664
1370.00,3.2415
1369.00,3.2154
1368.00,3.1966
1367.00,3.1902
1366.00,3.1994
1365.00,3.2125
1364.00,3.2056
1363.00,3.1699
1362.00,3.1263
1361.00,3.0970
1360.00,3.0800
1359.00,3.0619
1358.00,3.0421
1357.00,3.0298
1356.00,3.0296
1355.00,3.0410
1354.00,3.0638
1353.00,3.0934
1352.00,3.1155
1351.00,3.1163
1350.00,3.0997
1349.00,3.0799
1348.00,3.0607
1347.00,3.0327
1346.00,2.9954
1345.00,2.9640
1344.00,2.9513
1343.00,2.9530
1342.00,2.9522
1341.00,2.9353
1340.00,2.9064
1339.00,2.8815
1338.00,2.8732
1337.00,2.8810
1336.00,2.8913
1335.00,2.8925
1334.00,2.8861
1333.00,2.8821
1332.00,2.8886
1331.00,2.9075
1330.00,2.9382
1329.00,2.9770
1328.00,3.0101
1327.00,3.0239
1326.00,3.0248
1325.00,3.0311
1324.00,3.0521
1323.00,3.0862
1322.00,3.1308
1321.00,3.1841
1320.00,3.2324
1319.00,3.2430
1318.00,3.1964
1317.00,3.1254
1316.00,3.0728
1315.00,3.0544
1314.00,3.0693
1313.00,3.1099
1312.00,3.1640
1311.00,3.2176
1310.00,3.2590
1309.00,3.2817
1308.00,3.2862
1307.00,3.2758
1306.00,3.2548
1305.00,3.2293
1304.00,3.2057
1303.00,3.1897
1302.00,3.1856
1301.00,3.1905
1300.00,3.1933
1299.00,3.1854
1298.00,3.1659
1297.00,3.1346
1296.00,3.0907
1295.00,3.0416
1294.00,3.0046
1293.00,2.9921
1292.00,3.0024
1291.00,3.0280
1290.00,3.0681
1289.00,3.1244
1288.00,3.1832
1287.00,3.2111
1286.00,3.1984
1285.00,3.1726
1284.00,3.1567
1283.00,3.1555
1282.00,3.1679
1281.00,3.1945
1280.00,3.2271
1279.00,3.2403
1278.00,3.2187
1277.00,3.1766
1276.00,3.1331
1275.00,3.1039
1274.00,3.1047
1273.00,3.1407
1272.00,3.1970
1271.00,3.2494
1270.00,3.2927
1269.00,3.3424
1268.00,3.4053
1267.00,3.4678
1266.00,3.5205
1265.00,3.5614
1264.00,3.5750
1263.00,3.5455
1262.00,3.4852
1261.00,3.4111
1260.00,3.3316
1259.00,3.2667
1258.00,3.2323
1257.00,3.2225
1256.00,3.2156
1255.00,3.1935
1254.00,3.1557
1253.00,3.1151
1252.00,3.0841
1251.00,3.0687
1250.00,3.0733
1249.00,3.1011
1248.00,3.1430
1247.00,3.1750
1246.00,3.1872
1245.00,3.1925
1244.00,3.2048
1243.00,3.2301
1242.00,3.2581
1241.00,3.2953
1240.00,3.3660
1239.00,3.4443
1238.00,3.4601
1237.00,3.4041
1236.00,3.3252
1235.00,3.2511
1234.00,3.1905
1233.00,3.1557
1232.00,3.1530
1231.00,3.1743
1230.00,3.2115
1229.00,3.2628
1228.00,3.3145
1227.00,3.3387
1226.00,3.3275
1225.00,3.2927
1224.00,3.2320
1223.00,3.1467
1222.00,3.0635
1221.00,3.0039
1220.00,2.9635
1219.00,2.9294
1218.00,2.9040
1217.00,2.9002
1216.00,2.9194
1215.00,2.9482
1214.00,2.9737
1213.00,2.9940
1212.00,3.0073
1211.00,3.0056
1210.00,2.9933
1209.00,2.9963
1208.00,3.0313
1207.00,3.0779
1206.00,3.0940
1205.00,3.0707
1204.00,3.0401
1203.00,3.0246
1202.00,3.0217
1201.00,3.0239
1200.00,3.0318
1199.00,3.0443
1198.00,3.0592
1197.00,3.0823
1196.00,3.1202
1195.00,3.1712
1194.00,3.2215
1193.00,3.2462
1192.00,3.2292
1191.00,3.1895
1190.00,3.1638
1189.00,3.1677
1188.00,3.1889
1187.00,3.2169
1186.00,3.2541
1185.00,3.2963
1184.00,3.3294
1183.00,3.3267
1182.00,3.2762
1181.00,3.1991
1180.00,3.1276
1179.00,3.0918
1178.00,3.1061
1177.00,3.1475
1176.00,3.1489
1175.00,3.0785
1174.00,2.9870
1173.00,2.9321
1172.00,2.9354
1171.00,2.9819
1170.00,3.0323
1169.00,3.0487
1168.00,3.0236
1167.00,2.9787
1166.00,2.9405
1165.00,2.9308
1164.00,2.9623
1163.00,3.0259
1162.00,3.0865
1161.00,3.1227
1160.00,3.1493
1159.00,3.1803
1158.00,3.2053
1157.00,3.2009
1156.00,3.1666
1155.00,3.1314
1154.00,3.1206
1153.00,3.1421
1152.00,3.1812
1151.00,3.2091
1150.00,3.2213
1149.00,3.2299
1148.00,3.2315
1147.00,3.2134
1146.00,3.1756
1145.00,3.1348
1144.00,3.0991
1143.00,3.0700
1142.00,3.0533
1141.00,3.0529
1140.00,3.0577
1139.00,3.0532
1138.00,3.0451
1137.00,3.0432
1136.00,3.0434
1135.00,3.0461
1134.00,3.0621
1133.00,3.0909
1132.00,3.1097
1131.00,3.0989
1130.00,3.0785
1129.00,3.0821
1128.00,3.1078
1127.00,3.1274
1126.00,3.1370
1125.00,3.1414
1124.00,3.1317
1123.00,3.1196
1122.00,3.1307
1121.00,3.1694
1120.00,3.1963
1119.00,3.1699
1118.00,3.1326
1117.00,3.1369
1116.00,3.1721
1115.00,3.1827
1114.00,3.1518
1113.00,3.1310
1112.00,3.1494
1111.00,3.1802
1110.00,3.1774
1109.00,3.1432
1108.00,3.1079
1107.00,3.0741
1106.00,3.0388
1105.00,3.0157
1104.00,3.0166
1103.00,3.0277
1102.00,3.0237
1101.00,3.0067
1100.00,2.9946
1099.00,2.9838
1098.00,2.9500
1097.00,2.8925
1096.00,2.8355
1095.00,2.7867
1094.00,2.7441
1093.00,2.7167
1092.00,2.7150
1091.00,2.7345
1090.00,2.7534
1089.00,2.7484
1088.00,2.7147
1087.00,2.6668
1086.00,2.6189
1085.00,2.5753
1084.00,2.5371
1083.00,2.5084
1082.00,2.4932
1081.00,2.4888
1080.00,2.4849
1079.00,2.4728
1078.00,2.4536
1077.00,2.4338
1076.00,2.4175
1075.00,2.4033
1074.00,2.3891
1073.00,2.3748
1072.00,2.3610
1071.00,2.3472
1070.00,2.3331
1069.00,2.3194
1068.00,2.3064
1067.00,2.2940
1066.00,2.2834
1065.00,2.2755
1064.00,2.2685
1063.00,2.2589
1062.00,2.2461
1061.00,2.2336
1060.00,2.2250
1059.00,2.2193
1058.00,2.2122
1057.00,2.2010
1056.00,2.1870
1055.00,2.1732
1054.00,2.1626
1053.00,2.1554
1052.00,2.1494
1051.00,2.1428
1050.00,2.1365
1049.00,2.1337
1048.00,2.1351
1047.00,2.1375
1046.00,2.1370
1045.00,2.1336
1044.00,2.1304
1043.00,2.1298
1042.00,2.1296
1041.00,2.1258
1040.00,2.1169
1039.00,2.1072
1038.00,2.1022
1037.00,2.1034
1036.00,2.1069
1035.00,2.1082
1034.00,2.1070
1033.00,2.1046
1032.00,2.1010
1031.00,2.0954
1030.00,2.0900
1029.00,2.0894
1028.00,2.0945
1027.00,2.1017
1026.00,2.1055
1025.00,2.1043
1024.00,2.1016
1023.00,2.1022
1022.00,2.1088
1021.00,2.1212
1020.00,2.1359
1019.00,2.1486
1018.00,2.1574
1017.00,2.1633
1016.00,2.1692
1015.00,2.1775
1014.00,2.1918
1013.00,2.2160
1012.00,2.2528
1011.00,2.3019
1010.00,2.3606
1009.00,2.4227
1008.00,2.4785
1007.00,2.5192
1006.00,2.5462
1005.00,2.5696
1004.00,2.5988
1003.00,2.6358
1002.00,2.6792
1001.00,2.7266
1000.00,2.7727
999.00,2.8094
998.00,2.8325
997.00,2.8473
996.00,2.8618
995.00,2.8794
994.00,2.8950
993.00,2.9013
992.00,2.8998
991.00,2.9020
990.00,2.9248
989.00,2.9738
988.00,3.0259
987.00,3.0486
986.00,3.0461
985.00,3.0461
984.00,3.0488
983.00,3.0306
982.00,2.9944
981.00,2.9723
980.00,2.9799
979.00,2.9990
978.00,2.9984
977.00,2.9700
976.00,2.9199
975.00,2.8414
974.00,2.7381
973.00,2.6357
972.00,2.5516
971.00,2.4855
970.00,2.4297
969.00,2.3777
968.00,2.3276
967.00,2.2819
966.00,2.2433
965.00,2.2103
964.00,2.1763
963.00,2.1340
962.00,2.0835
961.00,2.0318
960.00,1.9857
959.00,1.9474
958.00,1.9163
957.00,1.8909
956.00,1.8693
955.00,1.8495
954.00,1.8300
953.00,1.8118
952.00,1.7964
951.00,1.7846
950.00,1.7749
949.00,1.7656
948.00,1.7562
947.00,1.7480
946.00,1.7423
945.00,1.7389
944.00,1.7360
943.00,1.7316
942.00,1.7258
941.00,1.7199
940.00,1.7153
939.00,1.7117
938.00,1.7087
937.00,1.7059
936.00,1.7031
935.00,1.6996
934.00,1.6952
933.00,1.6905
932.00,1.6866
931.00,1.6838
930.00,1.6817
929.00,1.6802
928.00,1.6790
927.00,1.6777
926.00,1.6754
925.00,1.6719
924.00,1.6678
923.00,1.6634
922.00,1.6590
921.00,1.6546
920.00,1.6499
919.00,1.6444
918.00,1.6374
917.00,1.6292
916.00,1.6205
915.00,1.6117
914.00,1.6032
913.00,1.5952
912.00,1.5879
911.00,1.5810
910.00,1.5740
909.00,1.5668
908.00,1.5595
907.00,1.5528
906.00,1.5471
905.00,1.5423
904.00,1.5377
903.00,1.5329
902.00,1.5281
901.00,1.5238
900.00,1.5204
899.00,1.5176
898.00,1.5146
897.00,1.5106
896.00,1.5051
895.00,1.4989
894.00,1.4929
893.00,1.4878
892.00,1.4834
891.00,1.4787
890.00,1.4737
889.00,1.4694
888.00,1.4665
887.00,1.4645
886.00,1.4625
885.00,1.4599
884.00,1.4566
883.00,1.4522
882.00,1.4467
881.00,1.4404
880.00,1.4342
879.00,1.4286
878.00,1.4240
877.00,1.4202
876.00,1.4168
875.00,1.4133
874.00,1.4091
873.00,1.4046
872.00,1.4005
871.00,1.3971
870.00,1.3940
869.00,1.3903
868.00,1.3860
867.00,1.3817
866.00,1.3780
865.00,1.3751
864.00,1.3728
863.00,1.3706
862.00,1.3688
861.00,1.3677
860.00,1.3673
859.00,1.3671
858.00,1.3659
857.00,1.3638
856.00,1.3617
855.00,1.3609
854.00,1.3620
853.00,1.3642
852.00,1.3667
851.00,1.3687
850.00,1.3699
849.00,1.3706
848.00,1.3706
847.00,1.3695
846.00,1.3671
845.00,1.3638
844.00,1.3606
843.00,1.3579
842.00,1.3558
841.00,1.3541
840.00,1.3530
839.00,1.3535
838.00,1.3562
837.00,1.3620
836.00,1.3717
835.00,1.3860
834.00,1.4049
833.00,1.4272
832.00,1.4514
831.00,1.4766
830.00,1.5039
829.00,1.5354
828.00,1.5750
827.00,1.6285
826.00,1.7032
825.00,1.8057
824.00,1.9374
823.00,2.0901
822.00,2.2481
821.00,2.3941
820.00,2.5138
819.00,2.5984
818.00,2.6529
817.00,2.6968
816.00,2.7413
815.00,2.7775
814.00,2.7944
813.00,2.7931
812.00,2.7805
811.00,2.7560
810.00,2.7199
809.00,2.6847
808.00,2.6625
807.00,2.6555
806.00,2.6655
805.00,2.6966
804.00,2.7410
803.00,2.7677
802.00,2.7510
801.00,2.7091
800.00,2.6800
799.00,2.6808
798.00,2.7035
797.00,2.7246
796.00,2.7276
795.00,2.7192
794.00,2.7026
793.00,2.6786
792.00,2.6573
791.00,2.6460
790.00,2.6547
789.00,2.6838
788.00,2.7105
787.00,2.7067
786.00,2.6703
785.00,2.6335
784.00,2.6281
783.00,2.6573
782.00,2.6993
781.00,2.7252
780.00,2.7242
779.00,2.7118
778.00,2.7102
777.00,2.7248
776.00,2.7349
775.00,2.7088
774.00,2.6580
773.00,2.6207
772.00,2.6097
771.00,2.6088
770.00,2.5941
769.00,2.5604
768.00,2.5236
767.00,2.4992
766.00,2.4918
765.00,2.4972
764.00,2.5053
763.00,2.5047
762.00,2.4916
761.00,2.4697
760.00,2.4436
759.00,2.4185
758.00,2.4034
757.00,2.4080
756.00,2.4332
755.00,2.4648
754.00,2.4854
753.00,2.4948
752.00,2.5051
751.00,2.5190
750.00,2.5283
749.00,2.5308
748.00,2.5353
747.00,2.5470
746.00,2.5568
745.00,2.5518
744.00,2.5325
743.00,2.5083
742.00,2.4815
741.00,2.4471
740.00,2.4057
739.00,2.3647
738.00,2.3332
737.00,2.3181
736.00,2.3172
735.00,2.3180
734.00,2.3061
733.00,2.2789
732.00,2.2473
731.00,2.2243
730.00,2.2156
729.00,2.2189
728.00,2.2273
727.00,2.2345
726.00,2.2367
725.00,2.2355
724.00,2.2386
723.00,2.2536
722.00,2.2791
721.00,2.3042
720.00,2.3187
719.00,2.3230
718.00,2.3267
717.00,2.3332
716.00,2.3352
715.00,2.3262
714.00,2.3067
713.00,2.2787
712.00,2.2448
711.00,2.2150
710.00,2.2017
709.00,2.2079
708.00,2.2209
707.00,2.2219
706.00,2.2060
705.00,2.1862
704.00,2.1769
703.00,2.1810
702.00,2.1925
701.00,2.2012
700.00,2.1985
699.00,2.1832
698.00,2.1638
697.00,2.1508
696.00,2.1463
695.00,2.1440
694.00,2.1398
693.00,2.1390
692.00,2.1468
691.00,2.1568
690.00,2.1565
689.00,2.1429
688.00,2.1257
687.00,2.1152
686.00,2.1142
685.00,2.1198
684.00,2.1251
683.00,2.1228
682.00,2.1120
681.00,2.1019
680.00,2.1040
679.00,2.1197
678.00,2.1399
677.00,2.1526
676.00,2.1534
675.00,2.1473
674.00,2.1414
673.00,2.1395
672.00,2.1410
671.00,2.1450
670.00,2.1548
669.00,2.1747
668.00,2.1992
667.00,2.2121
666.00,2.2096
665.00,2.2051
664.00,2.2086
663.00,2.2177
662.00,2.2246
661.00,2.2271
660.00,2.2275
659.00,2.2251
658.00,2.2188
657.00,2.2157
656.00,2.2254
655.00,2.2498
654.00,2.2809
653.00,2.3091
652.00,2.3295
651.00,2.3369
650.00,2.3262
649.00,2.3015
648.00,2.2750
647.00,2.2526
646.00,2.2321
645.00,2.2118
644.00,2.1966
643.00,2.1921
642.00,2.1975
641.00,2.2040
640.00,2.1994
639.00,2.1755
638.00,2.1365
637.00,2.0966
636.00,2.0675
635.00,2.0488
634.00,2.0298
633.00,2.0020
632.00,1.9662
631.00,1.9278
630.00,1.8901
629.00,1.8559
628.00,1.8304
627.00,1.8166
626.00,1.8105
625.00,1.8025
624.00,1.7874
623.00,1.7689
622.00,1.7551
621.00,1.7497
620.00,1.7497
619.00,1.7490
618.00,1.7441
617.00,1.7377
616.00,1.7335
615.00,1.7302
614.00,1.7230
613.00,1.7106
612.00,1.6977
611.00,1.6875
610.00,1.6772
609.00,1.6626
608.00,1.6450
607.00,1.6304
606.00,1.6225
605.00,1.6197
604.00,1.6186
603.00,1.6156
602.00,1.6082
601.00,1.5975
600.00,1.5877
599.00,1.5813
598.00,1.5754
597.00,1.5654
596.00,1.5511
595.00,1.5371
594.00,1.5262
593.00,1.5173
592.00,1.5082
591.00,1.4994
590.00,1.4931
589.00,1.4897
588.00,1.4886
587.00,1.4902
586.00,1.4947
585.00,1.5008
584.00,1.5070
583.00,1.5119
582.00,1.5150
581.00,1.5161
580.00,1.5168
579.00,1.5204
578.00,1.5294
577.00,1.5424
576.00,1.5556
575.00,1.5664
574.00,1.5746
573.00,1.5814
572.00,1.5872
571.00,1.5929
570.00,1.5985
569.00,1.6028
568.00,1.6056
567.00,1.6099
566.00,1.6176
565.00,1.6266
564.00,1.6311
563.00,1.6277
562.00,1.6199
561.00,1.6155
560.00,1.6200
559.00,1.6348
558.00,1.6578
557.00,1.6832
556.00,1.7043
555.00,1.7179
554.00,1.7280
553.00,1.7436
552.00,1.7696
551.00,1.8035
550.00,1.8388
