Created as New Dataset,
cm-1,A
4000.00,1.5995
3999.00,1.5993
3998.00,1.5988
3997.00,1.5982
3996.00,1.5976
3995.00,1.5971
3994.00,1.5964
3993.00,1.5957
3992.00,1.5952
3991.00,1.5952
3990.00,1.5956
3989.00,1.5960
3988.00,1.5958
3987.00,1.5950
3986.00,1.5939
3985.00,1.5930
3984.00,1.5924
3983.00,1.5921
3982.00,1.5920
3981.00,1.5919
3980.00,1.5917
3979.00,1.5914
3978.00,1.5909
3977.00,1.5905
3976.00,1.5903
3975.00,1.5905
3974.00,1.5909
3973.00,1.5914
3972.00,1.5918
3971.00,1.5917
3970.00,1.5914
3969.00,1.5909
3968.00,1.5907
3967.00,1.5906
3966.00,1.5904
3965.00,1.5899
3964.00,1.5893
3963.00,1.5888
3962.00,1.5886
3961.00,1.5885
3960.00,1.5883
3959.00,1.5880
3958.00,1.5878
3957.00,1.5879
3956.00,1.5879
3955.00,1.5879
3954.00,1.5879
3953.00,1.5880
3952.00,1.5881
3951.00,1.5881
3950.00,1.5879
3949.00,1.5878
3948.00,1.5878
3947.00,1.5877
3946.00,1.5872
3945.00,1.5860
3944.00,1.5845
3943.00,1.5832
3942.00,1.5826
3941.00,1.5827
3940.00,1.5830
3939.00,1.5831
3938.00,1.5831
3937.00,1.5832
3936.00,1.5838
3935.00,1.5847
3934.00,1.5856
3933.00,1.5860
3932.00,1.5859
3931.00,1.5858
3930.00,1.5860
3929.00,1.5864
3928.00,1.5866
3927.00,1.5861
3926.00,1.5849
3925.00,1.5835
3924.00,1.5826
3923.00,1.5823
3922.00,1.5822
3921.00,1.5817
3920.00,1.5809
3919.00,1.5805
3918.00,1.5810
3917.00,1.5819
3916.00,1.5829
3915.00,1.5838
3914.00,1.5846
3913.00,1.5851
3912.00,1.5848
3911.00,1.5837
3910.00,1.5822
3909.00,1.5811
3908.00,1.5805
3907.00,1.5804
3906.00,1.5807
3905.00,1.5810
3904.00,1.5812
3903.00,1.5813
3902.00,1.5813
3901.00,1.5812
3900.00,1.5811
3899.00,1.5812
3898.00,1.5817
3897.00,1.5826
3896.00,1.5834
3895.00,1.5835
3894.00,1.5829
3893.00,1.5819
3892.00,1.5807
3891.00,1.5798
3890.00,1.5795
3889.00,1.5801
3888.00,1.5812
3887.00,1.5819
3886.00,1.5817
3885.00,1.5810
3884.00,1.5808
3883.00,1.5814
3882.00,1.5819
3881.00,1.5815
3880.00,1.5800
3879.00,1.5786
3878.00,1.5780
3877.00,1.5783
3876.00,1.5790
3875.00,1.5797
3874.00,1.5804
3873.00,1.5810
3872.00,1.5814
3871.00,1.5809
3870.00,1.5794
3869.00,1.5780
3868.00,1.5776
3867.00,1.5783
3866.00,1.5792
3865.00,1.5794
3864.00,1.5791
3863.00,1.5787
3862.00,1.5785
3861.00,1.5781
3860.00,1.5776
3859.00,1.5774
3858.00,1.5778
3857.00,1.5791
3856.00,1.5810
3855.00,1.5829
3854.00,1.5841
3853.00,1.5843
3852.00,1.5840
3851.00,1.5832
3850.00,1.5818
3849.00,1.5801
3848.00,1.5782
3847.00,1.5766
3846.00,1.5754
3845.00,1.5746
3844.00,1.5743
3843.00,1.5743
3842.00,1.5746
3841.00,1.5751
3840.00,1.5758
3839.00,1.5764
3838.00,1.5770
3837.00,1.5775
3836.00,1.5778
3835.00,1.5777
3834.00,1.5772
3833.00,1.5766
3832.00,1.5759
3831.00,1.5752
3830.00,1.5747
3829.00,1.5742
3828.00,1.5732
3827.00,1.5717
3826.00,1.5703
3825.00,1.5698
3824.00,1.5706
3823.00,1.5722
3822.00,1.5736
3821.00,1.5740
3820.00,1.5741
3819.00,1.5747
3818.00,1.5759
3817.00,1.5769
3816.00,1.5768
3815.00,1.5756
3814.00,1.5739
3813.00,1.5722
3812.00,1.5707
3811.00,1.5693
3810.00,1.5686
3809.00,1.5687
3808.00,1.5692
3807.00,1.5696
3806.00,1.5699
3805.00,1.5705
3804.00,1.5718
3803.00,1.5730
3802.00,1.5733
3801.00,1.5727
3800.00,1.5720
3799.00,1.5716
3798.00,1.5712
3797.00,1.5698
3796.00,1.5676
3795.00,1.5652
3794.00,1.5635
3793.00,1.5631
3792.00,1.5633
3791.00,1.5636
3790.00,1.5636
3789.00,1.5633
3788.00,1.5630
3787.00,1.5630
3786.00,1.5632
3785.00,1.5631
3784.00,1.5625
3783.00,1.5615
3782.00,1.5607
3781.00,1.5603
3780.00,1.5606
3779.00,1.5611
3778.00,1.5617
3777.00,1.5624
3776.00,1.5631
3775.00,1.5636
3774.00,1.5635
3773.00,1.5628
3772.00,1.5615
3771.00,1.5602
3770.00,1.5593
3769.00,1.5593
3768.00,1.5600
3767.00,1.5605
3766.00,1.5602
3765.00,1.5592
3764.00,1.5581
3763.00,1.5575
3762.00,1.5576
3761.00,1.5579
3760.00,1.5583
3759.00,1.5588
3758.00,1.5594
3757.00,1.5601
3756.00,1.5609
3755.00,1.5619
3754.00,1.5630
3753.00,1.5640
3752.00,1.5651
3751.00,1.5665
3750.00,1.5684
3749.00,1.5706
3748.00,1.5729
3747.00,1.5748
3746.00,1.5757
3745.00,1.5745
3744.00,1.5719
3743.00,1.5696
3742.00,1.5687
3741.00,1.5687
3740.00,1.5687
3739.00,1.5680
3738.00,1.5667
3737.00,1.5651
3736.00,1.5640
3735.00,1.5642
3734.00,1.5658
3733.00,1.5679
3732.00,1.5689
3731.00,1.5683
3730.00,1.5670
3729.00,1.5660
3728.00,1.5658
3727.00,1.5660
3726.00,1.5659
3725.00,1.5655
3724.00,1.5647
3723.00,1.5638
3722.00,1.5630
3721.00,1.5627
3720.00,1.5627
3719.00,1.5627
3718.00,1.5622
3717.00,1.5614
3716.00,1.5609
3715.00,1.5609
3714.00,1.5611
3713.00,1.5612
3712.00,1.5611
3711.00,1.5615
3710.00,1.5624
3709.00,1.5638
3708.00,1.5652
3707.00,1.5661
3706.00,1.5663
3705.00,1.5658
3704.00,1.5651
3703.00,1.5648
3702.00,1.5651
3701.00,1.5658
3700.00,1.5666
3699.00,1.5671
3698.00,1.5672
3697.00,1.5672
3696.00,1.5673
3695.00,1.5680
3694.00,1.5692
3693.00,1.5708
3692.00,1.5727
3691.00,1.5748
3690.00,1.5765
3689.00,1.5774
3688.00,1.5779
3687.00,1.5787
3686.00,1.5799
3685.00,1.5810
3684.00,1.5810
3683.00,1.5796
3682.00,1.5775
3681.00,1.5758
3680.00,1.5752
3679.00,1.5760
3678.00,1.5777
3677.00,1.5797
3676.00,1.5811
3675.00,1.5819
3674.00,1.5829
3673.00,1.5844
3672.00,1.5856
3671.00,1.5857
3670.00,1.5846
3669.00,1.5835
3668.00,1.5833
3667.00,1.5837
3666.00,1.5839
3665.00,1.5836
3664.00,1.5829
3663.00,1.5823
3662.00,1.5820
3661.00,1.5818
3660.00,1.5815
3659.00,1.5809
3658.00,1.5801
3657.00,1.5789
3656.00,1.5773
3655.00,1.5764
3654.00,1.5770
3653.00,1.5789
3652.00,1.5812
3651.00,1.5828
3650.00,1.5835
3649.00,1.5840
3648.00,1.5844
3647.00,1.5845
3646.00,1.5841
3645.00,1.5835
3644.00,1.5832
3643.00,1.5831
3642.00,1.5830
3641.00,1.5828
3640.00,1.5827
3639.00,1.5829
3638.00,1.5835
3637.00,1.5843
3636.00,1.5852
3635.00,1.5859
3634.00,1.5863
3633.00,1.5867
3632.00,1.5875
3631.00,1.5888
3630.00,1.5902
3629.00,1.5914
3628.00,1.5925
3627.00,1.5934
3626.00,1.5938
3625.00,1.5937
3624.00,1.5932
3623.00,1.5932
3622.00,1.5936
3621.00,1.5941
3620.00,1.5943
3619.00,1.5945
3618.00,1.5951
3617.00,1.5963
3616.00,1.5976
3615.00,1.5988
3614.00,1.5996
3613.00,1.6000
3612.00,1.6003
3611.00,1.6004
3610.00,1.6002
3609.00,1.5997
3608.00,1.5993
3607.00,1.5994
3606.00,1.6001
3605.00,1.6007
3604.00,1.6011
3603.00,1.6014
3602.00,1.6016
3601.00,1.6019
3600.00,1.6021
3599.00,1.6023
3598.00,1.6028
3597.00,1.6039
3596.00,1.6054
3595.00,1.6066
3594.00,1.6075
3593.00,1.6083
3592.00,1.6096
3591.00,1.6110
3590.00,1.6123
3589.00,1.6133
3588.00,1.6142
3587.00,1.6151
3586.00,1.6158
3585.00,1.6160
3584.00,1.6160
3583.00,1.6159
3582.00,1.6161
3581.00,1.6164
3580.00,1.6169
3579.00,1.6176
3578.00,1.6185
3577.00,1.6194
3576.00,1.6201
3575.00,1.6204
3574.00,1.6208
3573.00,1.6214
3572.00,1.6224
3571.00,1.6239
3570.00,1.6260
3569.00,1.6283
3568.00,1.6306
3567.00,1.6325
3566.00,1.6340
3565.00,1.6352
3564.00,1.6362
3563.00,1.6368
3562.00,1.6372
3561.00,1.6375
3560.00,1.6378
3559.00,1.6380
3558.00,1.6383
3557.00,1.6386
3556.00,1.6393
3555.00,1.6402
3554.00,1.6414
3553.00,1.6427
3552.00,1.6438
3551.00,1.6448
3550.00,1.6456
3549.00,1.6463
3548.00,1.6470
3547.00,1.6478
3546.00,1.6488
3545.00,1.6502
3544.00,1.6519
3543.00,1.6537
3542.00,1.6552
3541.00,1.6562
3540.00,1.6570
3539.00,1.6578
3538.00,1.6587
3537.00,1.6596
3536.00,1.6604
3535.00,1.6612
3534.00,1.6621
3533.00,1.6630
3532.00,1.6638
3531.00,1.6645
3530.00,1.6652
3529.00,1.6661
3528.00,1.6672
3527.00,1.6686
3526.00,1.6702
3525.00,1.6720
3524.00,1.6740
3523.00,1.6759
3522.00,1.6775
3521.00,1.6788
3520.00,1.6799
3519.00,1.6813
3518.00,1.6830
3517.00,1.6847
3516.00,1.6863
3515.00,1.6875
3514.00,1.6885
3513.00,1.6894
3512.00,1.6901
3511.00,1.6907
3510.00,1.6912
3509.00,1.6918
3508.00,1.6929
3507.00,1.6944
3506.00,1.6963
3505.00,1.6983
3504.00,1.7004
3503.00,1.7025
3502.00,1.7046
3501.00,1.7066
3500.00,1.7084
3499.00,1.7100
3498.00,1.7117
3497.00,1.7131
3496.00,1.7141
3495.00,1.7151
3494.00,1.7169
3493.00,1.7197
3492.00,1.7230
3491.00,1.7254
3490.00,1.7265
3489.00,1.7267
3488.00,1.7269
3487.00,1.7276
3486.00,1.7288
3485.00,1.7301
3484.00,1.7316
3483.00,1.7331
3482.00,1.7348
3481.00,1.7368
3480.00,1.7388
3479.00,1.7409
3478.00,1.7434
3477.00,1.7460
3476.00,1.7487
3475.00,1.7509
3474.00,1.7528
3473.00,1.7548
3472.00,1.7570
3471.00,1.7590
3470.00,1.7603
3469.00,1.7611
3468.00,1.7623
3467.00,1.7643
3466.00,1.7670
3465.00,1.7695
3464.00,1.7715
3463.00,1.7736
3462.00,1.7761
3461.00,1.7790
3460.00,1.7814
3459.00,1.7823
3458.00,1.7821
3457.00,1.7819
3456.00,1.7832
3455.00,1.7858
3454.00,1.7886
3453.00,1.7909
3452.00,1.7931
3451.00,1.7961
3450.00,1.8000
3449.00,1.8041
3448.00,1.8075
3447.00,1.8103
3446.00,1.8129
3445.00,1.8159
3444.00,1.8190
3443.00,1.8216
3442.00,1.8236
3441.00,1.8256
3440.00,1.8284
3439.00,1.8319
3438.00,1.8353
3437.00,1.8377
3436.00,1.8393
3435.00,1.8407
3434.00,1.8422
3433.00,1.8441
3432.00,1.8467
3431.00,1.8498
3430.00,1.8525
3429.00,1.8536
3428.00,1.8530
3427.00,1.8521
3426.00,1.8522
3425.00,1.8541
3424.00,1.8571
3423.00,1.8603
3422.00,1.8625
3421.00,1.8630
3420.00,1.8621
3419.00,1.8610
3418.00,1.8606
3417.00,1.8610
3416.00,1.8622
3415.00,1.8638
3414.00,1.8658
3413.00,1.8678
3412.00,1.8692
3411.00,1.8695
3410.00,1.8691
3409.00,1.8687
3408.00,1.8689
3407.00,1.8698
3406.00,1.8709
3405.00,1.8722
3404.00,1.8739
3403.00,1.8760
3402.00,1.8783
3401.00,1.8799
3400.00,1.8802
3399.00,1.8792
3398.00,1.8775
3397.00,1.8755
3396.00,1.8737
3395.00,1.8728
3394.00,1.8732
3393.00,1.8747
3392.00,1.8765
3391.00,1.8781
3390.00,1.8790
3389.00,1.8794
3388.00,1.8796
3387.00,1.8796
3386.00,1.8791
3385.00,1.8779
3384.00,1.8763
3383.00,1.8754
3382.00,1.8753
3381.00,1.8753
3380.00,1.8743
3379.00,1.8729
3378.00,1.8723
3377.00,1.8733
3376.00,1.8747
3375.00,1.8746
3374.00,1.8725
3373.00,1.8693
3372.00,1.8665
3371.00,1.8654
3370.00,1.8656
3369.00,1.8663
3368.00,1.8664
3367.00,1.8658
3366.00,1.8648
3365.00,1.8637
3364.00,1.8627
3363.00,1.8615
3362.00,1.8601
3361.00,1.8584
3360.00,1.8569
3359.00,1.8558
3358.00,1.8555
3357.00,1.8554
3356.00,1.8549
3355.00,1.8537
3354.00,1.8519
3353.00,1.8502
3352.00,1.8490
3351.00,1.8484
3350.00,1.8482
3349.00,1.8478
3348.00,1.8467
3347.00,1.8451
3346.00,1.8436
3345.00,1.8423
3344.00,1.8411
3343.00,1.8399
3342.00,1.8390
3341.00,1.8387
3340.00,1.8388
3339.00,1.8388
3338.00,1.8382
3337.00,1.8375
3336.00,1.8369
3335.00,1.8364
3334.00,1.8362
3333.00,1.8366
3332.00,1.8374
3331.00,1.8379
3330.00,1.8374
3329.00,1.8361
3328.00,1.8348
3327.00,1.8343
3326.00,1.8346
3325.00,1.8349
3324.00,1.8350
3323.00,1.8350
3322.00,1.8355
3321.00,1.8367
3320.00,1.8379
3319.00,1.8383
3318.00,1.8376
3317.00,1.8366
3316.00,1.8368
3315.00,1.8387
3314.00,1.8416
3313.00,1.8439
3312.00,1.8446
3311.00,1.8437
3310.00,1.8417
3309.00,1.8396
3308.00,1.8379
3307.00,1.8375
3306.00,1.8390
3305.00,1.8420
3304.00,1.8456
3303.00,1.8487
3302.00,1.8510
3301.00,1.8529
3300.00,1.8545
3299.00,1.8554
3298.00,1.8554
3297.00,1.8547
3296.00,1.8542
3295.00,1.8548
3294.00,1.8561
3293.00,1.8577
3292.00,1.8594
3291.00,1.8609
3290.00,1.8621
3289.00,1.8628
3288.00,1.8633
3287.00,1.8645
3286.00,1.8666
3285.00,1.8693
3284.00,1.8720
3283.00,1.8743
3282.00,1.8764
3281.00,1.8781
3280.00,1.8792
3279.00,1.8795
3278.00,1.8792
3277.00,1.8795
3276.00,1.8811
3275.00,1.8841
3274.00,1.8877
3273.00,1.8908
3272.00,1.8931
3271.00,1.8947
3270.00,1.8959
3269.00,1.8969
3268.00,1.8983
3267.00,1.9009
3266.00,1.9047
3265.00,1.9087
3264.00,1.9116
3263.00,1.9129
3262.00,1.9132
3261.00,1.9136
3260.00,1.9149
3259.00,1.9170
3258.00,1.9195
3257.00,1.9217
3256.00,1.9236
3255.00,1.9254
3254.00,1.9275
3253.00,1.9301
3252.00,1.9332
3251.00,1.9364
3250.00,1.9391
3249.00,1.9408
3248.00,1.9417
3247.00,1.9427
3246.00,1.9445
3245.00,1.9472
3244.00,1.9507
3243.00,1.9546
3242.00,1.9583
3241.00,1.9609
3240.00,1.9624
3239.00,1.9631
3238.00,1.9640
3237.00,1.9661
3236.00,1.9697
3235.00,1.9745
3234.00,1.9794
3233.00,1.9837
3232.00,1.9869
3231.00,1.9893
3230.00,1.9915
3229.00,1.9941
3228.00,1.9967
3227.00,1.9983
3226.00,1.9989
3225.00,1.9997
3224.00,2.0022
3223.00,2.0063
3222.00,2.0103
3221.00,2.0124
3220.00,2.0128
3219.00,2.0131
3218.00,2.0140
3217.00,2.0156
3216.00,2.0172
3215.00,2.0183
3214.00,2.0184
3213.00,2.0170
3212.00,2.0149
3211.00,2.0133
3210.00,2.0131
3209.00,2.0138
3208.00,2.0146
3207.00,2.0153
3206.00,2.0162
3205.00,2.0172
3204.00,2.0178
3203.00,2.0179
3202.00,2.0174
3201.00,2.0166
3200.00,2.0150
3199.00,2.0120
3198.00,2.0075
3197.00,2.0023
3196.00,1.9979
3195.00,1.9948
3194.00,1.9928
3193.00,1.9909
3192.00,1.9882
3191.00,1.9848
3190.00,1.9815
3189.00,1.9792
3188.00,1.9782
3187.00,1.9775
3186.00,1.9755
3185.00,1.9719
3184.00,1.9678
3183.00,1.9644
3182.00,1.9614
3181.00,1.9577
3180.00,1.9530
3179.00,1.9483
3178.00,1.9443
3177.00,1.9408
3176.00,1.9373
3175.00,1.9336
3174.00,1.9300
3173.00,1.9259
3172.00,1.9213
3171.00,1.9169
3170.00,1.9132
3169.00,1.9100
3168.00,1.9064
3167.00,1.9019
3166.00,1.8972
3165.00,1.8931
3164.00,1.8895
3163.00,1.8861
3162.00,1.8828
3161.00,1.8793
3160.00,1.8756
3159.00,1.8716
3158.00,1.8678
3157.00,1.8642
3156.00,1.8602
3155.00,1.8559
3154.00,1.8520
3153.00,1.8491
3152.00,1.8470
3151.00,1.8445
3150.00,1.8411
3149.00,1.8370
3148.00,1.8327
3147.00,1.8287
3146.00,1.8250
3145.00,1.8219
3144.00,1.8190
3143.00,1.8163
3142.00,1.8139
3141.00,1.8118
3140.00,1.8095
3139.00,1.8065
3138.00,1.8027
3137.00,1.7994
3136.00,1.7971
3135.00,1.7953
3134.00,1.7930
3133.00,1.7898
3132.00,1.7864
3131.00,1.7838
3130.00,1.7821
3129.00,1.7805
3128.00,1.7784
3127.00,1.7755
3126.00,1.7720
3125.00,1.7683
3124.00,1.7648
3123.00,1.7616
3122.00,1.7586
3121.00,1.7556
3120.00,1.7527
3119.00,1.7499
3118.00,1.7472
3117.00,1.7449
3116.00,1.7429
3115.00,1.7410
3114.00,1.7388
3113.00,1.7363
3112.00,1.7341
3111.00,1.7327
3110.00,1.7319
3109.00,1.7309
3108.00,1.7289
3107.00,1.7257
3106.00,1.7221
3105.00,1.7189
3104.00,1.7166
3103.00,1.7150
3102.00,1.7134
3101.00,1.7114
3100.00,1.7093
3099.00,1.7072
3098.00,1.7047
3097.00,1.7017
3096.00,1.6986
3095.00,1.6964
3094.00,1.6952
3093.00,1.6945
3092.00,1.6932
3091.00,1.6909
3090.00,1.6881
3089.00,1.6853
3088.00,1.6832
3087.00,1.6817
3086.00,1.6807
3085.00,1.6795
3084.00,1.6779
3083.00,1.6764
3082.00,1.6751
3081.00,1.6741
3080.00,1.6729
3079.00,1.6713
3078.00,1.6695
3077.00,1.6677
3076.00,1.6659
3075.00,1.6639
3074.00,1.6617
3073.00,1.6594
3072.00,1.6573
3071.00,1.6554
3070.00,1.6539
3069.00,1.6526
3068.00,1.6515
3067.00,1.6503
3066.00,1.6492
3065.00,1.6483
3064.00,1.6476
3063.00,1.6467
3062.00,1.6453
3061.00,1.6432
3060.00,1.6408
3059.00,1.6389
3058.00,1.6379
3057.00,1.6378
3056.00,1.6380
3055.00,1.6380
3054.00,1.6372
3053.00,1.6356
3052.00,1.6335
3051.00,1.6311
3050.00,1.6289
3049.00,1.6273
3048.00,1.6264
3047.00,1.6261
3046.00,1.6256
3045.00,1.6248
3044.00,1.6234
3043.00,1.6219
3042.00,1.6204
3041.00,1.6193
3040.00,1.6186
3039.00,1.6180
3038.00,1.6171
3037.00,1.6155
3036.00,1.6135
3035.00,1.6115
3034.00,1.6100
3033.00,1.6088
3032.00,1.6079
3031.00,1.6070
3030.00,1.6059
3029.00,1.6047
3028.00,1.6037
3027.00,1.6030
3026.00,1.6026
3025.00,1.6021
3024.00,1.6012
3023.00,1.6000
3022.00,1.5986
3021.00,1.5973
3020.00,1.5959
3019.00,1.5944
3018.00,1.5929
3017.00,1.5916
3016.00,1.5908
3015.00,1.5901
3014.00,1.5895
3013.00,1.5888
3012.00,1.5882
3011.00,1.5877
3010.00,1.5870
3009.00,1.5856
3008.00,1.5838
3007.00,1.5819
3006.00,1.5805
3005.00,1.5793
3004.00,1.5784
3003.00,1.5777
3002.00,1.5770
3001.00,1.5763
3000.00,1.5756
2999.00,1.5751
2998.00,1.5747
2997.00,1.5745
2996.00,1.5742
2995.00,1.5737
2994.00,1.5727
2993.00,1.5712
2992.00,1.5695
2991.00,1.5680
2990.00,1.5671
2989.00,1.5668
2988.00,1.5665
2987.00,1.5660
2986.00,1.5651
2985.00,1.5642
2984.00,1.5635
2983.00,1.5632
2982.00,1.5633
2981.00,1.5637
2980.00,1.5637
2979.00,1.5630
2978.00,1.5618
2977.00,1.5607
2976.00,1.5601
2975.00,1.5603
2974.00,1.5607
2973.00,1.5610
2972.00,1.5610
2971.00,1.5609
2970.00,1.5607
2969.00,1.5607
2968.00,1.5607
2967.00,1.5609
2966.00,1.5613
2965.00,1.5618
2964.00,1.5620
2963.00,1.5619
2962.00,1.5615
2961.00,1.5611
2960.00,1.5606
2959.00,1.5603
2958.00,1.5602
2957.00,1.5601
2956.00,1.5598
2955.00,1.5592
2954.00,1.5586
2953.00,1.5582
2952.00,1.5581
2951.00,1.5579
2950.00,1.5572
2949.00,1.5560
2948.00,1.5544
2947.00,1.5529
2946.00,1.5519
2945.00,1.5514
2944.00,1.5514
2943.00,1.5516
2942.00,1.5519
2941.00,1.5522
2940.00,1.5521
2939.00,1.5515
2938.00,1.5506
2937.00,1.5498
2936.00,1.5497
2935.00,1.5501
2934.00,1.5507
2933.00,1.5512
2932.00,1.5519
2931.00,1.5532
2930.00,1.5550
2929.00,1.5567
2928.00,1.5578
2927.00,1.5580
2926.00,1.5578
2925.00,1.5574
2924.00,1.5573
2923.00,1.5572
2922.00,1.5570
2921.00,1.5564
2920.00,1.5559
2919.00,1.5555
2918.00,1.5551
2917.00,1.5545
2916.00,1.5533
2915.00,1.5515
2914.00,1.5493
2913.00,1.5468
2912.00,1.5444
2911.00,1.5424
2910.00,1.5410
2909.00,1.5398
2908.00,1.5388
2907.00,1.5377
2906.00,1.5368
2905.00,1.5360
2904.00,1.5349
2903.00,1.5335
2902.00,1.5323
2901.00,1.5316
2900.00,1.5313
2899.00,1.5310
2898.00,1.5304
2897.00,1.5296
2896.00,1.5289
2895.00,1.5287
2894.00,1.5293
2893.00,1.5304
2892.00,1.5314
2891.00,1.5316
2890.00,1.5308
2889.00,1.5294
2888.00,1.5283
2887.00,1.5280
2886.00,1.5282
2885.00,1.5287
2884.00,1.5289
2883.00,1.5289
2882.00,1.5285
2881.00,1.5281
2880.00,1.5280
2879.00,1.5283
2878.00,1.5288
2877.00,1.5294
2876.00,1.5298
2875.00,1.5298
2874.00,1.5295
2873.00,1.5292
2872.00,1.5293
2871.00,1.5300
2870.00,1.5310
2869.00,1.5318
2868.00,1.5319
2867.00,1.5315
2866.00,1.5311
2865.00,1.5315
2864.00,1.5327
2863.00,1.5342
2862.00,1.5352
2861.00,1.5356
2860.00,1.5358
2859.00,1.5362
2858.00,1.5368
2857.00,1.5375
2856.00,1.5383
2855.00,1.5395
2854.00,1.5413
2853.00,1.5431
2852.00,1.5443
2851.00,1.5446
2850.00,1.5439
2849.00,1.5432
2848.00,1.5430
2847.00,1.5433
2846.00,1.5433
2845.00,1.5424
2844.00,1.5411
2843.00,1.5401
2842.00,1.5400
2841.00,1.5406
2840.00,1.5411
2839.00,1.5412
2838.00,1.5410
2837.00,1.5410
2836.00,1.5415
2835.00,1.5423
2834.00,1.5428
2833.00,1.5429
2832.00,1.5429
2831.00,1.5433
2830.00,1.5444
2829.00,1.5460
2828.00,1.5479
2827.00,1.5497
2826.00,1.5511
2825.00,1.5523
2824.00,1.5535
2823.00,1.5548
2822.00,1.5564
2821.00,1.5581
2820.00,1.5595
2819.00,1.5606
2818.00,1.5613
2817.00,1.5618
2816.00,1.5623
2815.00,1.5635
2814.00,1.5655
2813.00,1.5679
2812.00,1.5704
2811.00,1.5726
2810.00,1.5744
2809.00,1.5756
2808.00,1.5762
2807.00,1.5765
2806.00,1.5769
2805.00,1.5780
2804.00,1.5798
2803.00,1.5817
2802.00,1.5832
2801.00,1.5838
2800.00,1.5836
2799.00,1.5829
2798.00,1.5820
2797.00,1.5811
2796.00,1.5803
2795.00,1.5794
2794.00,1.5783
2793.00,1.5772
2792.00,1.5759
2791.00,1.5748
2790.00,1.5736
2789.00,1.5724
2788.00,1.5711
2787.00,1.5698
2786.00,1.5683
2785.00,1.5666
2784.00,1.5648
2783.00,1.5632
2782.00,1.5621
2781.00,1.5614
2780.00,1.5610
2779.00,1.5607
2778.00,1.5599
2777.00,1.5586
2776.00,1.5572
2775.00,1.5559
2774.00,1.5546
2773.00,1.5533
2772.00,1.5522
2771.00,1.5514
2770.00,1.5512
2769.00,1.5511
2768.00,1.5506
2767.00,1.5498
2766.00,1.5486
2765.00,1.5476
2764.00,1.5468
2763.00,1.5462
2762.00,1.5455
2761.00,1.5445
2760.00,1.5435
2759.00,1.5428
2758.00,1.5425
2757.00,1.5422
2756.00,1.5413
2755.00,1.5402
2754.00,1.5393
2753.00,1.5390
2752.00,1.5390
2751.00,1.5392
2750.00,1.5393
2749.00,1.5392
2748.00,1.5388
2747.00,1.5383
2746.00,1.5379
2745.00,1.5378
2744.00,1.5377
2743.00,1.5376
2742.00,1.5374
2741.00,1.5372
2740.00,1.5372
2739.00,1.5379
2738.00,1.5392
2737.00,1.5408
2736.00,1.5421
2735.00,1.5427
2734.00,1.5430
2733.00,1.5432
2732.00,1.5437
2731.00,1.5447
2730.00,1.5461
2729.00,1.5475
2728.00,1.5488
2727.00,1.5499
2726.00,1.5506
2725.00,1.5513
2724.00,1.5521
2723.00,1.5532
2722.00,1.5548
2721.00,1.5563
2720.00,1.5572
2719.00,1.5572
2718.00,1.5568
2717.00,1.5568
2716.00,1.5575
2715.00,1.5584
2714.00,1.5591
2713.00,1.5593
2712.00,1.5593
2711.00,1.5596
2710.00,1.5602
2709.00,1.5605
2708.00,1.5607
2707.00,1.5608
2706.00,1.5614
2705.00,1.5622
2704.00,1.5628
2703.00,1.5631
2702.00,1.5631
2701.00,1.5633
2700.00,1.5637
2699.00,1.5642
2698.00,1.5647
2697.00,1.5651
2696.00,1.5657
2695.00,1.5664
2694.00,1.5671
2693.00,1.5677
2692.00,1.5681
2691.00,1.5683
2690.00,1.5685
2689.00,1.5687
2688.00,1.5689
2687.00,1.5690
2686.00,1.5691
2685.00,1.5692
2684.00,1.5694
2683.00,1.5695
2682.00,1.5695
2681.00,1.5698
2680.00,1.5705
2679.00,1.5716
2678.00,1.5728
2677.00,1.5737
2676.00,1.5741
2675.00,1.5741
2674.00,1.5740
2673.00,1.5741
2672.00,1.5744
2671.00,1.5750
2670.00,1.5758
2669.00,1.5765
2668.00,1.5773
2667.00,1.5780
2666.00,1.5785
2665.00,1.5785
2664.00,1.5785
2663.00,1.5788
2662.00,1.5795
2661.00,1.5801
2660.00,1.5803
2659.00,1.5803
2658.00,1.5805
2657.00,1.5813
2656.00,1.5824
2655.00,1.5834
2654.00,1.5841
2653.00,1.5843
2652.00,1.5840
2651.00,1.5838
2650.00,1.5843
2649.00,1.5854
2648.00,1.5865
2647.00,1.5872
2646.00,1.5875
2645.00,1.5880
2644.00,1.5888
2643.00,1.5896
2642.00,1.5904
2641.00,1.5910
2640.00,1.5917
2639.00,1.5926
2638.00,1.5935
2637.00,1.5944
2636.00,1.5950
2635.00,1.5955
2634.00,1.5962
2633.00,1.5973
2632.00,1.5985
2631.00,1.5992
2630.00,1.5993
2629.00,1.5993
2628.00,1.5999
2627.00,1.6012
2626.00,1.6027
2625.00,1.6041
2624.00,1.6054
2623.00,1.6067
2622.00,1.6082
2621.00,1.6098
2620.00,1.6114
2619.00,1.6128
2618.00,1.6142
2617.00,1.6155
2616.00,1.6170
2615.00,1.6187
2614.00,1.6203
2613.00,1.6214
2612.00,1.6221
2611.00,1.6224
2610.00,1.6228
2609.00,1.6235
2608.00,1.6245
2607.00,1.6258
2606.00,1.6272
2605.00,1.6286
2604.00,1.6297
2603.00,1.6308
2602.00,1.6322
2601.00,1.6341
2600.00,1.6365
2599.00,1.6388
2598.00,1.6408
2597.00,1.6428
2596.00,1.6446
2595.00,1.6460
2594.00,1.6468
2593.00,1.6475
2592.00,1.6485
2591.00,1.6501
2590.00,1.6516
2589.00,1.6525
2588.00,1.6526
2587.00,1.6527
2586.00,1.6531
2585.00,1.6544
2584.00,1.6562
2583.00,1.6582
2582.00,1.6599
2581.00,1.6614
2580.00,1.6631
2579.00,1.6650
2578.00,1.6668
2577.00,1.6682
2576.00,1.6691
2575.00,1.6700
2574.00,1.6713
2573.00,1.6733
2572.00,1.6757
2571.00,1.6784
2570.00,1.6810
2569.00,1.6831
2568.00,1.6849
2567.00,1.6870
2566.00,1.6899
2565.00,1.6933
2564.00,1.6965
2563.00,1.6987
2562.00,1.7002
2561.00,1.7015
2560.00,1.7033
2559.00,1.7058
2558.00,1.7089
2557.00,1.7120
2556.00,1.7148
2555.00,1.7168
2554.00,1.7181
2553.00,1.7191
2552.00,1.7205
2551.00,1.7228
2550.00,1.7262
2549.00,1.7302
2548.00,1.7339
2547.00,1.7364
2546.00,1.7376
2545.00,1.7383
2544.00,1.7390
2543.00,1.7404
2542.00,1.7423
2541.00,1.7442
2540.00,1.7455
2539.00,1.7456
2538.00,1.7447
2537.00,1.7432
2536.00,1.7421
2535.00,1.7422
2534.00,1.7435
2533.00,1.7455
2532.00,1.7471
2531.00,1.7477
2530.00,1.7473
2529.00,1.7465
2528.00,1.7456
2527.00,1.7447
2526.00,1.7441
2525.00,1.7437
2524.00,1.7436
2523.00,1.7439
2522.00,1.7441
2521.00,1.7440
2520.00,1.7431
2519.00,1.7411
2518.00,1.7382
2517.00,1.7344
2516.00,1.7297
2515.00,1.7242
2514.00,1.7182
2513.00,1.7121
2512.00,1.7060
2511.00,1.6990
2510.00,1.6905
2509.00,1.6803
2508.00,1.6693
2507.00,1.6581
2506.00,1.6472
2505.00,1.6366
2504.00,1.6262
2503.00,1.6163
2502.00,1.6072
2501.00,1.5992
2500.00,1.5923
2499.00,1.5860
2498.00,1.5802
2497.00,1.5752
2496.00,1.5711
2495.00,1.5677
2494.00,1.5647
2493.00,1.5619
2492.00,1.5592
2491.00,1.5567
2490.00,1.5547
2489.00,1.5529
2488.00,1.5513
2487.00,1.5497
2486.00,1.5482
2485.00,1.5467
2484.00,1.5455
2483.00,1.5444
2482.00,1.5434
2481.00,1.5425
2480.00,1.5416
2479.00,1.5407
2478.00,1.5396
2477.00,1.5386
2476.00,1.5377
2475.00,1.5370
2474.00,1.5360
2473.00,1.5349
2472.00,1.5337
2471.00,1.5326
2470.00,1.5319
2469.00,1.5313
2468.00,1.5308
2467.00,1.5302
2466.00,1.5293
2465.00,1.5283
2464.00,1.5274
2463.00,1.5262
2462.00,1.5248
2461.00,1.5232
2460.00,1.5217
2459.00,1.5201
2458.00,1.5185
2457.00,1.5168
2456.00,1.5152
2455.00,1.5137
2454.00,1.5118
2453.00,1.5094
2452.00,1.5070
2451.00,1.5051
2450.00,1.5039
2449.00,1.5033
2448.00,1.5030
2447.00,1.5028
2446.00,1.5026
2445.00,1.5023
2444.00,1.5020
2443.00,1.5018
2442.00,1.5016
2441.00,1.5014
2440.00,1.5013
2439.00,1.5015
2438.00,1.5019
2437.00,1.5023
2436.00,1.5027
2435.00,1.5030
2434.00,1.5035
2433.00,1.5044
2432.00,1.5057
2431.00,1.5071
2430.00,1.5081
2429.00,1.5087
2428.00,1.5093
2427.00,1.5101
2426.00,1.5113
2425.00,1.5129
2424.00,1.5151
2423.00,1.5178
2422.00,1.5208
2421.00,1.5237
2420.00,1.5268
2419.00,1.5304
2418.00,1.5347
2417.00,1.5394
2416.00,1.5442
2415.00,1.5489
2414.00,1.5536
2413.00,1.5578
2412.00,1.5614
2411.00,1.5641
2410.00,1.5662
2409.00,1.5679
2408.00,1.5696
2407.00,1.5712
2406.00,1.5726
2405.00,1.5738
2404.00,1.5752
2403.00,1.5770
2402.00,1.5789
2401.00,1.5803
2400.00,1.5812
2399.00,1.5818
2398.00,1.5824
2397.00,1.5830
2396.00,1.5834
2395.00,1.5838
2394.00,1.5843
2393.00,1.5848
2392.00,1.5852
2391.00,1.5856
2390.00,1.5861
2389.00,1.5870
2388.00,1.5880
2387.00,1.5892
2386.00,1.5907
2385.00,1.5928
2384.00,1.5961
2383.00,1.6008
2382.00,1.6066
2381.00,1.6128
2380.00,1.6191
2379.00,1.6256
2378.00,1.6324
2377.00,1.6393
2376.00,1.6457
2375.00,1.6513
2374.00,1.6561
2373.00,1.6601
2372.00,1.6633
2371.00,1.6654
2370.00,1.6667
2369.00,1.6677
2368.00,1.6693
2367.00,1.6722
2366.00,1.6760
2365.00,1.6799
2364.00,1.6834
2363.00,1.6871
2362.00,1.6913
2361.00,1.6955
2360.00,1.6989
2359.00,1.7017
2358.00,1.7041
2357.00,1.7066
2356.00,1.7090
2355.00,1.7113
2354.00,1.7135
2353.00,1.7154
2352.00,1.7173
2351.00,1.7192
2350.00,1.7214
2349.00,1.7236
2348.00,1.7248
2347.00,1.7249
2346.00,1.7247
2345.00,1.7256
2344.00,1.7278
2343.00,1.7304
2342.00,1.7323
2341.00,1.7332
2340.00,1.7340
2339.00,1.7347
2338.00,1.7354
2337.00,1.7357
2336.00,1.7354
2335.00,1.7347
2334.00,1.7333
2333.00,1.7320
2332.00,1.7315
2331.00,1.7325
2330.00,1.7341
2329.00,1.7352
2328.00,1.7347
2327.00,1.7332
2326.00,1.7315
2325.00,1.7301
2324.00,1.7293
2323.00,1.7288
2322.00,1.7281
2321.00,1.7261
2320.00,1.7228
2319.00,1.7186
2318.00,1.7139
2317.00,1.7088
2316.00,1.7033
2315.00,1.6981
2314.00,1.6938
2313.00,1.6903
2312.00,1.6870
2311.00,1.6832
2310.00,1.6785
2309.00,1.6731
2308.00,1.6669
2307.00,1.6600
2306.00,1.6528
2305.00,1.6455
2304.00,1.6385
2303.00,1.6319
2302.00,1.6254
2301.00,1.6189
2300.00,1.6121
2299.00,1.6051
2298.00,1.5985
2297.00,1.5929
2296.00,1.5881
2295.00,1.5838
2294.00,1.5793
2293.00,1.5743
2292.00,1.5691
2291.00,1.5643
2290.00,1.5605
2289.00,1.5578
2288.00,1.5560
2287.00,1.5545
2286.00,1.5527
2285.00,1.5505
2284.00,1.5481
2283.00,1.5459
2282.00,1.5441
2281.00,1.5427
2280.00,1.5418
2279.00,1.5413
2278.00,1.5412
2277.00,1.5415
2276.00,1.5420
2275.00,1.5421
2274.00,1.5416
2273.00,1.5402
2272.00,1.5386
2271.00,1.5372
2270.00,1.5360
2269.00,1.5347
2268.00,1.5329
2267.00,1.5309
2266.00,1.5292
2265.00,1.5278
2264.00,1.5266
2263.00,1.5252
2262.00,1.5238
2261.00,1.5223
2260.00,1.5206
2259.00,1.5187
2258.00,1.5167
2257.00,1.5148
2256.00,1.5127
2255.00,1.5103
2254.00,1.5075
2253.00,1.5046
2252.00,1.5021
2251.00,1.4995
2250.00,1.4963
2249.00,1.4922
2248.00,1.4873
2247.00,1.4823
2246.00,1.4774
2245.00,1.4727
2244.00,1.4682
2243.00,1.4638
2242.00,1.4598
2241.00,1.4562
2240.00,1.4529
2239.00,1.4500
2238.00,1.4475
2237.00,1.4452
2236.00,1.4428
2235.00,1.4404
2234.00,1.4381
2233.00,1.4362
2232.00,1.4347
2231.00,1.4333
2230.00,1.4321
2229.00,1.4308
2228.00,1.4295
2227.00,1.4282
2226.00,1.4269
2225.00,1.4256
2224.00,1.4242
2223.00,1.4226
2222.00,1.4211
2221.00,1.4199
2220.00,1.4190
2219.00,1.4180
2218.00,1.4168
2217.00,1.4155
2216.00,1.4138
2215.00,1.4119
2214.00,1.4097
2213.00,1.4078
2212.00,1.4060
2211.00,1.4043
2210.00,1.4024
2209.00,1.4005
2208.00,1.3984
2207.00,1.3961
2206.00,1.3936
2205.00,1.3912
2204.00,1.3892
2203.00,1.3875
2202.00,1.3858
2201.00,1.3839
2200.00,1.3822
2199.00,1.3809
2198.00,1.3799
2197.00,1.3792
2196.00,1.3784
2195.00,1.3776
2194.00,1.3769
2193.00,1.3765
2192.00,1.3765
2191.00,1.3768
2190.00,1.3771
2189.00,1.3773
2188.00,1.3776
2187.00,1.3781
2186.00,1.3787
2185.00,1.3791
2184.00,1.3795
2183.00,1.3801
2182.00,1.3809
2181.00,1.3821
2180.00,1.3835
2179.00,1.3849
2178.00,1.3862
2177.00,1.3873
2176.00,1.3883
2175.00,1.3894
2174.00,1.3904
2173.00,1.3914
2172.00,1.3925
2171.00,1.3936
2170.00,1.3946
2169.00,1.3953
2168.00,1.3958
2167.00,1.3962
2166.00,1.3966
2165.00,1.3969
2164.00,1.3968
2163.00,1.3965
2162.00,1.3961
2161.00,1.3956
2160.00,1.3951
2159.00,1.3945
2158.00,1.3940
2157.00,1.3935
2156.00,1.3927
2155.00,1.3915
2154.00,1.3901
2153.00,1.3888
2152.00,1.3877
2151.00,1.3867
2150.00,1.3856
2149.00,1.3843
2148.00,1.3829
2147.00,1.3817
2146.00,1.3808
2145.00,1.3803
2144.00,1.3797
2143.00,1.3790
2142.00,1.3780
2141.00,1.3769
2140.00,1.3757
2139.00,1.3747
2138.00,1.3740
2137.00,1.3735
2136.00,1.3730
2135.00,1.3725
2134.00,1.3719
2133.00,1.3711
2132.00,1.3703
2131.00,1.3694
2130.00,1.3685
2129.00,1.3672
2128.00,1.3657
2127.00,1.3642
2126.00,1.3630
2125.00,1.3620
2124.00,1.3611
2123.00,1.3598
2122.00,1.3583
2121.00,1.3567
2120.00,1.3551
2119.00,1.3535
2118.00,1.3516
2117.00,1.3496
2116.00,1.3477
2115.00,1.3460
2114.00,1.3445
2113.00,1.3431
2112.00,1.3416
2111.00,1.3400
2110.00,1.3385
2109.00,1.3369
2108.00,1.3352
2107.00,1.3332
2106.00,1.3310
2105.00,1.3288
2104.00,1.3268
2103.00,1.3249
2102.00,1.3230
2101.00,1.3212
2100.00,1.3195
2099.00,1.3182
2098.00,1.3172
2097.00,1.3162
2096.00,1.3151
2095.00,1.3139
2094.00,1.3126
2093.00,1.3111
2092.00,1.3096
2091.00,1.3083
2090.00,1.3074
2089.00,1.3068
2088.00,1.3061
2087.00,1.3055
2086.00,1.3049
2085.00,1.3046
2084.00,1.3045
2083.00,1.3043
2082.00,1.3041
2081.00,1.3040
2080.00,1.3040
2079.00,1.3039
2078.00,1.3038
2077.00,1.3036
2076.00,1.3034
2075.00,1.3032
2074.00,1.3032
2073.00,1.3034
2072.00,1.3037
2071.00,1.3041
2070.00,1.3045
2069.00,1.3052
2068.00,1.3059
2067.00,1.3067
2066.00,1.3073
2065.00,1.3077
2064.00,1.3078
2063.00,1.3081
2062.00,1.3083
2061.00,1.3085
2060.00,1.3083
2059.00,1.3078
2058.00,1.3071
2057.00,1.3061
2056.00,1.3049
2055.00,1.3036
2054.00,1.3025
2053.00,1.3015
2052.00,1.3003
2051.00,1.2990
2050.00,1.2978
2049.00,1.2967
2048.00,1.2956
2047.00,1.2942
2046.00,1.2927
2045.00,1.2912
2044.00,1.2898
2043.00,1.2886
2042.00,1.2875
2041.00,1.2865
2040.00,1.2855
2039.00,1.2845
2038.00,1.2836
2037.00,1.2830
2036.00,1.2825
2035.00,1.2821
2034.00,1.2818
2033.00,1.2817
2032.00,1.2818
2031.00,1.2821
2030.00,1.2824
2029.00,1.2828
2028.00,1.2831
2027.00,1.2833
2026.00,1.2835
2025.00,1.2837
2024.00,1.2840
2023.00,1.2846
2022.00,1.2855
2021.00,1.2866
2020.00,1.2879
2019.00,1.2892
2018.00,1.2904
2017.00,1.2913
2016.00,1.2922
2015.00,1.2933
2014.00,1.2944
2013.00,1.2955
2012.00,1.2965
2011.00,1.2974
2010.00,1.2986
2009.00,1.3000
2008.00,1.3013
2007.00,1.3023
2006.00,1.3030
2005.00,1.3039
2004.00,1.3050
2003.00,1.3061
2002.00,1.3069
2001.00,1.3076
2000.00,1.3083
1999.00,1.3092
1998.00,1.3100
1997.00,1.3105
1996.00,1.3108
1995.00,1.3113
1994.00,1.3121
1993.00,1.3130
1992.00,1.3137
1991.00,1.3141
1990.00,1.3148
1989.00,1.3156
1988.00,1.3165
1987.00,1.3174
1986.00,1.3187
1985.00,1.3206
1984.00,1.3227
1983.00,1.3247
1982.00,1.3265
1981.00,1.3284
1980.00,1.3304
1979.00,1.3324
1978.00,1.3344
1977.00,1.3363
1976.00,1.3383
1975.00,1.3403
1974.00,1.3420
1973.00,1.3432
1972.00,1.3440
1971.00,1.3449
1970.00,1.3462
1969.00,1.3478
1968.00,1.3493
1967.00,1.3503
1966.00,1.3507
1965.00,1.3506
1964.00,1.3503
1963.00,1.3497
1962.00,1.3488
1961.00,1.3477
1960.00,1.3466
1959.00,1.3455
1958.00,1.3444
1957.00,1.3432
1956.00,1.3418
1955.00,1.3402
1954.00,1.3385
1953.00,1.3368
1952.00,1.3349
1951.00,1.3330
1950.00,1.3311
1949.00,1.3295
1948.00,1.3281
1947.00,1.3268
1946.00,1.3256
1945.00,1.3249
1944.00,1.3243
1943.00,1.3234
1942.00,1.3218
1941.00,1.3199
1940.00,1.3184
1939.00,1.3173
1938.00,1.3164
1937.00,1.3154
1936.00,1.3143
1935.00,1.3136
1934.00,1.3130
1933.00,1.3124
1932.00,1.3116
1931.00,1.3105
1930.00,1.3094
1929.00,1.3081
1928.00,1.3067
1927.00,1.3055
1926.00,1.3046
1925.00,1.3040
1924.00,1.3033
1923.00,1.3020
1922.00,1.3001
1921.00,1.2982
1920.00,1.2966
1919.00,1.2949
1918.00,1.2931
1917.00,1.2912
1916.00,1.2897
1915.00,1.2884
1914.00,1.2869
1913.00,1.2852
1912.00,1.2835
1911.00,1.2817
1910.00,1.2796
1909.00,1.2771
1908.00,1.2745
1907.00,1.2721
1906.00,1.2699
1905.00,1.2677
1904.00,1.2655
1903.00,1.2636
1902.00,1.2620
1901.00,1.2606
1900.00,1.2591
1899.00,1.2576
1898.00,1.2563
1897.00,1.2552
1896.00,1.2542
1895.00,1.2531
1894.00,1.2519
1893.00,1.2508
1892.00,1.2500
1891.00,1.2492
1890.00,1.2483
1889.00,1.2470
1888.00,1.2456
1887.00,1.2444
1886.00,1.2434
1885.00,1.2427
1884.00,1.2419
1883.00,1.2411
1882.00,1.2403
1881.00,1.2398
1880.00,1.2395
1879.00,1.2391
1878.00,1.2386
1877.00,1.2381
1876.00,1.2375
1875.00,1.2369
1874.00,1.2363
1873.00,1.2358
1872.00,1.2355
1871.00,1.2353
1870.00,1.2349
1869.00,1.2342
1868.00,1.2329
1867.00,1.2316
1866.00,1.2305
1865.00,1.2294
1864.00,1.2282
1863.00,1.2267
1862.00,1.2253
1861.00,1.2241
1860.00,1.2229
1859.00,1.2214
1858.00,1.2196
1857.00,1.2175
1856.00,1.2154
1855.00,1.2133
1854.00,1.2114
1853.00,1.2097
1852.00,1.2084
1851.00,1.2075
1850.00,1.2068
1849.00,1.2060
1848.00,1.2047
1847.00,1.2030
1846.00,1.2010
1845.00,1.1993
1844.00,1.1979
1843.00,1.1971
1842.00,1.1968
1841.00,1.1966
1840.00,1.1960
1839.00,1.1951
1838.00,1.1940
1837.00,1.1931
1836.00,1.1923
1835.00,1.1915
1834.00,1.1909
1833.00,1.1905
1832.00,1.1906
1831.00,1.1908
1830.00,1.1907
1829.00,1.1904
1828.00,1.1905
1827.00,1.1912
1826.00,1.1919
1825.00,1.1924
1824.00,1.1928
1823.00,1.1934
1822.00,1.1940
1821.00,1.1945
1820.00,1.1949
1819.00,1.1957
1818.00,1.1967
1817.00,1.1976
1816.00,1.1986
1815.00,1.1997
1814.00,1.2011
1813.00,1.2026
1812.00,1.2037
1811.00,1.2039
1810.00,1.2035
1809.00,1.2031
1808.00,1.2029
1807.00,1.2026
1806.00,1.2021
1805.00,1.2017
1804.00,1.2017
1803.00,1.2019
1802.00,1.2019
1801.00,1.2015
1800.00,1.2006
1799.00,1.1997
1798.00,1.1992
1797.00,1.1990
1796.00,1.1984
1795.00,1.1973
1794.00,1.1960
1793.00,1.1954
1792.00,1.1952
1791.00,1.1949
1790.00,1.1946
1789.00,1.1941
1788.00,1.1936
1787.00,1.1932
1786.00,1.1929
1785.00,1.1925
1784.00,1.1921
1783.00,1.1918
1782.00,1.1915
1781.00,1.1910
1780.00,1.1901
1779.00,1.1892
1778.00,1.1887
1777.00,1.1881
1776.00,1.1870
1775.00,1.1853
1774.00,1.1838
1773.00,1.1827
1772.00,1.1820
1771.00,1.1820
1770.00,1.1826
1769.00,1.1828
1768.00,1.1821
1767.00,1.1805
1766.00,1.1789
1765.00,1.1778
1764.00,1.1771
1763.00,1.1764
1762.00,1.1756
1761.00,1.1750
1760.00,1.1751
1759.00,1.1755
1758.00,1.1758
1757.00,1.1755
1756.00,1.1748
1755.00,1.1745
1754.00,1.1748
1753.00,1.1754
1752.00,1.1766
1751.00,1.1785
1750.00,1.1808
1749.00,1.1829
1748.00,1.1841
1747.00,1.1848
1746.00,1.1859
1745.00,1.1875
1744.00,1.1889
1743.00,1.1897
1742.00,1.1901
1741.00,1.1909
1740.00,1.1923
1739.00,1.1940
1738.00,1.1954
1737.00,1.1961
1736.00,1.1964
1735.00,1.1965
1734.00,1.1969
1733.00,1.1984
1732.00,1.2009
1731.00,1.2025
1730.00,1.2020
1729.00,1.1998
1728.00,1.1973
1727.00,1.1954
1726.00,1.1940
1725.00,1.1928
1724.00,1.1917
1723.00,1.1902
1722.00,1.1888
1721.00,1.1877
1720.00,1.1871
1719.00,1.1866
1718.00,1.1858
1717.00,1.1854
1716.00,1.1859
1715.00,1.1869
1714.00,1.1873
1713.00,1.1876
1712.00,1.1879
1711.00,1.1882
1710.00,1.1884
1709.00,1.1890
1708.00,1.1905
1707.00,1.1928
1706.00,1.1953
1705.00,1.1972
1704.00,1.1981
1703.00,1.1980
1702.00,1.1972
1701.00,1.1973
1700.00,1.1993
1699.00,1.2035
1698.00,1.2084
1697.00,1.2119
1696.00,1.2135
1695.00,1.2151
1694.00,1.2188
1693.00,1.2236
1692.00,1.2279
1691.00,1.2311
1690.00,1.2339
1689.00,1.2363
1688.00,1.2375
1687.00,1.2378
1686.00,1.2384
1685.00,1.2408
1684.00,1.2437
1683.00,1.2470
1682.00,1.2512
1681.00,1.2547
1680.00,1.2565
1679.00,1.2569
1678.00,1.2570
1677.00,1.2574
1676.00,1.2582
1675.00,1.2593
1674.00,1.2612
1673.00,1.2636
1672.00,1.2657
1671.00,1.2669
1670.00,1.2675
1669.00,1.2685
1668.00,1.2706
1667.00,1.2734
1666.00,1.2761
1665.00,1.2782
1664.00,1.2799
1663.00,1.2814
1662.00,1.2829
1661.00,1.2848
1660.00,1.2870
1659.00,1.2891
1658.00,1.2909
1657.00,1.2922
1656.00,1.2925
1655.00,1.2925
1654.00,1.2925
1653.00,1.2928
1652.00,1.2971
1651.00,1.3058
1650.00,1.3139
1649.00,1.3195
1648.00,1.3224
1647.00,1.3236
1646.00,1.3248
1645.00,1.3281
1644.00,1.3329
1643.00,1.3375
1642.00,1.3414
1641.00,1.3450
1640.00,1.3485
1639.00,1.3517
1638.00,1.3542
1637.00,1.3565
1636.00,1.3585
1635.00,1.3612
1634.00,1.3661
1633.00,1.3725
1632.00,1.3779
1631.00,1.3818
1630.00,1.3850
1629.00,1.3886
1628.00,1.3926
1627.00,1.3967
1626.00,1.4012
1625.00,1.4060
1624.00,1.4110
1623.00,1.4156
1622.00,1.4204
1621.00,1.4258
1620.00,1.4311
1619.00,1.4361
1618.00,1.4416
1617.00,1.4490
1616.00,1.4589
1615.00,1.4715
1614.00,1.4862
1613.00,1.5025
1612.00,1.5198
1611.00,1.5378
1610.00,1.5568
1609.00,1.5777
1608.00,1.6005
1607.00,1.6248
1606.00,1.6502
1605.00,1.6765
1604.00,1.7038
1603.00,1.7317
1602.00,1.7603
1601.00,1.7902
1600.00,1.8209
1599.00,1.8517
1598.00,1.8837
1597.00,1.9190
1596.00,1.9574
1595.00,1.9958
1594.00,2.0325
1593.00,2.0692
1592.00,2.1066
1591.00,2.1433
1590.00,2.1790
1589.00,2.2164
1588.00,2.2560
1587.00,2.2953
1586.00,2.3337
1585.00,2.3751
1584.00,2.4200
1583.00,2.4626
1582.00,2.4998
1581.00,2.5362
1580.00,2.5737
1579.00,2.6071
1578.00,2.6349
1577.00,2.6686
1576.00,2.7164
1575.00,2.7681
1574.00,2.8093
1573.00,2.8399
1572.00,2.8637
1571.00,2.8804
1570.00,2.8973
1569.00,2.9279
1568.00,2.9705
1567.00,3.0072
1566.00,3.0322
1565.00,3.0571
1564.00,3.0861
1563.00,3.1174
1562.00,3.1590
1561.00,3.2291
1560.00,3.3107
1559.00,3.3018
1558.00,3.2070
1557.00,3.1466
1556.00,3.1405
1555.00,3.1511
1554.00,3.1603
1553.00,3.1814
1552.00,3.2202
1551.00,3.2471
1550.00,3.2399
1549.00,3.2231
1548.00,3.2278
1547.00,3.2584
1546.00,3.3095
1545.00,3.3703
1544.00,3.4058
1543.00,3.3902
1542.00,3.3344
1541.00,3.2746
1540.00,3.2416
1539.00,3.2303
1538.00,3.2336
1537.00,3.2578
1536.00,3.2899
1535.00,3.2963
1534.00,3.2690
1533.00,3.2390
1532.00,3.2275
1531.00,3.2201
1530.00,3.2020
1529.00,3.1855
1528.00,3.1845
1527.00,3.1996
1526.00,3.2268
1525.00,3.2609
1524.00,3.2873
1523.00,3.2792
1522.00,3.2321
1521.00,3.1826
1520.00,3.1553
1519.00,3.1449
1518.00,3.1512
1517.00,3.1887
1516.00,3.2565
1515.00,3.3204
1514.00,3.3340
1513.00,3.2913
1512.00,3.2300
1511.00,3.1755
1510.00,3.1423
1509.00,3.1458
1508.00,3.1895
1507.00,3.2326
1506.00,3.2269
1505.00,3.2033
1504.00,3.1894
1503.00,3.1744
1502.00,3.1552
1501.00,3.1428
1500.00,3.1463
1499.00,3.1609
1498.00,3.1807
1497.00,3.2065
1496.00,3.2259
1495.00,3.2230
1494.00,3.2152
1493.00,3.2353
1492.00,3.2921
1491.00,3.3512
1490.00,3.3607
1489.00,3.3300
1488.00,3.3071
1487.00,3.3080
1486.00,3.3237
1485.00,3.3497
1484.00,3.3868
1483.00,3.4257
1482.00,3.4581
1481.00,3.4941
1480.00,3.5141
1479.00,3.4694
1478.00,3.3960
1477.00,3.3577
1476.00,3.3639
1475.00,3.3789
1474.00,3.3625
1473.00,3.3277
1472.00,3.3081
1471.00,3.3146
1470.00,3.3477
1469.00,3.4011
1468.00,3.4466
1467.00,3.4368
1466.00,3.3673
1465.00,3.2905
1464.00,3.2450
1463.00,3.2354
1462.00,3.2567
1461.00,3.3101
1460.00,3.3914
1459.00,3.4713
1458.00,3.5301
1457.00,3.5851
1456.00,3.6217
1455.00,3.6174
1454.00,3.5910
1453.00,3.5695
1452.00,3.5428
1451.00,3.4652
1450.00,3.3793
1449.00,3.3567
1448.00,3.3957
1447.00,3.4416
1446.00,3.4452
1445.00,3.4189
1444.00,3.4010
1443.00,3.4041
1442.00,3.4252
1441.00,3.4648
1440.00,3.5179
1439.00,3.5660
1438.00,3.6044
1437.00,3.6365
1436.00,3.6395
1435.00,3.6075
1434.00,3.5765
1433.00,3.5618
1432.00,3.5480
1431.00,3.5463
1430.00,3.5936
1429.00,3.6761
1428.00,3.7137
1427.00,3.6668
1426.00,3.5864
1425.00,3.5467
1424.00,3.5671
1423.00,3.6021
1422.00,3.6036
1421.00,3.5538
1420.00,3.4676
1419.00,3.3861
1418.00,3.3349
1417.00,3.3161
1416.00,3.3222
1415.00,3.3484
1414.00,3.3958
1413.00,3.4558
1412.00,3.4925
1411.00,3.4765
1410.00,3.4500
1409.00,3.4758
1408.00,3.5646
1407.00,3.6677
1406.00,3.7366
1405.00,3.8022
1404.00,3.8865
1403.00,3.9599
1402.00,3.9315
1401.00,3.8048
1400.00,3.7361
1399.00,3.7710
1398.00,3.9140
1397.00,4.1617
1396.00,4.3833
1395.00,4.2524
1394.00,3.9277
1393.00,3.7055
1392.00,3.5868
1391.00,3.5189
1390.00,3.4750
1389.00,3.4623
1388.00,3.4903
1387.00,3.5604
1386.00,3.6849
1385.00,3.9043
1384.00,4.1833
1383.00,4.3031
1382.00,4.2006
1381.00,3.9438
1380.00,3.7793
1379.00,3.7239
1378.00,3.6905
1377.00,3.6274
1376.00,3.5771
1375.00,3.5860
1374.00,3.6220
1373.00,3.6448
1372.00,3.6650
1371.00,3.6907
1370.00,3.7258
1369.00,3.7716
1368.00,3.7956
1367.00,3.7484
1366.00,3.6426
1365.00,3.5500
1364.00,3.5267
1363.00,3.5895
1362.00,3.7241
1361.00,3.8354
1360.00,3.7851
1359.00,3.7200
1358.00,3.7491
1357.00,3.7594
1356.00,3.6951
1355.00,3.6967
1354.00,3.8132
1353.00,3.9017
1352.00,3.7903
1351.00,3.6716
1350.00,3.6195
1349.00,3.5722
1348.00,3.5109
1347.00,3.4694
1346.00,3.4608
1345.00,3.4533
1344.00,3.4248
1343.00,3.4079
1342.00,3.4347
1341.00,3.4949
1340.00,3.5616
1339.00,3.6351
1338.00,3.7473
1337.00,3.8997
1336.00,3.9930
1335.00,3.9565
1334.00,3.8961
1333.00,3.8584
1332.00,3.7979
1331.00,3.6982
1330.00,3.6032
1329.00,3.5518
1328.00,3.5557
1327.00,3.6012
1326.00,3.6363
1325.00,3.6018
1324.00,3.5211
1323.00,3.4625
1322.00,3.4519
1321.00,3.4728
1320.00,3.5081
1319.00,3.5580
1318.00,3.5964
1317.00,3.5637
1316.00,3.4676
1315.00,3.3858
1314.00,3.3640
1313.00,3.4025
1312.00,3.4640
1311.00,3.4956
1310.00,3.5014
1309.00,3.5156
1308.00,3.5392
1307.00,3.5555
1306.00,3.5335
1305.00,3.4677
1304.00,3.4059
1303.00,3.3700
1302.00,3.3425
1301.00,3.3101
1300.00,3.2808
1299.00,3.2737
1298.00,3.3018
1297.00,3.3565
1296.00,3.4039
1295.00,3.4193
1294.00,3.4022
1293.00,3.3642
1292.00,3.3359
1291.00,3.3399
1290.00,3.3731
1289.00,3.4199
1288.00,3.4563
1287.00,3.4604
1286.00,3.4305
1285.00,3.3868
1284.00,3.3649
1283.00,3.3768
1282.00,3.3900
1281.00,3.3603
1280.00,3.3017
1279.00,3.2661
1278.00,3.2757
1277.00,3.3110
1276.00,3.3289
1275.00,3.3026
1274.00,3.2514
1273.00,3.2121
1272.00,3.2027
1271.00,3.2141
1270.00,3.2195
1269.00,3.2039
1268.00,3.1840
1267.00,3.1865
1266.00,3.2157
1265.00,3.2441
1264.00,3.2404
1263.00,3.2080
1262.00,3.1828
1261.00,3.1981
1260.00,3.2607
1259.00,3.3479
1258.00,3.3943
1257.00,3.3616
1256.00,3.3035
1255.00,3.2520
1254.00,3.2125
1253.00,3.1897
1252.00,3.1903
1251.00,3.2271
1250.00,3.2982
1249.00,3.3731
1248.00,3.4228
1247.00,3.4605
1246.00,3.4996
1245.00,3.4841
1244.00,3.4002
1243.00,3.3296
1242.00,3.3054
1241.00,3.3094
1240.00,3.3056
1239.00,3.2774
1238.00,3.2343
1237.00,3.1833
1236.00,3.1419
1235.00,3.1295
1234.00,3.1451
1233.00,3.1728
1232.00,3.1968
1231.00,3.2131
1230.00,3.2194
1229.00,3.2101
1228.00,3.1943
1227.00,3.1982
1226.00,3.2398
1225.00,3.3060
1224.00,3.3573
1223.00,3.3660
1222.00,3.3394
1221.00,3.2978
1220.00,3.2574
1219.00,3.2257
1218.00,3.2023
1217.00,3.1856
1216.00,3.1790
1215.00,3.1876
1214.00,3.2042
1213.00,3.2066
1212.00,3.1838
1211.00,3.1551
1210.00,3.1435
1209.00,3.1487
1208.00,3.1534
1207.00,3.1433
1206.00,3.1178
1205.00,3.0905
1204.00,3.0756
1203.00,3.0767
1202.00,3.0837
1201.00,3.0849
1200.00,3.0826
1199.00,3.0865
1198.00,3.0945
1197.00,3.0929
1196.00,3.0812
1195.00,3.0777
1194.00,3.0938
1193.00,3.1211
1192.00,3.1278
1191.00,3.0921
1190.00,3.0457
1189.00,3.0250
1188.00,3.0377
1187.00,3.0705
1186.00,3.0960
1185.00,3.0963
1184.00,3.0826
1183.00,3.0760
1182.00,3.0826
1181.00,3.0935
1180.00,3.1001
1179.00,3.1037
1178.00,3.1043
1177.00,3.0951
1176.00,3.0791
1175.00,3.0730
1174.00,3.0818
1173.00,3.0859
1172.00,3.0642
1171.00,3.0210
1170.00,2.9831
1169.00,2.9667
1168.00,2.9631
1167.00,2.9584
1166.00,2.9504
1165.00,2.9522
1164.00,2.9837
1163.00,3.0434
1162.00,3.0882
1161.00,3.0805
1160.00,3.0411
1159.00,2.9941
1158.00,2.9506
1157.00,2.9282
1156.00,2.9415
1155.00,2.9876
1154.00,3.0464
1153.00,3.0941
1152.00,3.1023
1151.00,3.0544
1150.00,2.9868
1149.00,2.9440
1148.00,2.9414
1147.00,2.9692
1146.00,2.9945
1145.00,2.9874
1144.00,2.9583
1143.00,2.9415
1142.00,2.9496
1141.00,2.9698
1140.00,2.9873
1139.00,2.9976
1138.00,3.0009
1137.00,2.9974
1136.00,2.9906
1135.00,2.9882
1134.00,2.9963
1133.00,3.0097
1132.00,3.0130
1131.00,2.9966
1130.00,2.9667
1129.00,2.9402
1128.00,2.9349
1127.00,2.9593
1126.00,3.0035
1125.00,3.0341
1124.00,3.0258
1123.00,2.9913
1122.00,2.9517
1121.00,2.9235
1120.00,2.9175
1119.00,2.9384
1118.00,2.9835
1117.00,3.0372
1116.00,3.0725
1115.00,3.0714
1114.00,3.0494
1113.00,3.0377
1112.00,3.0478
1111.00,3.0548
1110.00,3.0191
1109.00,2.9532
1108.00,2.9059
1107.00,2.8996
1106.00,2.9216
1105.00,2.9449
1104.00,2.9611
1103.00,2.9880
1102.00,3.0391
1101.00,3.0980
1100.00,3.1319
1099.00,3.1286
1098.00,3.1029
1097.00,3.0729
1096.00,3.0510
1095.00,3.0410
1094.00,3.0393
1093.00,3.0364
1092.00,3.0225
1091.00,3.0114
1090.00,3.0169
1089.00,3.0281
1088.00,3.0465
1087.00,3.0877
1086.00,3.1420
1085.00,3.1774
1084.00,3.1804
1083.00,3.1589
1082.00,3.1170
1081.00,3.0677
1080.00,3.0145
1079.00,2.9397
1078.00,2.8427
1077.00,2.7457
1076.00,2.6639
1075.00,2.5982
1074.00,2.5466
1073.00,2.5087
1072.00,2.4815
1071.00,2.4583
1070.00,2.4344
1069.00,2.4101
1068.00,2.3861
1067.00,2.3617
1066.00,2.3373
1065.00,2.3148
1064.00,2.2947
1063.00,2.2755
1062.00,2.2583
1061.00,2.2450
1060.00,2.2330
1059.00,2.2156
1058.00,2.1924
1057.00,2.1721
1056.00,2.1630
1055.00,2.1636
1054.00,2.1643
1053.00,2.1571
1052.00,2.1419
1051.00,2.1237
1050.00,2.1083
1049.00,2.0987
1048.00,2.0938
1047.00,2.0897
1046.00,2.0852
1045.00,2.0834
1044.00,2.0860
1043.00,2.0888
1042.00,2.0866
1041.00,2.0798
1040.00,2.0727
1039.00,2.0676
1038.00,2.0626
1037.00,2.0573
1036.00,2.0543
1035.00,2.0562
1034.00,2.0624
1033.00,2.0700
1032.00,2.0755
1031.00,2.0767
1030.00,2.0749
1029.00,2.0745
1028.00,2.0785
1027.00,2.0853
1026.00,2.0905
1025.00,2.0919
1024.00,2.0911
1023.00,2.0908
1022.00,2.0943
1021.00,2.1055
1020.00,2.1266
1019.00,2.1546
1018.00,2.1829
1017.00,2.2081
1016.00,2.2342
1015.00,2.2692
1014.00,2.3183
1013.00,2.3831
1012.00,2.4653
1011.00,2.5654
1010.00,2.6794
1009.00,2.7982
1008.00,2.9127
1007.00,3.0231
1006.00,3.1414
1005.00,3.2974
1004.00,3.4874
1003.00,3.5326
1002.00,3.4687
1001.00,3.4822
1000.00,3.5571
999.00,3.6185
998.00,3.6365
997.00,3.6614
996.00,3.7189
995.00,3.6872
994.00,3.4927
993.00,3.3051
992.00,3.2036
991.00,3.1854
990.00,3.2219
989.00,3.2681
988.00,3.2958
987.00,3.3250
986.00,3.3937
985.00,3.5050
984.00,3.5533
983.00,3.4690
982.00,3.3840
981.00,3.3318
980.00,3.3035
979.00,3.3407
978.00,3.4784
977.00,3.6835
976.00,3.7246
975.00,3.4928
974.00,3.2525
973.00,3.0777
972.00,2.9469
971.00,2.8328
970.00,2.7229
969.00,2.6178
968.00,2.5214
967.00,2.4349
966.00,2.3578
965.00,2.2895
964.00,2.2285
963.00,2.1706
962.00,2.1117
961.00,2.0524
960.00,1.9969
959.00,1.9491
958.00,1.9090
957.00,1.8743
956.00,1.8444
955.00,1.8201
954.00,1.8020
953.00,1.7884
952.00,1.7761
951.00,1.7631
950.00,1.7497
949.00,1.7375
948.00,1.7283
947.00,1.7223
946.00,1.7186
945.00,1.7145
944.00,1.7074
943.00,1.6974
942.00,1.6873
941.00,1.6800
940.00,1.6761
939.00,1.6743
938.00,1.6734
937.00,1.6729
936.00,1.6724
935.00,1.6711
934.00,1.6695
933.00,1.6697
932.00,1.6727
931.00,1.6775
930.00,1.6822
929.00,1.6858
928.00,1.6878
927.00,1.6867
926.00,1.6816
925.00,1.6740
924.00,1.6663
923.00,1.6583
922.00,1.6481
921.00,1.6357
920.00,1.6238
919.00,1.6140
918.00,1.6053
917.00,1.5953
916.00,1.5832
915.00,1.5697
914.00,1.5560
913.00,1.5432
912.00,1.5323
911.00,1.5233
910.00,1.5152
909.00,1.5069
908.00,1.4984
907.00,1.4899
906.00,1.4812
905.00,1.4722
904.00,1.4641
903.00,1.4580
902.00,1.4536
901.00,1.4493
900.00,1.4446
899.00,1.4400
898.00,1.4358
897.00,1.4311
896.00,1.4254
895.00,1.4199
894.00,1.4157
893.00,1.4127
892.00,1.4098
891.00,1.4071
890.00,1.4054
889.00,1.4053
888.00,1.4066
887.00,1.4084
886.00,1.4100
885.00,1.4105
884.00,1.4092
883.00,1.4053
882.00,1.3991
881.00,1.3915
880.00,1.3838
879.00,1.3772
878.00,1.3725
877.00,1.3695
876.00,1.3678
875.00,1.3668
874.00,1.3657
873.00,1.3635
872.00,1.3597
871.00,1.3556
870.00,1.3533
869.00,1.3542
868.00,1.3571
867.00,1.3593
866.00,1.3595
865.00,1.3582
864.00,1.3570
863.00,1.3567
862.00,1.3575
861.00,1.3597
860.00,1.3634
859.00,1.3679
858.00,1.3732
857.00,1.3796
856.00,1.3876
855.00,1.3967
854.00,1.4060
853.00,1.4151
852.00,1.4241
851.00,1.4327
850.00,1.4397
849.00,1.4444
848.00,1.4476
847.00,1.4500
846.00,1.4510
845.00,1.4495
844.00,1.4450
843.00,1.4390
842.00,1.4335
841.00,1.4295
840.00,1.4268
839.00,1.4251
838.00,1.4248
837.00,1.4278
836.00,1.4350
835.00,1.4463
834.00,1.4607
833.00,1.4785
832.00,1.5009
831.00,1.5288
830.00,1.5617
829.00,1.5997
828.00,1.6474
827.00,1.7163
826.00,1.8228
825.00,1.9851
824.00,2.2235
823.00,2.5597
822.00,3.0342
821.00,3.7747
820.00,3.8728
819.00,3.7114
818.00,3.8388
817.00,4.1415
816.00,3.6513
815.00,3.3990
814.00,3.2841
813.00,3.2093
812.00,3.1776
811.00,3.2309
810.00,3.4330
809.00,3.6743
808.00,3.6429
807.00,3.6891
806.00,3.7640
805.00,3.6317
804.00,3.4444
803.00,3.3629
802.00,3.4275
801.00,3.5686
800.00,3.6212
799.00,3.6761
798.00,3.5903
797.00,3.4046
796.00,3.3430
795.00,3.4169
794.00,3.6932
793.00,3.8545
792.00,3.4748
791.00,3.3312
790.00,3.3685
789.00,3.5950
788.00,3.9030
787.00,3.7532
786.00,3.4363
785.00,3.1978
784.00,3.0720
783.00,3.0088
782.00,2.9868
781.00,2.9816
780.00,2.9762
779.00,2.9967
778.00,3.0294
777.00,3.0280
776.00,2.9841
775.00,2.9034
774.00,2.8188
773.00,2.7678
772.00,2.7602
771.00,2.7822
770.00,2.7968
769.00,2.7683
768.00,2.7144
767.00,2.6759
766.00,2.6642
765.00,2.6618
764.00,2.6443
763.00,2.6076
762.00,2.5700
761.00,2.5494
760.00,2.5498
759.00,2.5634
758.00,2.5838
757.00,2.6168
756.00,2.6769
755.00,2.7694
754.00,2.8780
753.00,2.9897
752.00,3.1091
751.00,3.2079
750.00,3.2217
749.00,3.1678
748.00,3.1470
747.00,3.2229
746.00,3.4168
745.00,3.6570
744.00,3.5917
743.00,3.3416
742.00,3.1527
741.00,3.0399
740.00,2.9726
739.00,2.9084
738.00,2.8187
737.00,2.7071
736.00,2.5907
735.00,2.4791
734.00,2.3764
733.00,2.2887
732.00,2.2245
731.00,2.1892
730.00,2.1829
729.00,2.2015
728.00,2.2369
727.00,2.2778
726.00,2.3159
725.00,2.3521
724.00,2.3962
723.00,2.4549
722.00,2.5204
721.00,2.5738
720.00,2.6035
719.00,2.6110
718.00,2.6018
717.00,2.5831
716.00,2.5667
715.00,2.5627
714.00,2.5700
713.00,2.5774
712.00,2.5732
711.00,2.5530
710.00,2.5231
709.00,2.4944
708.00,2.4723
707.00,2.4530
706.00,2.4307
705.00,2.4074
704.00,2.3886
703.00,2.3718
702.00,2.3482
701.00,2.3157
700.00,2.2840
699.00,2.2623
698.00,2.2504
697.00,2.2419
696.00,2.2335
695.00,2.2272
694.00,2.2237
693.00,2.2186
692.00,2.2073
691.00,2.1914
690.00,2.1773
689.00,2.1707
688.00,2.1730
687.00,2.1803
686.00,2.1856
685.00,2.1849
684.00,2.1797
683.00,2.1742
682.00,2.1715
681.00,2.1721
680.00,2.1757
679.00,2.1807
678.00,2.1853
677.00,2.1891
676.00,2.1939
675.00,2.1992
674.00,2.2046
673.00,2.2147
672.00,2.2363
671.00,2.2663
670.00,2.2884
669.00,2.2867
668.00,2.2685
667.00,2.2575
666.00,2.2681
665.00,2.2989
664.00,2.3387
663.00,2.3755
662.00,2.3932
661.00,2.3863
660.00,2.3676
659.00,2.3577
658.00,2.3739
657.00,2.4176
656.00,2.4764
655.00,2.5317
654.00,2.5669
653.00,2.5893
652.00,2.6163
651.00,2.6416
650.00,2.6506
649.00,2.6505
648.00,2.6473
647.00,2.6288
646.00,2.5901
645.00,2.5388
644.00,2.4889
643.00,2.4488
642.00,2.4115
641.00,2.3690
640.00,2.3278
639.00,2.2969
638.00,2.2705
637.00,2.2392
636.00,2.2009
635.00,2.1586
634.00,2.1137
633.00,2.0646
632.00,2.0147
631.00,1.9724
630.00,1.9406
629.00,1.9126
628.00,1.8811
627.00,1.8473
626.00,1.8180
625.00,1.7976
624.00,1.7847
623.00,1.7753
622.00,1.7665
621.00,1.7584
620.00,1.7532
619.00,1.7521
618.00,1.7525
617.00,1.7505
616.00,1.7444
615.00,1.7357
614.00,1.7248
613.00,1.7105
612.00,1.6927
611.00,1.6743
610.00,1.6585
609.00,1.6456
608.00,1.6343
607.00,1.6248
606.00,1.6185
605.00,1.6156
604.00,1.6146
603.00,1.6128
602.00,1.6084
601.00,1.6019
600.00,1.5954
599.00,1.5907
598.00,1.5860
597.00,1.5777
596.00,1.5648
595.00,1.5497
594.00,1.5348
593.00,1.5203
592.00,1.5059
591.00,1.4935
590.00,1.4860
589.00,1.4840
588.00,1.4845
587.00,1.4842
586.00,1.4830
585.00,1.4838
584.00,1.4897
583.00,1.5004
582.00,1.5114
581.00,1.5182
580.00,1.5213
579.00,1.5251
578.00,1.5320
577.00,1.5408
576.00,1.5485
575.00,1.5547
574.00,1.5607
573.00,1.5680
572.00,1.5778
571.00,1.5907
570.00,1.6044
569.00,1.6146
568.00,1.6204
567.00,1.6252
566.00,1.6324
565.00,1.6399
564.00,1.6432
563.00,1.6420
562.00,1.6425
561.00,1.6501
560.00,1.6644
559.00,1.6811
558.00,1.6976
557.00,1.7153
556.00,1.7361
555.00,1.7598
554.00,1.7846
553.00,1.8100
552.00,1.8372
551.00,1.8664
550.00,1.8953
