Created as New Dataset,
cm-1,A
4000.00,2.0724
3999.00,2.0723
3998.00,2.0726
3997.00,2.0735
3996.00,2.0745
3995.00,2.0745
3994.00,2.0729
3993.00,2.0702
3992.00,2.0676
3991.00,2.0662
3990.00,2.0654
3989.00,2.0642
3988.00,2.0620
3987.00,2.0598
3986.00,2.0591
3985.00,2.0597
3984.00,2.0604
3983.00,2.0598
3982.00,2.0578
3981.00,2.0560
3980.00,2.0556
3979.00,2.0570
3978.00,2.0595
3977.00,2.0623
3976.00,2.0646
3975.00,2.0665
3974.00,2.0680
3973.00,2.0692
3972.00,2.0694
3971.00,2.0682
3970.00,2.0656
3969.00,2.0630
3968.00,2.0620
3967.00,2.0630
3966.00,2.0645
3965.00,2.0645
3964.00,2.0625
3963.00,2.0601
3962.00,2.0592
3961.00,2.0601
3960.00,2.0617
3959.00,2.0628
3958.00,2.0634
3957.00,2.0638
3956.00,2.0636
3955.00,2.0622
3954.00,2.0599
3953.00,2.0581
3952.00,2.0576
3951.00,2.0583
3950.00,2.0590
3949.00,2.0591
3948.00,2.0582
3947.00,2.0562
3946.00,2.0539
3945.00,2.0523
3944.00,2.0527
3943.00,2.0547
3942.00,2.0568
3941.00,2.0576
3940.00,2.0567
3939.00,2.0551
3938.00,2.0538
3937.00,2.0536
3936.00,2.0544
3935.00,2.0555
3934.00,2.0558
3933.00,2.0547
3932.00,2.0525
3931.00,2.0499
3930.00,2.0484
3929.00,2.0489
3928.00,2.0514
3927.00,2.0543
3926.00,2.0556
3925.00,2.0542
3924.00,2.0510
3923.00,2.0485
3922.00,2.0487
3921.00,2.0518
3920.00,2.0559
3919.00,2.0584
3918.00,2.0581
3917.00,2.0554
3916.00,2.0522
3915.00,2.0498
3914.00,2.0490
3913.00,2.0497
3912.00,2.0518
3911.00,2.0547
3910.00,2.0573
3909.00,2.0583
3908.00,2.0570
3907.00,2.0537
3906.00,2.0495
3905.00,2.0462
3904.00,2.0456
3903.00,2.0479
3902.00,2.0513
3901.00,2.0529
3900.00,2.0514
3899.00,2.0483
3898.00,2.0463
3897.00,2.0470
3896.00,2.0501
3895.00,2.0548
3894.00,2.0592
3893.00,2.0617
3892.00,2.0613
3891.00,2.0587
3890.00,2.0555
3889.00,2.0527
3888.00,2.0506
3887.00,2.0491
3886.00,2.0488
3885.00,2.0500
3884.00,2.0522
3883.00,2.0541
3882.00,2.0544
3881.00,2.0529
3880.00,2.0511
3879.00,2.0500
3878.00,2.0500
3877.00,2.0501
3876.00,2.0498
3875.00,2.0485
3874.00,2.0462
3873.00,2.0439
3872.00,2.0434
3871.00,2.0458
3870.00,2.0500
3869.00,2.0532
3868.00,2.0538
3867.00,2.0526
3866.00,2.0518
3865.00,2.0522
3864.00,2.0526
3863.00,2.0516
3862.00,2.0496
3861.00,2.0480
3860.00,2.0477
3859.00,2.0483
3858.00,2.0488
3857.00,2.0484
3856.00,2.0474
3855.00,2.0478
3854.00,2.0512
3853.00,2.0561
3852.00,2.0598
3851.00,2.0600
3850.00,2.0565
3849.00,2.0505
3848.00,2.0440
3847.00,2.0390
3846.00,2.0367
3845.00,2.0369
3844.00,2.0383
3843.00,2.0396
3842.00,2.0407
3841.00,2.0423
3840.00,2.0451
3839.00,2.0486
3838.00,2.0518
3837.00,2.0534
3836.00,2.0524
3835.00,2.0493
3834.00,2.0452
3833.00,2.0417
3832.00,2.0397
3831.00,2.0392
3830.00,2.0391
3829.00,2.0388
3828.00,2.0381
3827.00,2.0378
3826.00,2.0388
3825.00,2.0411
3824.00,2.0436
3823.00,2.0454
3822.00,2.0458
3821.00,2.0452
3820.00,2.0445
3819.00,2.0440
3818.00,2.0429
3817.00,2.0408
3816.00,2.0383
3815.00,2.0366
3814.00,2.0360
3813.00,2.0359
3812.00,2.0358
3811.00,2.0358
3810.00,2.0366
3809.00,2.0380
3808.00,2.0390
3807.00,2.0390
3806.00,2.0384
3805.00,2.0385
3804.00,2.0397
3803.00,2.0414
3802.00,2.0421
3801.00,2.0410
3800.00,2.0386
3799.00,2.0357
3798.00,2.0327
3797.00,2.0303
3796.00,2.0285
3795.00,2.0272
3794.00,2.0258
3793.00,2.0247
3792.00,2.0249
3791.00,2.0272
3790.00,2.0306
3789.00,2.0326
3788.00,2.0319
3787.00,2.0292
3786.00,2.0267
3785.00,2.0259
3784.00,2.0267
3783.00,2.0280
3782.00,2.0292
3781.00,2.0304
3780.00,2.0314
3779.00,2.0318
3778.00,2.0309
3777.00,2.0284
3776.00,2.0250
3775.00,2.0222
3774.00,2.0208
3773.00,2.0209
3772.00,2.0221
3771.00,2.0239
3770.00,2.0263
3769.00,2.0291
3768.00,2.0314
3767.00,2.0323
3766.00,2.0314
3765.00,2.0294
3764.00,2.0271
3763.00,2.0256
3762.00,2.0258
3761.00,2.0272
3760.00,2.0283
3759.00,2.0279
3758.00,2.0267
3757.00,2.0266
3756.00,2.0286
3755.00,2.0315
3754.00,2.0338
3753.00,2.0345
3752.00,2.0338
3751.00,2.0326
3750.00,2.0327
3749.00,2.0346
3748.00,2.0374
3747.00,2.0396
3746.00,2.0405
3745.00,2.0409
3744.00,2.0418
3743.00,2.0427
3742.00,2.0431
3741.00,2.0431
3740.00,2.0431
3739.00,2.0430
3738.00,2.0427
3737.00,2.0424
3736.00,2.0421
3735.00,2.0416
3734.00,2.0408
3733.00,2.0402
3732.00,2.0396
3731.00,2.0382
3730.00,2.0355
3729.00,2.0318
3728.00,2.0284
3727.00,2.0260
3726.00,2.0242
3725.00,2.0228
3724.00,2.0219
3723.00,2.0217
3722.00,2.0218
3721.00,2.0215
3720.00,2.0207
3719.00,2.0200
3718.00,2.0201
3717.00,2.0215
3716.00,2.0236
3715.00,2.0255
3714.00,2.0264
3713.00,2.0269
3712.00,2.0278
3711.00,2.0298
3710.00,2.0329
3709.00,2.0361
3708.00,2.0382
3707.00,2.0387
3706.00,2.0382
3705.00,2.0374
3704.00,2.0370
3703.00,2.0369
3702.00,2.0365
3701.00,2.0357
3700.00,2.0348
3699.00,2.0343
3698.00,2.0345
3697.00,2.0354
3696.00,2.0367
3695.00,2.0380
3694.00,2.0390
3693.00,2.0400
3692.00,2.0412
3691.00,2.0425
3690.00,2.0432
3689.00,2.0433
3688.00,2.0434
3687.00,2.0437
3686.00,2.0436
3685.00,2.0428
3684.00,2.0417
3683.00,2.0408
3682.00,2.0403
3681.00,2.0403
3680.00,2.0410
3679.00,2.0421
3678.00,2.0432
3677.00,2.0437
3676.00,2.0441
3675.00,2.0454
3674.00,2.0483
3673.00,2.0515
3672.00,2.0534
3671.00,2.0528
3670.00,2.0503
3669.00,2.0473
3668.00,2.0449
3667.00,2.0435
3666.00,2.0423
3665.00,2.0407
3664.00,2.0387
3663.00,2.0370
3662.00,2.0364
3661.00,2.0370
3660.00,2.0381
3659.00,2.0390
3658.00,2.0393
3657.00,2.0391
3656.00,2.0389
3655.00,2.0388
3654.00,2.0392
3653.00,2.0408
3652.00,2.0441
3651.00,2.0489
3650.00,2.0529
3649.00,2.0542
3648.00,2.0532
3647.00,2.0515
3646.00,2.0495
3645.00,2.0471
3644.00,2.0437
3643.00,2.0400
3642.00,2.0370
3641.00,2.0357
3640.00,2.0363
3639.00,2.0378
3638.00,2.0394
3637.00,2.0402
3636.00,2.0399
3635.00,2.0393
3634.00,2.0398
3633.00,2.0430
3632.00,2.0489
3631.00,2.0561
3630.00,2.0616
3629.00,2.0634
3628.00,2.0624
3627.00,2.0611
3626.00,2.0605
3625.00,2.0598
3624.00,2.0582
3623.00,2.0561
3622.00,2.0547
3621.00,2.0554
3620.00,2.0584
3619.00,2.0629
3618.00,2.0672
3617.00,2.0700
3616.00,2.0703
3615.00,2.0686
3614.00,2.0661
3613.00,2.0638
3612.00,2.0626
3611.00,2.0628
3610.00,2.0647
3609.00,2.0682
3608.00,2.0724
3607.00,2.0758
3606.00,2.0777
3605.00,2.0779
3604.00,2.0770
3603.00,2.0755
3602.00,2.0737
3601.00,2.0719
3600.00,2.0709
3599.00,2.0715
3598.00,2.0737
3597.00,2.0759
3596.00,2.0764
3595.00,2.0744
3594.00,2.0713
3593.00,2.0693
3592.00,2.0696
3591.00,2.0720
3590.00,2.0756
3589.00,2.0790
3588.00,2.0810
3587.00,2.0815
3586.00,2.0820
3585.00,2.0837
3584.00,2.0858
3583.00,2.0867
3582.00,2.0858
3581.00,2.0842
3580.00,2.0831
3579.00,2.0830
3578.00,2.0836
3577.00,2.0844
3576.00,2.0855
3575.00,2.0871
3574.00,2.0894
3573.00,2.0919
3572.00,2.0946
3571.00,2.0973
3570.00,2.0996
3569.00,2.1013
3568.00,2.1027
3567.00,2.1047
3566.00,2.1080
3565.00,2.1112
3564.00,2.1122
3563.00,2.1100
3562.00,2.1061
3561.00,2.1032
3560.00,2.1030
3559.00,2.1052
3558.00,2.1085
3557.00,2.1117
3556.00,2.1146
3555.00,2.1170
3554.00,2.1191
3553.00,2.1205
3552.00,2.1207
3551.00,2.1191
3550.00,2.1164
3549.00,2.1143
3548.00,2.1149
3547.00,2.1186
3546.00,2.1237
3545.00,2.1275
3544.00,2.1288
3543.00,2.1284
3542.00,2.1278
3541.00,2.1283
3540.00,2.1303
3539.00,2.1332
3538.00,2.1361
3537.00,2.1375
3536.00,2.1368
3535.00,2.1343
3534.00,2.1320
3533.00,2.1310
3532.00,2.1319
3531.00,2.1347
3530.00,2.1384
3529.00,2.1414
3528.00,2.1426
3527.00,2.1428
3526.00,2.1443
3525.00,2.1484
3524.00,2.1532
3523.00,2.1558
3522.00,2.1555
3521.00,2.1540
3520.00,2.1535
3519.00,2.1542
3518.00,2.1552
3517.00,2.1555
3516.00,2.1549
3515.00,2.1544
3514.00,2.1554
3513.00,2.1589
3512.00,2.1638
3511.00,2.1685
3510.00,2.1715
3509.00,2.1729
3508.00,2.1735
3507.00,2.1743
3506.00,2.1763
3505.00,2.1798
3504.00,2.1838
3503.00,2.1862
3502.00,2.1860
3501.00,2.1847
3500.00,2.1846
3499.00,2.1866
3498.00,2.1899
3497.00,2.1931
3496.00,2.1952
3495.00,2.1957
3494.00,2.1953
3493.00,2.1955
3492.00,2.1976
3491.00,2.2018
3490.00,2.2069
3489.00,2.2119
3488.00,2.2162
3487.00,2.2195
3486.00,2.2219
3485.00,2.2236
3484.00,2.2250
3483.00,2.2262
3482.00,2.2270
3481.00,2.2273
3480.00,2.2271
3479.00,2.2264
3478.00,2.2252
3477.00,2.2240
3476.00,2.2230
3475.00,2.2230
3474.00,2.2247
3473.00,2.2287
3472.00,2.2341
3471.00,2.2392
3470.00,2.2430
3469.00,2.2460
3468.00,2.2495
3467.00,2.2534
3466.00,2.2566
3465.00,2.2584
3464.00,2.2593
3463.00,2.2598
3462.00,2.2597
3461.00,2.2585
3460.00,2.2578
3459.00,2.2596
3458.00,2.2649
3457.00,2.2714
3456.00,2.2758
3455.00,2.2771
3454.00,2.2775
3453.00,2.2803
3452.00,2.2861
3451.00,2.2927
3450.00,2.2979
3449.00,2.3011
3448.00,2.3030
3447.00,2.3043
3446.00,2.3054
3445.00,2.3075
3444.00,2.3113
3443.00,2.3167
3442.00,2.3229
3441.00,2.3289
3440.00,2.3342
3439.00,2.3379
3438.00,2.3398
3437.00,2.3407
3436.00,2.3421
3435.00,2.3448
3434.00,2.3484
3433.00,2.3521
3432.00,2.3556
3431.00,2.3584
3430.00,2.3603
3429.00,2.3615
3428.00,2.3622
3427.00,2.3624
3426.00,2.3619
3425.00,2.3614
3424.00,2.3622
3423.00,2.3647
3422.00,2.3672
3421.00,2.3676
3420.00,2.3670
3419.00,2.3685
3418.00,2.3743
3417.00,2.3835
3416.00,2.3923
3415.00,2.3966
3414.00,2.3948
3413.00,2.3883
3412.00,2.3804
3411.00,2.3745
3410.00,2.3721
3409.00,2.3724
3408.00,2.3739
3407.00,2.3756
3406.00,2.3769
3405.00,2.3776
3404.00,2.3774
3403.00,2.3766
3402.00,2.3767
3401.00,2.3782
3400.00,2.3809
3399.00,2.3834
3398.00,2.3844
3397.00,2.3834
3396.00,2.3810
3395.00,2.3796
3394.00,2.3820
3393.00,2.3885
3392.00,2.3958
3391.00,2.3995
3390.00,2.3976
3389.00,2.3922
3388.00,2.3866
3387.00,2.3826
3386.00,2.3808
3385.00,2.3811
3384.00,2.3831
3383.00,2.3854
3382.00,2.3861
3381.00,2.3851
3380.00,2.3834
3379.00,2.3817
3378.00,2.3804
3377.00,2.3791
3376.00,2.3771
3375.00,2.3737
3374.00,2.3690
3373.00,2.3637
3372.00,2.3594
3371.00,2.3570
3370.00,2.3568
3369.00,2.3586
3368.00,2.3617
3367.00,2.3659
3366.00,2.3706
3365.00,2.3744
3364.00,2.3755
3363.00,2.3728
3362.00,2.3679
3361.00,2.3646
3360.00,2.3654
3359.00,2.3689
3358.00,2.3714
3357.00,2.3700
3356.00,2.3646
3355.00,2.3580
3354.00,2.3527
3353.00,2.3505
3352.00,2.3519
3351.00,2.3560
3350.00,2.3603
3349.00,2.3624
3348.00,2.3611
3347.00,2.3577
3346.00,2.3539
3345.00,2.3510
3344.00,2.3490
3343.00,2.3469
3342.00,2.3443
3341.00,2.3420
3340.00,2.3406
3339.00,2.3406
3338.00,2.3419
3337.00,2.3439
3336.00,2.3454
3335.00,2.3447
3334.00,2.3407
3333.00,2.3340
3332.00,2.3268
3331.00,2.3209
3330.00,2.3180
3329.00,2.3190
3328.00,2.3240
3327.00,2.3312
3326.00,2.3371
3325.00,2.3385
3324.00,2.3345
3323.00,2.3274
3322.00,2.3210
3321.00,2.3188
3320.00,2.3218
3319.00,2.3285
3318.00,2.3352
3317.00,2.3390
3316.00,2.3385
3315.00,2.3354
3314.00,2.3332
3313.00,2.3350
3312.00,2.3411
3311.00,2.3480
3310.00,2.3511
3309.00,2.3491
3308.00,2.3456
3307.00,2.3451
3306.00,2.3491
3305.00,2.3555
3304.00,2.3612
3303.00,2.3642
3302.00,2.3639
3301.00,2.3600
3300.00,2.3534
3299.00,2.3467
3298.00,2.3432
3297.00,2.3449
3296.00,2.3520
3295.00,2.3619
3294.00,2.3707
3293.00,2.3758
3292.00,2.3769
3291.00,2.3758
3290.00,2.3748
3289.00,2.3750
3288.00,2.3762
3287.00,2.3773
3286.00,2.3779
3285.00,2.3791
3284.00,2.3823
3283.00,2.3874
3282.00,2.3926
3281.00,2.3962
3280.00,2.3980
3279.00,2.3978
3278.00,2.3964
3277.00,2.3955
3276.00,2.3978
3275.00,2.4044
3274.00,2.4127
3273.00,2.4191
3272.00,2.4217
3271.00,2.4215
3270.00,2.4197
3269.00,2.4175
3268.00,2.4164
3267.00,2.4179
3266.00,2.4222
3265.00,2.4281
3264.00,2.4335
3263.00,2.4375
3262.00,2.4402
3261.00,2.4420
3260.00,2.4437
3259.00,2.4469
3258.00,2.4527
3257.00,2.4605
3256.00,2.4677
3255.00,2.4718
3254.00,2.4721
3253.00,2.4702
3252.00,2.4685
3251.00,2.4684
3250.00,2.4698
3249.00,2.4729
3248.00,2.4781
3247.00,2.4854
3246.00,2.4938
3245.00,2.5023
3244.00,2.5114
3243.00,2.5225
3242.00,2.5351
3241.00,2.5452
3240.00,2.5477
3239.00,2.5416
3238.00,2.5323
3237.00,2.5261
3236.00,2.5253
3235.00,2.5269
3234.00,2.5274
3233.00,2.5272
3232.00,2.5294
3231.00,2.5363
3230.00,2.5472
3229.00,2.5595
3228.00,2.5710
3227.00,2.5795
3226.00,2.5833
3225.00,2.5828
3224.00,2.5813
3223.00,2.5818
3222.00,2.5835
3221.00,2.5841
3220.00,2.5836
3219.00,2.5846
3218.00,2.5875
3217.00,2.5892
3216.00,2.5866
3215.00,2.5805
3214.00,2.5740
3213.00,2.5694
3212.00,2.5685
3211.00,2.5735
3210.00,2.5848
3209.00,2.5974
3208.00,2.6033
3207.00,2.6000
3206.00,2.5940
3205.00,2.5939
3204.00,2.6018
3203.00,2.6127
3202.00,2.6204
3201.00,2.6226
3200.00,2.6198
3199.00,2.6129
3198.00,2.6033
3197.00,2.5938
3196.00,2.5873
3195.00,2.5840
3194.00,2.5803
3193.00,2.5727
3192.00,2.5615
3191.00,2.5511
3190.00,2.5459
3189.00,2.5467
3188.00,2.5494
3187.00,2.5477
3186.00,2.5380
3185.00,2.5230
3184.00,2.5103
3183.00,2.5058
3182.00,2.5090
3181.00,2.5147
3180.00,2.5177
3179.00,2.5170
3178.00,2.5140
3177.00,2.5099
3176.00,2.5042
3175.00,2.4971
3174.00,2.4896
3173.00,2.4817
3172.00,2.4730
3171.00,2.4640
3170.00,2.4566
3169.00,2.4522
3168.00,2.4498
3167.00,2.4471
3166.00,2.4424
3165.00,2.4365
3164.00,2.4309
3163.00,2.4262
3162.00,2.4219
3161.00,2.4173
3160.00,2.4117
3159.00,2.4051
3158.00,2.3987
3157.00,2.3936
3156.00,2.3899
3155.00,2.3870
3154.00,2.3842
3153.00,2.3816
3152.00,2.3789
3151.00,2.3748
3150.00,2.3685
3149.00,2.3609
3148.00,2.3535
3147.00,2.3472
3146.00,2.3417
3145.00,2.3375
3144.00,2.3349
3143.00,2.3334
3142.00,2.3313
3141.00,2.3270
3140.00,2.3212
3139.00,2.3158
3138.00,2.3122
3137.00,2.3093
3136.00,2.3060
3135.00,2.3016
3134.00,2.2968
3133.00,2.2925
3132.00,2.2886
3131.00,2.2848
3130.00,2.2813
3129.00,2.2786
3128.00,2.2768
3127.00,2.2749
3126.00,2.2717
3125.00,2.2671
3124.00,2.2620
3123.00,2.2568
3122.00,2.2512
3121.00,2.2456
3120.00,2.2411
3119.00,2.2382
3118.00,2.2365
3117.00,2.2348
3116.00,2.2325
3115.00,2.2299
3114.00,2.2267
3113.00,2.2228
3112.00,2.2185
3111.00,2.2146
3110.00,2.2116
3109.00,2.2093
3108.00,2.2068
3107.00,2.2039
3106.00,2.2008
3105.00,2.1978
3104.00,2.1951
3103.00,2.1924
3102.00,2.1897
3101.00,2.1869
3100.00,2.1843
3099.00,2.1823
3098.00,2.1810
3097.00,2.1799
3096.00,2.1789
3095.00,2.1780
3094.00,2.1768
3093.00,2.1746
3092.00,2.1711
3091.00,2.1672
3090.00,2.1640
3089.00,2.1620
3088.00,2.1607
3087.00,2.1599
3086.00,2.1593
3085.00,2.1583
3084.00,2.1560
3083.00,2.1524
3082.00,2.1485
3081.00,2.1448
3080.00,2.1417
3079.00,2.1389
3078.00,2.1362
3077.00,2.1341
3076.00,2.1332
3075.00,2.1336
3074.00,2.1341
3073.00,2.1329
3072.00,2.1288
3071.00,2.1228
3070.00,2.1177
3069.00,2.1151
3068.00,2.1142
3067.00,2.1135
3066.00,2.1122
3065.00,2.1104
3064.00,2.1086
3063.00,2.1076
3062.00,2.1074
3061.00,2.1074
3060.00,2.1061
3059.00,2.1030
3058.00,2.0995
3057.00,2.0979
3056.00,2.0982
3055.00,2.0991
3054.00,2.0992
3053.00,2.0984
3052.00,2.0970
3051.00,2.0948
3050.00,2.0916
3049.00,2.0883
3048.00,2.0859
3047.00,2.0840
3046.00,2.0817
3045.00,2.0788
3044.00,2.0762
3043.00,2.0747
3042.00,2.0745
3041.00,2.0747
3040.00,2.0747
3039.00,2.0744
3038.00,2.0742
3037.00,2.0741
3036.00,2.0738
3035.00,2.0729
3034.00,2.0714
3033.00,2.0697
3032.00,2.0681
3031.00,2.0662
3030.00,2.0637
3029.00,2.0608
3028.00,2.0582
3027.00,2.0568
3026.00,2.0568
3025.00,2.0574
3024.00,2.0571
3023.00,2.0551
3022.00,2.0519
3021.00,2.0493
3020.00,2.0483
3019.00,2.0484
3018.00,2.0479
3017.00,2.0464
3016.00,2.0444
3015.00,2.0430
3014.00,2.0420
3013.00,2.0409
3012.00,2.0395
3011.00,2.0381
3010.00,2.0368
3009.00,2.0357
3008.00,2.0343
3007.00,2.0326
3006.00,2.0310
3005.00,2.0299
3004.00,2.0296
3003.00,2.0295
3002.00,2.0292
3001.00,2.0282
3000.00,2.0266
2999.00,2.0246
2998.00,2.0223
2997.00,2.0202
2996.00,2.0186
2995.00,2.0176
2994.00,2.0168
2993.00,2.0161
2992.00,2.0153
2991.00,2.0148
2990.00,2.0148
2989.00,2.0158
2988.00,2.0174
2987.00,2.0186
2986.00,2.0182
2985.00,2.0158
2984.00,2.0125
2983.00,2.0098
2982.00,2.0081
2981.00,2.0072
2980.00,2.0071
2979.00,2.0077
2978.00,2.0088
2977.00,2.0098
2976.00,2.0098
2975.00,2.0082
2974.00,2.0054
2973.00,2.0021
2972.00,1.9997
2971.00,1.9990
2970.00,2.0002
2969.00,2.0020
2968.00,2.0035
2967.00,2.0042
2966.00,2.0048
2965.00,2.0059
2964.00,2.0074
2963.00,2.0086
2962.00,2.0089
2961.00,2.0080
2960.00,2.0062
2959.00,2.0044
2958.00,2.0036
2957.00,2.0036
2956.00,2.0034
2955.00,2.0022
2954.00,2.0002
2953.00,1.9985
2952.00,1.9976
2951.00,1.9971
2950.00,1.9964
2949.00,1.9955
2948.00,1.9943
2947.00,1.9932
2946.00,1.9926
2945.00,1.9929
2944.00,1.9938
2943.00,1.9941
2942.00,1.9932
2941.00,1.9917
2940.00,1.9909
2939.00,1.9912
2938.00,1.9923
2937.00,1.9935
2936.00,1.9945
2935.00,1.9952
2934.00,1.9957
2933.00,1.9966
2932.00,1.9978
2931.00,1.9991
2930.00,1.9999
2929.00,2.0000
2928.00,1.9997
2927.00,1.9992
2926.00,1.9987
2925.00,1.9986
2924.00,1.9989
2923.00,1.9991
2922.00,1.9985
2921.00,1.9970
2920.00,1.9953
2919.00,1.9939
2918.00,1.9929
2917.00,1.9920
2916.00,1.9910
2915.00,1.9898
2914.00,1.9884
2913.00,1.9866
2912.00,1.9844
2911.00,1.9818
2910.00,1.9793
2909.00,1.9773
2908.00,1.9762
2907.00,1.9760
2906.00,1.9766
2905.00,1.9777
2904.00,1.9783
2903.00,1.9772
2902.00,1.9741
2901.00,1.9707
2900.00,1.9690
2899.00,1.9697
2898.00,1.9713
2897.00,1.9719
2896.00,1.9710
2895.00,1.9698
2894.00,1.9691
2893.00,1.9690
2892.00,1.9688
2891.00,1.9682
2890.00,1.9673
2889.00,1.9665
2888.00,1.9656
2887.00,1.9647
2886.00,1.9644
2885.00,1.9652
2884.00,1.9673
2883.00,1.9691
2882.00,1.9693
2881.00,1.9679
2880.00,1.9661
2879.00,1.9652
2878.00,1.9653
2877.00,1.9659
2876.00,1.9666
2875.00,1.9672
2874.00,1.9678
2873.00,1.9686
2872.00,1.9696
2871.00,1.9704
2870.00,1.9704
2869.00,1.9698
2868.00,1.9694
2867.00,1.9695
2866.00,1.9697
2865.00,1.9693
2864.00,1.9682
2863.00,1.9669
2862.00,1.9658
2861.00,1.9657
2860.00,1.9672
2859.00,1.9698
2858.00,1.9725
2857.00,1.9741
2856.00,1.9741
2855.00,1.9732
2854.00,1.9725
2853.00,1.9731
2852.00,1.9752
2851.00,1.9782
2850.00,1.9811
2849.00,1.9830
2848.00,1.9837
2847.00,1.9836
2846.00,1.9830
2845.00,1.9827
2844.00,1.9830
2843.00,1.9829
2842.00,1.9817
2841.00,1.9797
2840.00,1.9785
2839.00,1.9793
2838.00,1.9816
2837.00,1.9843
2836.00,1.9866
2835.00,1.9881
2834.00,1.9885
2833.00,1.9880
2832.00,1.9873
2831.00,1.9874
2830.00,1.9882
2829.00,1.9891
2828.00,1.9902
2827.00,1.9919
2826.00,1.9941
2825.00,1.9966
2824.00,1.9987
2823.00,2.0002
2822.00,2.0013
2821.00,2.0025
2820.00,2.0040
2819.00,2.0060
2818.00,2.0080
2817.00,2.0097
2816.00,2.0112
2815.00,2.0133
2814.00,2.0157
2813.00,2.0180
2812.00,2.0195
2811.00,2.0206
2810.00,2.0216
2809.00,2.0227
2808.00,2.0242
2807.00,2.0261
2806.00,2.0283
2805.00,2.0299
2804.00,2.0306
2803.00,2.0305
2802.00,2.0303
2801.00,2.0301
2800.00,2.0298
2799.00,2.0287
2798.00,2.0271
2797.00,2.0256
2796.00,2.0249
2795.00,2.0244
2794.00,2.0235
2793.00,2.0219
2792.00,2.0205
2791.00,2.0201
2790.00,2.0201
2789.00,2.0191
2788.00,2.0168
2787.00,2.0140
2786.00,2.0115
2785.00,2.0095
2784.00,2.0080
2783.00,2.0070
2782.00,2.0062
2781.00,2.0051
2780.00,2.0033
2779.00,2.0011
2778.00,1.9994
2777.00,1.9980
2776.00,1.9965
2775.00,1.9945
2774.00,1.9928
2773.00,1.9921
2772.00,1.9921
2771.00,1.9920
2770.00,1.9906
2769.00,1.9877
2768.00,1.9844
2767.00,1.9822
2766.00,1.9816
2765.00,1.9821
2764.00,1.9829
2763.00,1.9839
2762.00,1.9853
2761.00,1.9865
2760.00,1.9862
2759.00,1.9839
2758.00,1.9806
2757.00,1.9776
2756.00,1.9757
2755.00,1.9743
2754.00,1.9730
2753.00,1.9725
2752.00,1.9733
2751.00,1.9747
2750.00,1.9753
2749.00,1.9743
2748.00,1.9724
2747.00,1.9714
2746.00,1.9715
2745.00,1.9719
2744.00,1.9717
2743.00,1.9712
2742.00,1.9710
2741.00,1.9712
2740.00,1.9710
2739.00,1.9705
2738.00,1.9707
2737.00,1.9726
2736.00,1.9753
2735.00,1.9771
2734.00,1.9772
2733.00,1.9765
2732.00,1.9769
2731.00,1.9791
2730.00,1.9825
2729.00,1.9857
2728.00,1.9872
2727.00,1.9866
2726.00,1.9847
2725.00,1.9833
2724.00,1.9838
2723.00,1.9865
2722.00,1.9905
2721.00,1.9940
2720.00,1.9958
2719.00,1.9956
2718.00,1.9944
2717.00,1.9937
2716.00,1.9943
2715.00,1.9964
2714.00,1.9987
2713.00,2.0000
2712.00,1.9998
2711.00,1.9991
2710.00,1.9992
2709.00,2.0003
2708.00,2.0015
2707.00,2.0022
2706.00,2.0026
2705.00,2.0036
2704.00,2.0049
2703.00,2.0054
2702.00,2.0049
2701.00,2.0046
2700.00,2.0052
2699.00,2.0064
2698.00,2.0067
2697.00,2.0056
2696.00,2.0040
2695.00,2.0031
2694.00,2.0035
2693.00,2.0055
2692.00,2.0081
2691.00,2.0102
2690.00,2.0107
2689.00,2.0097
2688.00,2.0086
2687.00,2.0088
2686.00,2.0104
2685.00,2.0126
2684.00,2.0141
2683.00,2.0145
2682.00,2.0143
2681.00,2.0142
2680.00,2.0144
2679.00,2.0139
2678.00,2.0123
2677.00,2.0105
2676.00,2.0101
2675.00,2.0111
2674.00,2.0128
2673.00,2.0144
2672.00,2.0158
2671.00,2.0168
2670.00,2.0175
2669.00,2.0178
2668.00,2.0183
2667.00,2.0193
2666.00,2.0202
2665.00,2.0203
2664.00,2.0193
2663.00,2.0177
2662.00,2.0160
2661.00,2.0151
2660.00,2.0161
2659.00,2.0191
2658.00,2.0231
2657.00,2.0262
2656.00,2.0277
2655.00,2.0281
2654.00,2.0280
2653.00,2.0278
2652.00,2.0275
2651.00,2.0273
2650.00,2.0274
2649.00,2.0282
2648.00,2.0296
2647.00,2.0310
2646.00,2.0317
2645.00,2.0315
2644.00,2.0309
2643.00,2.0307
2642.00,2.0314
2641.00,2.0330
2640.00,2.0358
2639.00,2.0391
2638.00,2.0417
2637.00,2.0429
2636.00,2.0433
2635.00,2.0433
2634.00,2.0429
2633.00,2.0419
2632.00,2.0412
2631.00,2.0417
2630.00,2.0438
2629.00,2.0465
2628.00,2.0492
2627.00,2.0515
2626.00,2.0531
2625.00,2.0534
2624.00,2.0521
2623.00,2.0504
2622.00,2.0495
2621.00,2.0503
2620.00,2.0529
2619.00,2.0567
2618.00,2.0606
2617.00,2.0634
2616.00,2.0650
2615.00,2.0658
2614.00,2.0663
2613.00,2.0669
2612.00,2.0677
2611.00,2.0697
2610.00,2.0729
2609.00,2.0764
2608.00,2.0791
2607.00,2.0805
2606.00,2.0812
2605.00,2.0821
2604.00,2.0838
2603.00,2.0862
2602.00,2.0888
2601.00,2.0907
2600.00,2.0921
2599.00,2.0933
2598.00,2.0946
2597.00,2.0956
2596.00,2.0963
2595.00,2.0972
2594.00,2.0992
2593.00,2.1022
2592.00,2.1057
2591.00,2.1091
2590.00,2.1113
2589.00,2.1115
2588.00,2.1103
2587.00,2.1100
2586.00,2.1122
2585.00,2.1164
2584.00,2.1209
2583.00,2.1243
2582.00,2.1264
2581.00,2.1280
2580.00,2.1296
2579.00,2.1312
2578.00,2.1324
2577.00,2.1328
2576.00,2.1333
2575.00,2.1356
2574.00,2.1405
2573.00,2.1467
2572.00,2.1518
2571.00,2.1543
2570.00,2.1546
2569.00,2.1545
2568.00,2.1552
2567.00,2.1570
2566.00,2.1598
2565.00,2.1631
2564.00,2.1664
2563.00,2.1698
2562.00,2.1728
2561.00,2.1748
2560.00,2.1758
2559.00,2.1770
2558.00,2.1798
2557.00,2.1844
2556.00,2.1897
2555.00,2.1945
2554.00,2.1984
2553.00,2.2017
2552.00,2.2046
2551.00,2.2068
2550.00,2.2084
2549.00,2.2098
2548.00,2.2120
2547.00,2.2157
2546.00,2.2207
2545.00,2.2258
2544.00,2.2291
2543.00,2.2298
2542.00,2.2287
2541.00,2.2276
2540.00,2.2275
2539.00,2.2284
2538.00,2.2295
2537.00,2.2309
2536.00,2.2324
2535.00,2.2338
2534.00,2.2343
2533.00,2.2334
2532.00,2.2312
2531.00,2.2283
2530.00,2.2257
2529.00,2.2245
2528.00,2.2250
2527.00,2.2267
2526.00,2.2281
2525.00,2.2283
2524.00,2.2270
2523.00,2.2251
2522.00,2.2235
2521.00,2.2229
2520.00,2.2233
2519.00,2.2233
2518.00,2.2206
2517.00,2.2144
2516.00,2.2062
2515.00,2.1990
2514.00,2.1940
2513.00,2.1894
2512.00,2.1821
2511.00,2.1709
2510.00,2.1567
2509.00,2.1414
2508.00,2.1261
2507.00,2.1113
2506.00,2.0970
2505.00,2.0832
2504.00,2.0703
2503.00,2.0587
2502.00,2.0485
2501.00,2.0396
2500.00,2.0314
2499.00,2.0234
2498.00,2.0158
2497.00,2.0091
2496.00,2.0039
2495.00,2.0000
2494.00,1.9968
2493.00,1.9936
2492.00,1.9902
2491.00,1.9866
2490.00,1.9832
2489.00,1.9803
2488.00,1.9777
2487.00,1.9751
2486.00,1.9726
2485.00,1.9706
2484.00,1.9694
2483.00,1.9685
2482.00,1.9669
2481.00,1.9644
2480.00,1.9620
2479.00,1.9607
2478.00,1.9604
2477.00,1.9601
2476.00,1.9588
2475.00,1.9568
2474.00,1.9550
2473.00,1.9535
2472.00,1.9516
2471.00,1.9486
2470.00,1.9456
2469.00,1.9436
2468.00,1.9430
2467.00,1.9429
2466.00,1.9426
2465.00,1.9420
2464.00,1.9420
2463.00,1.9425
2462.00,1.9430
2461.00,1.9421
2460.00,1.9397
2459.00,1.9366
2458.00,1.9340
2457.00,1.9327
2456.00,1.9321
2455.00,1.9311
2454.00,1.9290
2453.00,1.9258
2452.00,1.9218
2451.00,1.9177
2450.00,1.9143
2449.00,1.9122
2448.00,1.9116
2447.00,1.9122
2446.00,1.9130
2445.00,1.9136
2444.00,1.9137
2443.00,1.9135
2442.00,1.9132
2441.00,1.9133
2440.00,1.9136
2439.00,1.9142
2438.00,1.9149
2437.00,1.9158
2436.00,1.9168
2435.00,1.9177
2434.00,1.9181
2433.00,1.9182
2432.00,1.9187
2431.00,1.9195
2430.00,1.9197
2429.00,1.9190
2428.00,1.9181
2427.00,1.9185
2426.00,1.9210
2425.00,1.9247
2424.00,1.9286
2423.00,1.9327
2422.00,1.9374
2421.00,1.9433
2420.00,1.9498
2419.00,1.9563
2418.00,1.9624
2417.00,1.9677
2416.00,1.9721
2415.00,1.9760
2414.00,1.9799
2413.00,1.9839
2412.00,1.9879
2411.00,1.9919
2410.00,1.9960
2409.00,1.9993
2408.00,2.0011
2407.00,2.0020
2406.00,2.0035
2405.00,2.0068
2404.00,2.0110
2403.00,2.0141
2402.00,2.0150
2401.00,2.0144
2400.00,2.0140
2399.00,2.0151
2398.00,2.0179
2397.00,2.0219
2396.00,2.0261
2395.00,2.0290
2394.00,2.0297
2393.00,2.0282
2392.00,2.0254
2391.00,2.0226
2390.00,2.0212
2389.00,2.0221
2388.00,2.0251
2387.00,2.0295
2386.00,2.0347
2385.00,2.0412
2384.00,2.0487
2383.00,2.0564
2382.00,2.0630
2381.00,2.0686
2380.00,2.0743
2379.00,2.0806
2378.00,2.0875
2377.00,2.0948
2376.00,2.1021
2375.00,2.1088
2374.00,2.1142
2373.00,2.1183
2372.00,2.1215
2371.00,2.1235
2370.00,2.1241
2369.00,2.1248
2368.00,2.1281
2367.00,2.1348
2366.00,2.1423
2365.00,2.1478
2364.00,2.1511
2363.00,2.1552
2362.00,2.1616
2361.00,2.1688
2360.00,2.1739
2359.00,2.1754
2358.00,2.1736
2357.00,2.1710
2356.00,2.1704
2355.00,2.1739
2354.00,2.1811
2353.00,2.1895
2352.00,2.1960
2351.00,2.1989
2350.00,2.1992
2349.00,2.1992
2348.00,2.2016
2347.00,2.2065
2346.00,2.2107
2345.00,2.2111
2344.00,2.2091
2343.00,2.2089
2342.00,2.2116
2341.00,2.2144
2340.00,2.2148
2339.00,2.2145
2338.00,2.2166
2337.00,2.2215
2336.00,2.2261
2335.00,2.2274
2334.00,2.2249
2333.00,2.2206
2332.00,2.2176
2331.00,2.2176
2330.00,2.2199
2329.00,2.2217
2328.00,2.2207
2327.00,2.2175
2326.00,2.2142
2325.00,2.2122
2324.00,2.2104
2323.00,2.2073
2322.00,2.2024
2321.00,2.1969
2320.00,2.1919
2319.00,2.1878
2318.00,2.1836
2317.00,2.1786
2316.00,2.1733
2315.00,2.1685
2314.00,2.1640
2313.00,2.1587
2312.00,2.1516
2311.00,2.1429
2310.00,2.1342
2309.00,2.1261
2308.00,2.1182
2307.00,2.1093
2306.00,2.0989
2305.00,2.0879
2304.00,2.0778
2303.00,2.0692
2302.00,2.0618
2301.00,2.0548
2300.00,2.0472
2299.00,2.0392
2298.00,2.0316
2297.00,2.0250
2296.00,2.0195
2295.00,2.0144
2294.00,2.0090
2293.00,2.0032
2292.00,1.9979
2291.00,1.9935
2290.00,1.9898
2289.00,1.9860
2288.00,1.9821
2287.00,1.9786
2286.00,1.9761
2285.00,1.9747
2284.00,1.9740
2283.00,1.9734
2282.00,1.9726
2281.00,1.9715
2280.00,1.9704
2279.00,1.9699
2278.00,1.9700
2277.00,1.9699
2276.00,1.9688
2275.00,1.9668
2274.00,1.9645
2273.00,1.9628
2272.00,1.9620
2271.00,1.9614
2270.00,1.9600
2269.00,1.9576
2268.00,1.9550
2267.00,1.9533
2266.00,1.9524
2265.00,1.9515
2264.00,1.9499
2263.00,1.9475
2262.00,1.9448
2261.00,1.9417
2260.00,1.9381
2259.00,1.9348
2258.00,1.9324
2257.00,1.9306
2256.00,1.9281
2255.00,1.9240
2254.00,1.9189
2253.00,1.9138
2252.00,1.9097
2251.00,1.9062
2250.00,1.9024
2249.00,1.8977
2248.00,1.8921
2247.00,1.8859
2246.00,1.8800
2245.00,1.8744
2244.00,1.8692
2243.00,1.8645
2242.00,1.8604
2241.00,1.8569
2240.00,1.8534
2239.00,1.8495
2238.00,1.8456
2237.00,1.8421
2236.00,1.8390
2235.00,1.8358
2234.00,1.8325
2233.00,1.8298
2232.00,1.8279
2231.00,1.8265
2230.00,1.8248
2229.00,1.8225
2228.00,1.8200
2227.00,1.8174
2226.00,1.8151
2225.00,1.8135
2224.00,1.8127
2223.00,1.8126
2222.00,1.8122
2221.00,1.8110
2220.00,1.8090
2219.00,1.8066
2218.00,1.8044
2217.00,1.8025
2216.00,1.8010
2215.00,1.7996
2214.00,1.7979
2213.00,1.7953
2212.00,1.7919
2211.00,1.7883
2210.00,1.7850
2209.00,1.7818
2208.00,1.7785
2207.00,1.7753
2206.00,1.7723
2205.00,1.7696
2204.00,1.7666
2203.00,1.7631
2202.00,1.7596
2201.00,1.7569
2200.00,1.7551
2199.00,1.7539
2198.00,1.7528
2197.00,1.7518
2196.00,1.7512
2195.00,1.7511
2194.00,1.7513
2193.00,1.7518
2192.00,1.7522
2191.00,1.7523
2190.00,1.7518
2189.00,1.7511
2188.00,1.7509
2187.00,1.7517
2186.00,1.7533
2185.00,1.7551
2184.00,1.7567
2183.00,1.7577
2182.00,1.7584
2181.00,1.7593
2180.00,1.7606
2179.00,1.7623
2178.00,1.7641
2177.00,1.7658
2176.00,1.7672
2175.00,1.7683
2174.00,1.7691
2173.00,1.7700
2172.00,1.7709
2171.00,1.7719
2170.00,1.7730
2169.00,1.7741
2168.00,1.7751
2167.00,1.7758
2166.00,1.7761
2165.00,1.7761
2164.00,1.7758
2163.00,1.7752
2162.00,1.7744
2161.00,1.7737
2160.00,1.7729
2159.00,1.7717
2158.00,1.7699
2157.00,1.7676
2156.00,1.7657
2155.00,1.7644
2154.00,1.7637
2153.00,1.7631
2152.00,1.7622
2151.00,1.7609
2150.00,1.7593
2149.00,1.7576
2148.00,1.7559
2147.00,1.7540
2146.00,1.7521
2145.00,1.7505
2144.00,1.7497
2143.00,1.7495
2142.00,1.7491
2141.00,1.7481
2140.00,1.7465
2139.00,1.7450
2138.00,1.7438
2137.00,1.7427
2136.00,1.7414
2135.00,1.7399
2134.00,1.7380
2133.00,1.7362
2132.00,1.7348
2131.00,1.7342
2130.00,1.7343
2129.00,1.7344
2128.00,1.7340
2127.00,1.7327
2126.00,1.7307
2125.00,1.7284
2124.00,1.7260
2123.00,1.7236
2122.00,1.7212
2121.00,1.7187
2120.00,1.7164
2119.00,1.7146
2118.00,1.7129
2117.00,1.7111
2116.00,1.7088
2115.00,1.7061
2114.00,1.7032
2113.00,1.7002
2112.00,1.6970
2111.00,1.6939
2110.00,1.6914
2109.00,1.6895
2108.00,1.6884
2107.00,1.6877
2106.00,1.6868
2105.00,1.6855
2104.00,1.6835
2103.00,1.6808
2102.00,1.6776
2101.00,1.6744
2100.00,1.6718
2099.00,1.6698
2098.00,1.6681
2097.00,1.6662
2096.00,1.6641
2095.00,1.6622
2094.00,1.6606
2093.00,1.6593
2092.00,1.6582
2091.00,1.6574
2090.00,1.6572
2089.00,1.6574
2088.00,1.6573
2087.00,1.6566
2086.00,1.6555
2085.00,1.6542
2084.00,1.6532
2083.00,1.6524
2082.00,1.6517
2081.00,1.6509
2080.00,1.6501
2079.00,1.6495
2078.00,1.6491
2077.00,1.6491
2076.00,1.6490
2075.00,1.6486
2074.00,1.6479
2073.00,1.6473
2072.00,1.6472
2071.00,1.6479
2070.00,1.6493
2069.00,1.6511
2068.00,1.6526
2067.00,1.6535
2066.00,1.6541
2065.00,1.6545
2064.00,1.6550
2063.00,1.6555
2062.00,1.6556
2061.00,1.6552
2060.00,1.6542
2059.00,1.6529
2058.00,1.6517
2057.00,1.6506
2056.00,1.6494
2055.00,1.6482
2054.00,1.6472
2053.00,1.6465
2052.00,1.6456
2051.00,1.6441
2050.00,1.6417
2049.00,1.6391
2048.00,1.6366
2047.00,1.6344
2046.00,1.6323
2045.00,1.6304
2044.00,1.6286
2043.00,1.6268
2042.00,1.6250
2041.00,1.6235
2040.00,1.6222
2039.00,1.6213
2038.00,1.6205
2037.00,1.6197
2036.00,1.6190
2035.00,1.6183
2034.00,1.6180
2033.00,1.6185
2032.00,1.6193
2031.00,1.6199
2030.00,1.6196
2029.00,1.6189
2028.00,1.6183
2027.00,1.6183
2026.00,1.6187
2025.00,1.6194
2024.00,1.6204
2023.00,1.6218
2022.00,1.6234
2021.00,1.6249
2020.00,1.6260
2019.00,1.6267
2018.00,1.6271
2017.00,1.6276
2016.00,1.6287
2015.00,1.6308
2014.00,1.6335
2013.00,1.6358
2012.00,1.6375
2011.00,1.6387
2010.00,1.6400
2009.00,1.6416
2008.00,1.6434
2007.00,1.6446
2006.00,1.6448
2005.00,1.6444
2004.00,1.6445
2003.00,1.6454
2002.00,1.6469
2001.00,1.6482
2000.00,1.6490
1999.00,1.6495
1998.00,1.6501
1997.00,1.6510
1996.00,1.6519
1995.00,1.6525
1994.00,1.6528
1993.00,1.6534
1992.00,1.6548
1991.00,1.6569
1990.00,1.6586
1989.00,1.6593
1988.00,1.6592
1987.00,1.6594
1986.00,1.6607
1985.00,1.6633
1984.00,1.6665
1983.00,1.6696
1982.00,1.6721
1981.00,1.6742
1980.00,1.6762
1979.00,1.6783
1978.00,1.6805
1977.00,1.6828
1976.00,1.6853
1975.00,1.6878
1974.00,1.6902
1973.00,1.6920
1972.00,1.6932
1971.00,1.6941
1970.00,1.6948
1969.00,1.6955
1968.00,1.6963
1967.00,1.6971
1966.00,1.6978
1965.00,1.6983
1964.00,1.6988
1963.00,1.6994
1962.00,1.6995
1961.00,1.6988
1960.00,1.6974
1959.00,1.6958
1958.00,1.6943
1957.00,1.6924
1956.00,1.6899
1955.00,1.6873
1954.00,1.6850
1953.00,1.6828
1952.00,1.6805
1951.00,1.6783
1950.00,1.6764
1949.00,1.6746
1948.00,1.6726
1947.00,1.6703
1946.00,1.6680
1945.00,1.6658
1944.00,1.6639
1943.00,1.6623
1942.00,1.6612
1941.00,1.6605
1940.00,1.6598
1939.00,1.6589
1938.00,1.6579
1937.00,1.6568
1936.00,1.6557
1935.00,1.6543
1934.00,1.6526
1933.00,1.6508
1932.00,1.6491
1931.00,1.6476
1930.00,1.6463
1929.00,1.6451
1928.00,1.6440
1927.00,1.6425
1926.00,1.6404
1925.00,1.6376
1924.00,1.6347
1923.00,1.6325
1922.00,1.6316
1921.00,1.6313
1920.00,1.6308
1919.00,1.6295
1918.00,1.6276
1917.00,1.6256
1916.00,1.6238
1915.00,1.6219
1914.00,1.6196
1913.00,1.6165
1912.00,1.6129
1911.00,1.6094
1910.00,1.6065
1909.00,1.6040
1908.00,1.6016
1907.00,1.5991
1906.00,1.5968
1905.00,1.5947
1904.00,1.5925
1903.00,1.5902
1902.00,1.5878
1901.00,1.5857
1900.00,1.5836
1899.00,1.5811
1898.00,1.5786
1897.00,1.5763
1896.00,1.5745
1895.00,1.5728
1894.00,1.5709
1893.00,1.5689
1892.00,1.5673
1891.00,1.5661
1890.00,1.5656
1889.00,1.5655
1888.00,1.5653
1887.00,1.5645
1886.00,1.5632
1885.00,1.5619
1884.00,1.5610
1883.00,1.5604
1882.00,1.5598
1881.00,1.5589
1880.00,1.5580
1879.00,1.5571
1878.00,1.5563
1877.00,1.5556
1876.00,1.5549
1875.00,1.5541
1874.00,1.5531
1873.00,1.5518
1872.00,1.5505
1871.00,1.5496
1870.00,1.5489
1869.00,1.5482
1868.00,1.5473
1867.00,1.5463
1866.00,1.5453
1865.00,1.5443
1864.00,1.5430
1863.00,1.5412
1862.00,1.5392
1861.00,1.5372
1860.00,1.5354
1859.00,1.5335
1858.00,1.5318
1857.00,1.5302
1856.00,1.5284
1855.00,1.5261
1854.00,1.5236
1853.00,1.5213
1852.00,1.5194
1851.00,1.5178
1850.00,1.5161
1849.00,1.5142
1848.00,1.5123
1847.00,1.5107
1846.00,1.5095
1845.00,1.5086
1844.00,1.5078
1843.00,1.5070
1842.00,1.5060
1841.00,1.5047
1840.00,1.5032
1839.00,1.5018
1838.00,1.5009
1837.00,1.5004
1836.00,1.5000
1835.00,1.4993
1834.00,1.4984
1833.00,1.4976
1832.00,1.4971
1831.00,1.4967
1830.00,1.4965
1829.00,1.4965
1828.00,1.4963
1827.00,1.4962
1826.00,1.4965
1825.00,1.4975
1824.00,1.4992
1823.00,1.5008
1822.00,1.5019
1821.00,1.5025
1820.00,1.5030
1819.00,1.5037
1818.00,1.5049
1817.00,1.5065
1816.00,1.5079
1815.00,1.5087
1814.00,1.5091
1813.00,1.5096
1812.00,1.5104
1811.00,1.5112
1810.00,1.5116
1809.00,1.5117
1808.00,1.5119
1807.00,1.5123
1806.00,1.5126
1805.00,1.5120
1804.00,1.5102
1803.00,1.5076
1802.00,1.5056
1801.00,1.5053
1800.00,1.5064
1799.00,1.5075
1798.00,1.5076
1797.00,1.5070
1796.00,1.5063
1795.00,1.5061
1794.00,1.5063
1793.00,1.5066
1792.00,1.5067
1791.00,1.5068
1790.00,1.5067
1789.00,1.5062
1788.00,1.5051
1787.00,1.5033
1786.00,1.5013
1785.00,1.4997
1784.00,1.4986
1783.00,1.4979
1782.00,1.4978
1781.00,1.4981
1780.00,1.4988
1779.00,1.4991
1778.00,1.4989
1777.00,1.4981
1776.00,1.4973
1775.00,1.4971
1774.00,1.4975
1773.00,1.4979
1772.00,1.4972
1771.00,1.4954
1770.00,1.4929
1769.00,1.4906
1768.00,1.4891
1767.00,1.4880
1766.00,1.4871
1765.00,1.4863
1764.00,1.4860
1763.00,1.4859
1762.00,1.4858
1761.00,1.4853
1760.00,1.4842
1759.00,1.4831
1758.00,1.4824
1757.00,1.4826
1756.00,1.4833
1755.00,1.4839
1754.00,1.4843
1753.00,1.4848
1752.00,1.4859
1751.00,1.4879
1750.00,1.4907
1749.00,1.4937
1748.00,1.4961
1747.00,1.4977
1746.00,1.4990
1745.00,1.5007
1744.00,1.5031
1743.00,1.5063
1742.00,1.5101
1741.00,1.5140
1740.00,1.5169
1739.00,1.5181
1738.00,1.5183
1737.00,1.5190
1736.00,1.5209
1735.00,1.5234
1734.00,1.5254
1733.00,1.5262
1732.00,1.5258
1731.00,1.5247
1730.00,1.5234
1729.00,1.5222
1728.00,1.5206
1727.00,1.5185
1726.00,1.5163
1725.00,1.5146
1724.00,1.5137
1723.00,1.5133
1722.00,1.5129
1721.00,1.5127
1720.00,1.5126
1719.00,1.5120
1718.00,1.5113
1717.00,1.5113
1716.00,1.5119
1715.00,1.5122
1714.00,1.5118
1713.00,1.5112
1712.00,1.5105
1711.00,1.5096
1710.00,1.5089
1709.00,1.5091
1708.00,1.5103
1707.00,1.5121
1706.00,1.5138
1705.00,1.5156
1704.00,1.5179
1703.00,1.5219
1702.00,1.5280
1701.00,1.5348
1700.00,1.5391
1699.00,1.5399
1698.00,1.5397
1697.00,1.5412
1696.00,1.5447
1695.00,1.5479
1694.00,1.5495
1693.00,1.5503
1692.00,1.5514
1691.00,1.5526
1690.00,1.5540
1689.00,1.5560
1688.00,1.5589
1687.00,1.5628
1686.00,1.5676
1685.00,1.5723
1684.00,1.5762
1683.00,1.5786
1682.00,1.5790
1681.00,1.5791
1680.00,1.5801
1679.00,1.5823
1678.00,1.5855
1677.00,1.5896
1676.00,1.5937
1675.00,1.5967
1674.00,1.5982
1673.00,1.5992
1672.00,1.6010
1671.00,1.6039
1670.00,1.6078
1669.00,1.6121
1668.00,1.6156
1667.00,1.6180
1666.00,1.6198
1665.00,1.6221
1664.00,1.6253
1663.00,1.6292
1662.00,1.6329
1661.00,1.6355
1660.00,1.6371
1659.00,1.6388
1658.00,1.6415
1657.00,1.6454
1656.00,1.6516
1655.00,1.6608
1654.00,1.6729
1653.00,1.6850
1652.00,1.6910
1651.00,1.6908
1650.00,1.6898
1649.00,1.6914
1648.00,1.6959
1647.00,1.7024
1646.00,1.7087
1645.00,1.7133
1644.00,1.7164
1643.00,1.7193
1642.00,1.7229
1641.00,1.7275
1640.00,1.7331
1639.00,1.7394
1638.00,1.7466
1637.00,1.7551
1636.00,1.7645
1635.00,1.7730
1634.00,1.7786
1633.00,1.7820
1632.00,1.7852
1631.00,1.7893
1630.00,1.7946
1629.00,1.8008
1628.00,1.8074
1627.00,1.8143
1626.00,1.8222
1625.00,1.8312
1624.00,1.8402
1623.00,1.8482
1622.00,1.8550
1621.00,1.8619
1620.00,1.8701
1619.00,1.8808
1618.00,1.8944
1617.00,1.9103
1616.00,1.9264
1615.00,1.9416
1614.00,1.9573
1613.00,1.9761
1612.00,1.9986
1611.00,2.0237
1610.00,2.0507
1609.00,2.0799
1608.00,2.1118
1607.00,2.1463
1606.00,2.1835
1605.00,2.2233
1604.00,2.2640
1603.00,2.3031
1602.00,2.3402
1601.00,2.3775
1600.00,2.4161
1599.00,2.4551
1598.00,2.4956
1597.00,2.5412
1596.00,2.5927
1595.00,2.6462
1594.00,2.6983
1593.00,2.7503
1592.00,2.8008
1591.00,2.8440
1590.00,2.8805
1589.00,2.9228
1588.00,2.9803
1587.00,3.0471
1586.00,3.1093
1585.00,3.1615
1584.00,3.2080
1583.00,3.2573
1582.00,3.3211
1581.00,3.4105
1580.00,3.5179
1579.00,3.6031
1578.00,3.6452
1577.00,3.7014
1576.00,3.8411
1575.00,4.0192
1574.00,4.1120
1573.00,4.1600
1572.00,4.1894
1571.00,4.2940
1570.00,4.1975
1569.00,3.9100
1568.00,3.7870
1567.00,3.7744
1566.00,3.8147
1565.00,3.8639
1564.00,3.9028
1563.00,3.9449
1562.00,3.9688
1561.00,3.9876
1560.00,4.0026
1559.00,3.9564
1558.00,3.8677
1557.00,3.8458
1556.00,3.9271
1555.00,4.0913
1554.00,4.3002
1553.00,4.5782
1552.00,4.9973
1551.00,4.8824
1550.00,4.7511
1549.00,4.4330
1548.00,3.9622
1547.00,3.7434
1546.00,3.6928
1545.00,3.7029
1544.00,3.6865
1543.00,3.6503
1542.00,3.6432
1541.00,3.6882
1540.00,3.7948
1539.00,3.9300
1538.00,4.0281
1537.00,4.0299
1536.00,3.9749
1535.00,3.9254
1534.00,3.8928
1533.00,3.9010
1532.00,4.0817
1531.00,4.3166
1530.00,4.0164
1529.00,4.0425
1528.00,4.3581
1527.00,3.9823
1526.00,3.7888
1525.00,3.7646
1524.00,3.7861
1523.00,3.8265
1522.00,3.7796
1521.00,3.6963
1520.00,3.6338
1519.00,3.6349
1518.00,3.7354
1517.00,4.0487
1516.00,4.8585
1515.00,4.5411
1514.00,4.3610
1513.00,4.3667
1512.00,4.4045
1511.00,4.4437
1510.00,4.2162
1509.00,4.0524
1508.00,3.9706
1507.00,3.9282
1506.00,3.8782
1505.00,3.8601
1504.00,3.9857
1503.00,4.2378
1502.00,4.2425
1501.00,4.1194
1500.00,4.2844
1499.00,4.4167
1498.00,4.0219
1497.00,3.8944
1496.00,3.9939
1495.00,4.1421
1494.00,4.1933
1493.00,4.1415
1492.00,3.9797
1491.00,3.8646
1490.00,3.8207
1489.00,3.7953
1488.00,3.8143
1487.00,3.9544
1486.00,4.1423
1485.00,4.0535
1484.00,3.9652
1483.00,4.0018
1482.00,4.0784
1481.00,4.1443
1480.00,4.1769
1479.00,4.1325
1478.00,4.2149
1477.00,4.2277
1476.00,3.9114
1475.00,3.7720
1474.00,3.7169
1473.00,3.6709
1472.00,3.7298
1471.00,3.9527
1470.00,4.2896
1469.00,4.3060
1468.00,4.0961
1467.00,3.9481
1466.00,3.8982
1465.00,3.9422
1464.00,4.0093
1463.00,3.9334
1462.00,3.7421
1461.00,3.5981
1460.00,3.5424
1459.00,3.5707
1458.00,3.6471
1457.00,3.7077
1456.00,3.7217
1455.00,3.7333
1454.00,3.7813
1453.00,3.8265
1452.00,3.7996
1451.00,3.8466
1450.00,4.0447
1449.00,3.9383
1448.00,3.7542
1447.00,3.7593
1446.00,3.8749
1445.00,3.9946
1444.00,4.0665
1443.00,4.1106
1442.00,4.1440
1441.00,4.3763
1440.00,4.2312
1439.00,3.8179
1438.00,3.6583
1437.00,3.6320
1436.00,3.7175
1435.00,3.9408
1434.00,4.0534
1433.00,3.9081
1432.00,3.8324
1431.00,3.7938
1430.00,3.7558
1429.00,3.7441
1428.00,3.7368
1427.00,3.7301
1426.00,3.7178
1425.00,3.6840
1424.00,3.6615
1423.00,3.7095
1422.00,3.8346
1421.00,3.8968
1420.00,3.8221
1419.00,3.8247
1418.00,3.8964
1417.00,3.8846
1416.00,3.9468
1415.00,4.0374
1414.00,3.9206
1413.00,3.8653
1412.00,3.9378
1411.00,3.9649
1410.00,3.8344
1409.00,3.7363
1408.00,3.7945
1407.00,4.1434
1406.00,4.3367
1405.00,3.9078
1404.00,3.7784
1403.00,3.7363
1402.00,3.7568
1401.00,3.8258
1400.00,4.0346
1399.00,4.6819
1398.00,4.2111
1397.00,3.8764
1396.00,3.7493
1395.00,3.7131
1394.00,3.8664
1393.00,4.3284
1392.00,4.1431
1391.00,3.8111
1390.00,3.7487
1389.00,3.7886
1388.00,3.9497
1387.00,4.2941
1386.00,4.3722
1385.00,4.1061
1384.00,4.1186
1383.00,4.2732
1382.00,4.1466
1381.00,4.0770
1380.00,4.1519
1379.00,4.1301
1378.00,4.0049
1377.00,3.8598
1376.00,3.7651
1375.00,3.7718
1374.00,3.9467
1373.00,4.2751
1372.00,4.1755
1371.00,4.0126
1370.00,4.0270
1369.00,4.1135
1368.00,4.1544
1367.00,4.1939
1366.00,4.2422
1365.00,4.1259
1364.00,4.0803
1363.00,4.1272
1362.00,4.1042
1361.00,4.0681
1360.00,3.9890
1359.00,3.8145
1358.00,3.6602
1357.00,3.5808
1356.00,3.5774
1355.00,3.6325
1354.00,3.7321
1353.00,3.8763
1352.00,4.0577
1351.00,4.2307
1350.00,4.3658
1349.00,4.4163
1348.00,4.2179
1347.00,3.9968
1346.00,3.9356
1345.00,3.9589
1344.00,4.0909
1343.00,4.3753
1342.00,3.9925
1341.00,3.6665
1340.00,3.5582
1339.00,3.5745
1338.00,3.6944
1337.00,3.8884
1336.00,4.2085
1335.00,4.6024
1334.00,4.1998
1333.00,3.9336
1332.00,3.8341
1331.00,3.8459
1330.00,3.9541
1329.00,4.0011
1328.00,3.8656
1327.00,3.7013
1326.00,3.5955
1325.00,3.5634
1324.00,3.5873
1323.00,3.6458
1322.00,3.7294
1321.00,3.9257
1320.00,4.3288
1319.00,4.3167
1318.00,4.4730
1317.00,4.4387
1316.00,3.9684
1315.00,3.8924
1314.00,3.9779
1313.00,4.0398
1312.00,4.0757
1311.00,4.1019
1310.00,3.8946
1309.00,3.7214
1308.00,3.7221
1307.00,3.8832
1306.00,4.1297
1305.00,4.1288
1304.00,3.9668
1303.00,3.8770
1302.00,3.8849
1301.00,4.0614
1300.00,4.2391
1299.00,3.9941
1298.00,3.8901
1297.00,3.8518
1296.00,3.7713
1295.00,3.7601
1294.00,3.8929
1293.00,4.2106
1292.00,4.0874
1291.00,3.7680
1290.00,3.6298
1289.00,3.5755
1288.00,3.5593
1287.00,3.5780
1286.00,3.6891
1285.00,3.9946
1284.00,3.9976
1283.00,3.7091
1282.00,3.6497
1281.00,3.7311
1280.00,3.8915
1279.00,4.0672
1278.00,4.2060
1277.00,4.2795
1276.00,4.1530
1275.00,4.0622
1274.00,4.1349
1273.00,4.1066
1272.00,4.0713
1271.00,4.3853
1270.00,4.6837
1269.00,4.2784
1268.00,3.8715
1267.00,3.6312
1266.00,3.5552
1265.00,3.5795
1264.00,3.6648
1263.00,3.8293
1262.00,4.1630
1261.00,4.1656
1260.00,3.7517
1259.00,3.5244
1258.00,3.4308
1257.00,3.4597
1256.00,3.6050
1255.00,3.8626
1254.00,4.1508
1253.00,3.9668
1252.00,3.6988
1251.00,3.5626
1250.00,3.5277
1249.00,3.5535
1248.00,3.5586
1247.00,3.4884
1246.00,3.4165
1245.00,3.4176
1244.00,3.5395
1243.00,3.7442
1242.00,4.0160
1241.00,4.3150
1240.00,3.7746
1239.00,3.5073
1238.00,3.3978
1237.00,3.3903
1236.00,3.4539
1235.00,3.6614
1234.00,4.2998
1233.00,3.8744
1232.00,3.6065
1231.00,3.5676
1230.00,3.6139
1229.00,3.7945
1228.00,4.1144
1227.00,4.2052
1226.00,4.1038
1225.00,4.0361
1224.00,3.8982
1223.00,3.8438
1222.00,3.8114
1221.00,3.7303
1220.00,3.6896
1219.00,3.7676
1218.00,3.9350
1217.00,4.0919
1216.00,4.1500
1215.00,4.0308
1214.00,4.0833
1213.00,4.5376
1212.00,4.2947
1211.00,3.8496
1210.00,3.6229
1209.00,3.4769
1208.00,3.4009
1207.00,3.3899
1206.00,3.4255
1205.00,3.4668
1204.00,3.5003
1203.00,3.5735
1202.00,3.7455
1201.00,4.1379
1200.00,4.1879
1199.00,3.8008
1198.00,3.6887
1197.00,3.7687
1196.00,4.0116
1195.00,4.0079
1194.00,3.8693
1193.00,3.8680
1192.00,3.8507
1191.00,3.7854
1190.00,3.7560
1189.00,3.8435
1188.00,4.0948
1187.00,4.2784
1186.00,4.1359
1185.00,3.9065
1184.00,3.7127
1183.00,3.6499
1182.00,3.7189
1181.00,3.7117
1180.00,3.5729
1179.00,3.5389
1178.00,3.7196
1177.00,4.0458
1176.00,3.8466
1175.00,3.6858
1174.00,3.6291
1173.00,3.5998
1172.00,3.6218
1171.00,3.6563
1170.00,3.6781
1169.00,3.6663
1168.00,3.5819
1167.00,3.4528
1166.00,3.3803
1165.00,3.4088
1164.00,3.5377
1163.00,3.7152
1162.00,3.8098
1161.00,3.7796
1160.00,3.7080
1159.00,3.6477
1158.00,3.6172
1157.00,3.6220
1156.00,3.6364
1155.00,3.6009
1154.00,3.5010
1153.00,3.4110
1152.00,3.4012
1151.00,3.5342
1150.00,3.9593
1149.00,4.1172
1148.00,3.7211
1147.00,3.6772
1146.00,3.7786
1145.00,3.8984
1144.00,3.9469
1143.00,3.9262
1142.00,3.9952
1141.00,4.0172
1140.00,3.7694
1139.00,3.6204
1138.00,3.6240
1137.00,3.7408
1136.00,4.0869
1135.00,4.7519
1134.00,4.2844
1133.00,4.1417
1132.00,3.9353
1131.00,3.7719
1130.00,3.6481
1129.00,3.5003
1128.00,3.4229
1127.00,3.4356
1126.00,3.4945
1125.00,3.5045
1124.00,3.4523
1123.00,3.3914
1122.00,3.4006
1121.00,3.5018
1120.00,3.7964
1119.00,4.4797
1118.00,3.8811
1117.00,3.6931
1116.00,3.5901
1115.00,3.4730
1114.00,3.4593
1113.00,3.5540
1112.00,3.6254
1111.00,3.5341
1110.00,3.4920
1109.00,3.5508
1108.00,3.7165
1107.00,4.0204
1106.00,4.5206
1105.00,4.8034
1104.00,4.1798
1103.00,3.9571
1102.00,3.9369
1101.00,3.9506
1100.00,3.8576
1099.00,3.7104
1098.00,3.5775
1097.00,3.5205
1096.00,3.5308
1095.00,3.5914
1094.00,3.6550
1093.00,3.8066
1092.00,4.3755
1091.00,3.8409
1090.00,3.4763
1089.00,3.3734
1088.00,3.4494
1087.00,3.7377
1086.00,3.8140
1085.00,3.6077
1084.00,3.5466
1083.00,3.5408
1082.00,3.5262
1081.00,3.4798
1080.00,3.3708
1079.00,3.2558
1078.00,3.2019
1077.00,3.2092
1076.00,3.2230
1075.00,3.1814
1074.00,3.1086
1073.00,3.0595
1072.00,3.0337
1071.00,3.0118
1070.00,2.9957
1069.00,2.9887
1068.00,2.9729
1067.00,2.9267
1066.00,2.8566
1065.00,2.7892
1064.00,2.7439
1063.00,2.7248
1062.00,2.7259
1061.00,2.7385
1060.00,2.7526
1059.00,2.7500
1058.00,2.7165
1057.00,2.6636
1056.00,2.6092
1055.00,2.5613
1054.00,2.5245
1053.00,2.5047
1052.00,2.5049
1051.00,2.5221
1050.00,2.5490
1049.00,2.5744
1048.00,2.5839
1047.00,2.5704
1046.00,2.5421
1045.00,2.5149
1044.00,2.4971
1043.00,2.4862
1042.00,2.4760
1041.00,2.4637
1040.00,2.4514
1039.00,2.4435
1038.00,2.4437
1037.00,2.4504
1036.00,2.4577
1035.00,2.4609
1034.00,2.4620
1033.00,2.4656
1032.00,2.4733
1031.00,2.4823
1030.00,2.4903
1029.00,2.5000
1028.00,2.5162
1027.00,2.5399
1026.00,2.5664
1025.00,2.5889
1024.00,2.6015
1023.00,2.6052
1022.00,2.6100
1021.00,2.6271
1020.00,2.6570
1019.00,2.6887
1018.00,2.7137
1017.00,2.7400
1016.00,2.7855
1015.00,2.8626
1014.00,2.9749
1013.00,3.1192
1012.00,3.2914
1011.00,3.5034
1010.00,3.7239
1009.00,3.7684
1008.00,3.6575
1007.00,3.7452
1006.00,4.0794
1005.00,3.7009
1004.00,3.5170
1003.00,3.4998
1002.00,3.6681
1001.00,4.3045
1000.00,3.7572
999.00,3.5055
998.00,3.4834
997.00,3.5684
996.00,3.6553
995.00,3.7189
994.00,3.8193
993.00,3.5964
992.00,3.3870
991.00,3.3295
990.00,3.3654
989.00,3.4148
988.00,3.4323
987.00,3.4722
986.00,3.5873
985.00,3.7771
984.00,3.9293
983.00,3.8565
982.00,3.7154
981.00,3.6425
980.00,3.7676
979.00,3.9975
978.00,3.6422
977.00,3.5713
976.00,3.9083
975.00,3.9740
974.00,3.6052
973.00,3.6158
972.00,4.0473
971.00,3.7550
970.00,3.2902
969.00,3.0641
968.00,2.9356
967.00,2.8617
966.00,2.8066
965.00,2.7456
964.00,2.6790
963.00,2.6119
962.00,2.5439
961.00,2.4728
960.00,2.4013
959.00,2.3347
958.00,2.2790
957.00,2.2381
956.00,2.2113
955.00,2.1920
954.00,2.1720
953.00,2.1490
952.00,2.1276
951.00,2.1130
950.00,2.1053
949.00,2.0992
948.00,2.0890
947.00,2.0735
946.00,2.0561
945.00,2.0411
944.00,2.0302
943.00,2.0222
942.00,2.0153
941.00,2.0089
940.00,2.0037
939.00,1.9994
938.00,1.9952
937.00,1.9910
936.00,1.9882
935.00,1.9877
934.00,1.9891
933.00,1.9924
932.00,1.9984
931.00,2.0068
930.00,2.0142
929.00,2.0170
928.00,2.0157
927.00,2.0133
926.00,2.0100
925.00,2.0023
924.00,1.9891
923.00,1.9740
922.00,1.9616
921.00,1.9529
920.00,1.9450
919.00,1.9352
918.00,1.9223
917.00,1.9067
916.00,1.8888
915.00,1.8701
914.00,1.8525
913.00,1.8369
912.00,1.8226
911.00,1.8077
910.00,1.7920
909.00,1.7770
908.00,1.7648
907.00,1.7560
906.00,1.7490
905.00,1.7416
904.00,1.7339
903.00,1.7278
902.00,1.7247
901.00,1.7234
900.00,1.7203
899.00,1.7126
898.00,1.7010
897.00,1.6889
896.00,1.6793
895.00,1.6726
894.00,1.6669
893.00,1.6611
892.00,1.6562
891.00,1.6539
890.00,1.6544
889.00,1.6560
888.00,1.6574
887.00,1.6587
886.00,1.6605
885.00,1.6618
884.00,1.6607
883.00,1.6558
882.00,1.6483
881.00,1.6401
880.00,1.6321
879.00,1.6242
878.00,1.6158
877.00,1.6071
876.00,1.5991
875.00,1.5939
874.00,1.5922
873.00,1.5930
872.00,1.5942
871.00,1.5948
870.00,1.5950
869.00,1.5955
868.00,1.5955
867.00,1.5941
866.00,1.5914
865.00,1.5895
864.00,1.5903
863.00,1.5937
862.00,1.5981
861.00,1.6025
860.00,1.6076
859.00,1.6140
858.00,1.6219
857.00,1.6311
856.00,1.6418
855.00,1.6548
854.00,1.6698
853.00,1.6861
852.00,1.7027
851.00,1.7182
850.00,1.7304
849.00,1.7372
848.00,1.7391
847.00,1.7379
846.00,1.7344
845.00,1.7277
844.00,1.7181
843.00,1.7081
842.00,1.7005
841.00,1.6956
840.00,1.6928
839.00,1.6919
838.00,1.6932
837.00,1.6976
836.00,1.7058
835.00,1.7199
834.00,1.7415
833.00,1.7697
832.00,1.8019
831.00,1.8369
830.00,1.8772
829.00,1.9273
828.00,1.9927
827.00,2.0818
826.00,2.2090
825.00,2.3947
824.00,2.6587
823.00,2.9926
822.00,3.2446
821.00,3.2854
820.00,3.2871
819.00,3.3229
818.00,3.4002
817.00,3.4871
816.00,3.5537
815.00,3.6281
814.00,3.7805
813.00,4.1987
812.00,4.2660
811.00,3.9859
810.00,4.2744
809.00,4.1218
808.00,3.7310
807.00,3.8017
806.00,4.2473
805.00,4.4153
804.00,3.9073
803.00,3.5631
802.00,3.4629
801.00,3.5297
800.00,3.6684
799.00,3.7227
798.00,3.6503
797.00,3.5886
796.00,3.5528
795.00,3.4823
794.00,3.4619
793.00,3.5825
792.00,3.8378
791.00,3.7680
790.00,3.5675
789.00,3.5100
788.00,3.6401
787.00,3.6647
786.00,3.3648
785.00,3.2399
784.00,3.3284
783.00,3.7923
782.00,3.7224
781.00,3.3727
780.00,3.3103
779.00,3.3310
778.00,3.3182
777.00,3.3510
776.00,3.5177
775.00,3.5047
774.00,3.2287
773.00,3.0485
772.00,2.9568
771.00,2.9336
770.00,2.9712
769.00,3.0469
768.00,3.1133
767.00,3.1267
766.00,3.1096
765.00,3.1172
764.00,3.1747
763.00,3.2685
762.00,3.3635
761.00,3.4018
760.00,3.3082
759.00,3.1400
758.00,2.9991
757.00,2.9218
756.00,2.9121
755.00,2.9560
754.00,3.0327
753.00,3.1371
752.00,3.2829
751.00,3.4181
750.00,3.4283
749.00,3.4531
748.00,3.6242
747.00,4.0013
746.00,4.3252
745.00,4.0634
744.00,3.8567
743.00,3.6437
742.00,3.4392
741.00,3.3084
740.00,3.2714
739.00,3.3003
738.00,3.3421
737.00,3.3237
736.00,3.1989
735.00,3.0471
734.00,2.9254
733.00,2.8375
732.00,2.7701
731.00,2.7095
730.00,2.6615
729.00,2.6467
728.00,2.6803
727.00,2.7646
726.00,2.8902
725.00,3.0368
724.00,3.1686
723.00,3.1996
722.00,3.0697
721.00,2.9295
720.00,2.8794
719.00,2.9400
718.00,3.1067
717.00,3.2667
716.00,3.2809
715.00,3.2346
714.00,3.1035
713.00,2.9614
712.00,2.8677
711.00,2.8154
710.00,2.7881
709.00,2.7771
708.00,2.7831
707.00,2.7999
706.00,2.8091
705.00,2.7992
704.00,2.7761
703.00,2.7440
702.00,2.7079
701.00,2.6821
700.00,2.6658
699.00,2.6408
698.00,2.6059
697.00,2.5825
696.00,2.5867
695.00,2.6111
694.00,2.6275
693.00,2.6219
692.00,2.6165
691.00,2.6351
690.00,2.6677
689.00,2.6779
688.00,2.6541
687.00,2.6190
686.00,2.5963
685.00,2.5903
684.00,2.5901
683.00,2.5876
682.00,2.5840
681.00,2.5869
680.00,2.6047
679.00,2.6320
678.00,2.6451
677.00,2.6231
676.00,2.5786
675.00,2.5475
674.00,2.5558
673.00,2.6087
672.00,2.6939
671.00,2.7854
670.00,2.8524
669.00,2.8658
668.00,2.8195
667.00,2.7532
666.00,2.7123
665.00,2.7066
664.00,2.7226
663.00,2.7396
662.00,2.7422
661.00,2.7362
660.00,2.7342
659.00,2.7505
658.00,2.8076
657.00,2.9310
656.00,3.0869
655.00,3.0848
654.00,2.9983
653.00,2.9714
652.00,2.9601
651.00,2.9041
650.00,2.8497
649.00,2.8724
648.00,3.0120
647.00,3.2319
646.00,3.2334
645.00,3.0026
644.00,2.8466
643.00,2.8060
642.00,2.8413
641.00,2.8811
640.00,2.8647
639.00,2.8133
638.00,2.7801
637.00,2.7827
636.00,2.7946
635.00,2.7596
634.00,2.6550
633.00,2.5263
632.00,2.4213
631.00,2.3529
630.00,2.3118
629.00,2.2819
628.00,2.2515
627.00,2.2149
626.00,2.1715
625.00,2.1267
624.00,2.0920
623.00,2.0761
622.00,2.0772
621.00,2.0834
620.00,2.0821
619.00,2.0694
618.00,2.0499
617.00,2.0294
616.00,2.0111
615.00,1.9953
614.00,1.9811
613.00,1.9678
612.00,1.9550
611.00,1.9416
610.00,1.9267
609.00,1.9105
608.00,1.8941
607.00,1.8774
606.00,1.8589
605.00,1.8396
604.00,1.8243
603.00,1.8185
602.00,1.8210
601.00,1.8229
600.00,1.8163
599.00,1.8034
598.00,1.7928
597.00,1.7899
596.00,1.7917
595.00,1.7905
594.00,1.7803
593.00,1.7620
592.00,1.7419
591.00,1.7254
590.00,1.7124
589.00,1.7009
588.00,1.6908
587.00,1.6844
586.00,1.6832
585.00,1.6862
584.00,1.6925
583.00,1.7027
582.00,1.7160
581.00,1.7273
580.00,1.7307
579.00,1.7277
578.00,1.7264
577.00,1.7343
576.00,1.7522
575.00,1.7746
574.00,1.7933
573.00,1.8027
572.00,1.8043
571.00,1.8038
570.00,1.8052
569.00,1.8060
568.00,1.8027
567.00,1.7984
566.00,1.8005
565.00,1.8120
564.00,1.8276
563.00,1.8418
562.00,1.8577
561.00,1.8824
560.00,1.9158
559.00,1.9473
558.00,1.9705
557.00,1.9955
556.00,2.0358
555.00,2.0886
554.00,2.1300
553.00,2.1437
552.00,2.1463
551.00,2.1649
550.00,2.2104
