Created as New Dataset,
cm-1,A
4000.00,1.8600
3999.00,1.8610
3998.00,1.8617
3997.00,1.8617
3996.00,1.8611
3995.00,1.8606
3994.00,1.8610
3993.00,1.8622
3992.00,1.8634
3991.00,1.8639
3990.00,1.8634
3989.00,1.8626
3988.00,1.8619
3987.00,1.8615
3986.00,1.8610
3985.00,1.8603
3984.00,1.8600
3983.00,1.8607
3982.00,1.8626
3981.00,1.8645
3980.00,1.8653
3979.00,1.8645
3978.00,1.8629
3977.00,1.8616
3976.00,1.8610
3975.00,1.8609
3974.00,1.8607
3973.00,1.8604
3972.00,1.8603
3971.00,1.8608
3970.00,1.8617
3969.00,1.8623
3968.00,1.8620
3967.00,1.8610
3966.00,1.8596
3965.00,1.8583
3964.00,1.8569
3963.00,1.8554
3962.00,1.8542
3961.00,1.8540
3960.00,1.8550
3959.00,1.8568
3958.00,1.8581
3957.00,1.8577
3956.00,1.8563
3955.00,1.8550
3954.00,1.8549
3953.00,1.8561
3952.00,1.8577
3951.00,1.8586
3950.00,1.8589
3949.00,1.8587
3948.00,1.8585
3947.00,1.8587
3946.00,1.8591
3945.00,1.8593
3944.00,1.8587
3943.00,1.8572
3942.00,1.8559
3941.00,1.8554
3940.00,1.8557
3939.00,1.8561
3938.00,1.8560
3937.00,1.8553
3936.00,1.8545
3935.00,1.8536
3934.00,1.8528
3933.00,1.8522
3932.00,1.8519
3931.00,1.8519
3930.00,1.8518
3929.00,1.8517
3928.00,1.8516
3927.00,1.8520
3926.00,1.8525
3925.00,1.8528
3924.00,1.8528
3923.00,1.8530
3922.00,1.8537
3921.00,1.8549
3920.00,1.8558
3919.00,1.8560
3918.00,1.8555
3917.00,1.8548
3916.00,1.8546
3915.00,1.8551
3914.00,1.8560
3913.00,1.8567
3912.00,1.8563
3911.00,1.8548
3910.00,1.8529
3909.00,1.8517
3908.00,1.8517
3907.00,1.8526
3906.00,1.8537
3905.00,1.8546
3904.00,1.8557
3903.00,1.8576
3902.00,1.8598
3901.00,1.8616
3900.00,1.8620
3899.00,1.8607
3898.00,1.8582
3897.00,1.8552
3896.00,1.8521
3895.00,1.8496
3894.00,1.8482
3893.00,1.8481
3892.00,1.8493
3891.00,1.8513
3890.00,1.8537
3889.00,1.8559
3888.00,1.8575
3887.00,1.8583
3886.00,1.8584
3885.00,1.8583
3884.00,1.8584
3883.00,1.8582
3882.00,1.8573
3881.00,1.8556
3880.00,1.8539
3879.00,1.8529
3878.00,1.8525
3877.00,1.8524
3876.00,1.8524
3875.00,1.8527
3874.00,1.8534
3873.00,1.8545
3872.00,1.8556
3871.00,1.8566
3870.00,1.8573
3869.00,1.8580
3868.00,1.8584
3867.00,1.8588
3866.00,1.8590
3865.00,1.8591
3864.00,1.8593
3863.00,1.8592
3862.00,1.8586
3861.00,1.8572
3860.00,1.8558
3859.00,1.8551
3858.00,1.8562
3857.00,1.8587
3856.00,1.8616
3855.00,1.8634
3854.00,1.8640
3853.00,1.8650
3852.00,1.8667
3851.00,1.8676
3850.00,1.8663
3849.00,1.8630
3848.00,1.8589
3847.00,1.8554
3846.00,1.8533
3845.00,1.8525
3844.00,1.8523
3843.00,1.8525
3842.00,1.8525
3841.00,1.8525
3840.00,1.8525
3839.00,1.8528
3838.00,1.8536
3837.00,1.8547
3836.00,1.8556
3835.00,1.8557
3834.00,1.8548
3833.00,1.8530
3832.00,1.8503
3831.00,1.8476
3830.00,1.8457
3829.00,1.8452
3828.00,1.8458
3827.00,1.8470
3826.00,1.8487
3825.00,1.8507
3824.00,1.8525
3823.00,1.8530
3822.00,1.8519
3821.00,1.8506
3820.00,1.8513
3819.00,1.8543
3818.00,1.8580
3817.00,1.8596
3816.00,1.8579
3815.00,1.8540
3814.00,1.8498
3813.00,1.8466
3812.00,1.8444
3811.00,1.8431
3810.00,1.8430
3809.00,1.8439
3808.00,1.8454
3807.00,1.8470
3806.00,1.8483
3805.00,1.8494
3804.00,1.8503
3803.00,1.8508
3802.00,1.8510
3801.00,1.8511
3800.00,1.8513
3799.00,1.8514
3798.00,1.8511
3797.00,1.8504
3796.00,1.8492
3795.00,1.8472
3794.00,1.8444
3793.00,1.8416
3792.00,1.8394
3791.00,1.8383
3790.00,1.8379
3789.00,1.8373
3788.00,1.8359
3787.00,1.8340
3786.00,1.8322
3785.00,1.8315
3784.00,1.8321
3783.00,1.8336
3782.00,1.8351
3781.00,1.8361
3780.00,1.8366
3779.00,1.8372
3778.00,1.8379
3777.00,1.8379
3776.00,1.8366
3775.00,1.8344
3774.00,1.8326
3773.00,1.8323
3772.00,1.8333
3771.00,1.8345
3770.00,1.8350
3769.00,1.8350
3768.00,1.8352
3767.00,1.8358
3766.00,1.8360
3765.00,1.8356
3764.00,1.8353
3763.00,1.8360
3762.00,1.8379
3761.00,1.8399
3760.00,1.8411
3759.00,1.8416
3758.00,1.8419
3757.00,1.8425
3756.00,1.8432
3755.00,1.8443
3754.00,1.8461
3753.00,1.8479
3752.00,1.8493
3751.00,1.8502
3750.00,1.8518
3749.00,1.8547
3748.00,1.8585
3747.00,1.8618
3746.00,1.8624
3745.00,1.8595
3744.00,1.8550
3743.00,1.8514
3742.00,1.8495
3741.00,1.8489
3740.00,1.8488
3739.00,1.8484
3738.00,1.8476
3737.00,1.8465
3736.00,1.8458
3735.00,1.8458
3734.00,1.8464
3733.00,1.8470
3732.00,1.8473
3731.00,1.8469
3730.00,1.8455
3729.00,1.8433
3728.00,1.8404
3727.00,1.8373
3726.00,1.8347
3725.00,1.8335
3724.00,1.8337
3723.00,1.8349
3722.00,1.8366
3721.00,1.8384
3720.00,1.8402
3719.00,1.8412
3718.00,1.8412
3717.00,1.8404
3716.00,1.8396
3715.00,1.8391
3714.00,1.8388
3713.00,1.8386
3712.00,1.8389
3711.00,1.8400
3710.00,1.8412
3709.00,1.8416
3708.00,1.8410
3707.00,1.8397
3706.00,1.8382
3705.00,1.8366
3704.00,1.8348
3703.00,1.8329
3702.00,1.8315
3701.00,1.8312
3700.00,1.8321
3699.00,1.8336
3698.00,1.8351
3697.00,1.8364
3696.00,1.8378
3695.00,1.8394
3694.00,1.8411
3693.00,1.8427
3692.00,1.8443
3691.00,1.8457
3690.00,1.8465
3689.00,1.8470
3688.00,1.8475
3687.00,1.8480
3686.00,1.8482
3685.00,1.8479
3684.00,1.8473
3683.00,1.8466
3682.00,1.8456
3681.00,1.8447
3680.00,1.8448
3679.00,1.8466
3678.00,1.8492
3677.00,1.8508
3676.00,1.8507
3675.00,1.8509
3674.00,1.8534
3673.00,1.8577
3672.00,1.8613
3671.00,1.8624
3670.00,1.8610
3669.00,1.8589
3668.00,1.8569
3667.00,1.8550
3666.00,1.8529
3665.00,1.8511
3664.00,1.8496
3663.00,1.8486
3662.00,1.8476
3661.00,1.8469
3660.00,1.8468
3659.00,1.8471
3658.00,1.8472
3657.00,1.8472
3656.00,1.8481
3655.00,1.8504
3654.00,1.8536
3653.00,1.8564
3652.00,1.8582
3651.00,1.8594
3650.00,1.8609
3649.00,1.8627
3648.00,1.8636
3647.00,1.8627
3646.00,1.8601
3645.00,1.8569
3644.00,1.8541
3643.00,1.8521
3642.00,1.8508
3641.00,1.8501
3640.00,1.8494
3639.00,1.8487
3638.00,1.8484
3637.00,1.8491
3636.00,1.8510
3635.00,1.8535
3634.00,1.8558
3633.00,1.8577
3632.00,1.8593
3631.00,1.8607
3630.00,1.8613
3629.00,1.8614
3628.00,1.8614
3627.00,1.8616
3626.00,1.8614
3625.00,1.8608
3624.00,1.8600
3623.00,1.8596
3622.00,1.8597
3621.00,1.8603
3620.00,1.8612
3619.00,1.8621
3618.00,1.8625
3617.00,1.8622
3616.00,1.8616
3615.00,1.8610
3614.00,1.8608
3613.00,1.8610
3612.00,1.8615
3611.00,1.8621
3610.00,1.8625
3609.00,1.8628
3608.00,1.8632
3607.00,1.8634
3606.00,1.8630
3605.00,1.8617
3604.00,1.8600
3603.00,1.8587
3602.00,1.8578
3601.00,1.8570
3600.00,1.8559
3599.00,1.8552
3598.00,1.8557
3597.00,1.8574
3596.00,1.8594
3595.00,1.8606
3594.00,1.8607
3593.00,1.8605
3592.00,1.8608
3591.00,1.8616
3590.00,1.8625
3589.00,1.8630
3588.00,1.8632
3587.00,1.8634
3586.00,1.8642
3585.00,1.8656
3584.00,1.8671
3583.00,1.8681
3582.00,1.8680
3581.00,1.8666
3580.00,1.8648
3579.00,1.8635
3578.00,1.8630
3577.00,1.8632
3576.00,1.8637
3575.00,1.8639
3574.00,1.8636
3573.00,1.8635
3572.00,1.8643
3571.00,1.8656
3570.00,1.8669
3569.00,1.8675
3568.00,1.8680
3567.00,1.8690
3566.00,1.8704
3565.00,1.8716
3564.00,1.8723
3563.00,1.8728
3562.00,1.8737
3561.00,1.8749
3560.00,1.8760
3559.00,1.8763
3558.00,1.8755
3557.00,1.8739
3556.00,1.8722
3555.00,1.8712
3554.00,1.8712
3553.00,1.8720
3552.00,1.8734
3551.00,1.8755
3550.00,1.8777
3549.00,1.8790
3548.00,1.8788
3547.00,1.8775
3546.00,1.8763
3545.00,1.8757
3544.00,1.8758
3543.00,1.8765
3542.00,1.8772
3541.00,1.8775
3540.00,1.8770
3539.00,1.8761
3538.00,1.8753
3537.00,1.8753
3536.00,1.8764
3535.00,1.8783
3534.00,1.8802
3533.00,1.8816
3532.00,1.8825
3531.00,1.8834
3530.00,1.8842
3529.00,1.8845
3528.00,1.8843
3527.00,1.8840
3526.00,1.8841
3525.00,1.8846
3524.00,1.8850
3523.00,1.8850
3522.00,1.8843
3521.00,1.8830
3520.00,1.8814
3519.00,1.8806
3518.00,1.8811
3517.00,1.8827
3516.00,1.8845
3515.00,1.8860
3514.00,1.8874
3513.00,1.8887
3512.00,1.8902
3511.00,1.8920
3510.00,1.8941
3509.00,1.8958
3508.00,1.8964
3507.00,1.8955
3506.00,1.8940
3505.00,1.8929
3504.00,1.8924
3503.00,1.8924
3502.00,1.8927
3501.00,1.8931
3500.00,1.8933
3499.00,1.8932
3498.00,1.8932
3497.00,1.8938
3496.00,1.8951
3495.00,1.8968
3494.00,1.8981
3493.00,1.8986
3492.00,1.8989
3491.00,1.8997
3490.00,1.9012
3489.00,1.9029
3488.00,1.9039
3487.00,1.9039
3486.00,1.9033
3485.00,1.9026
3484.00,1.9020
3483.00,1.9013
3482.00,1.9008
3481.00,1.9009
3480.00,1.9015
3479.00,1.9024
3478.00,1.9036
3477.00,1.9049
3476.00,1.9062
3475.00,1.9072
3474.00,1.9083
3473.00,1.9102
3472.00,1.9129
3471.00,1.9158
3470.00,1.9178
3469.00,1.9186
3468.00,1.9187
3467.00,1.9186
3466.00,1.9182
3465.00,1.9179
3464.00,1.9177
3463.00,1.9180
3462.00,1.9185
3461.00,1.9193
3460.00,1.9203
3459.00,1.9213
3458.00,1.9220
3457.00,1.9224
3456.00,1.9231
3455.00,1.9243
3454.00,1.9259
3453.00,1.9273
3452.00,1.9282
3451.00,1.9288
3450.00,1.9293
3449.00,1.9299
3448.00,1.9307
3447.00,1.9317
3446.00,1.9326
3445.00,1.9330
3444.00,1.9328
3443.00,1.9327
3442.00,1.9335
3441.00,1.9357
3440.00,1.9387
3439.00,1.9414
3438.00,1.9429
3437.00,1.9428
3436.00,1.9416
3435.00,1.9402
3434.00,1.9395
3433.00,1.9398
3432.00,1.9408
3431.00,1.9416
3430.00,1.9417
3429.00,1.9414
3428.00,1.9420
3427.00,1.9441
3426.00,1.9468
3425.00,1.9487
3424.00,1.9493
3423.00,1.9493
3422.00,1.9498
3421.00,1.9508
3420.00,1.9512
3419.00,1.9505
3418.00,1.9494
3417.00,1.9490
3416.00,1.9498
3415.00,1.9512
3414.00,1.9521
3413.00,1.9518
3412.00,1.9509
3411.00,1.9501
3410.00,1.9498
3409.00,1.9501
3408.00,1.9508
3407.00,1.9519
3406.00,1.9529
3405.00,1.9534
3404.00,1.9528
3403.00,1.9514
3402.00,1.9500
3401.00,1.9499
3400.00,1.9510
3399.00,1.9525
3398.00,1.9535
3397.00,1.9535
3396.00,1.9526
3395.00,1.9510
3394.00,1.9491
3393.00,1.9479
3392.00,1.9483
3391.00,1.9507
3390.00,1.9535
3389.00,1.9547
3388.00,1.9528
3387.00,1.9486
3386.00,1.9447
3385.00,1.9435
3384.00,1.9452
3383.00,1.9480
3382.00,1.9498
3381.00,1.9499
3380.00,1.9493
3379.00,1.9488
3378.00,1.9484
3377.00,1.9477
3376.00,1.9467
3375.00,1.9454
3374.00,1.9441
3373.00,1.9431
3372.00,1.9429
3371.00,1.9440
3370.00,1.9454
3369.00,1.9459
3368.00,1.9449
3367.00,1.9435
3366.00,1.9428
3365.00,1.9435
3364.00,1.9448
3363.00,1.9454
3362.00,1.9444
3361.00,1.9420
3360.00,1.9391
3359.00,1.9368
3358.00,1.9356
3357.00,1.9351
3356.00,1.9349
3355.00,1.9343
3354.00,1.9334
3353.00,1.9324
3352.00,1.9318
3351.00,1.9313
3350.00,1.9313
3349.00,1.9320
3348.00,1.9335
3347.00,1.9351
3346.00,1.9358
3345.00,1.9350
3344.00,1.9335
3343.00,1.9319
3342.00,1.9303
3341.00,1.9284
3340.00,1.9268
3339.00,1.9267
3338.00,1.9280
3337.00,1.9295
3336.00,1.9298
3335.00,1.9290
3334.00,1.9279
3333.00,1.9274
3332.00,1.9276
3331.00,1.9280
3330.00,1.9282
3329.00,1.9282
3328.00,1.9282
3327.00,1.9284
3326.00,1.9283
3325.00,1.9275
3324.00,1.9260
3323.00,1.9250
3322.00,1.9251
3321.00,1.9263
3320.00,1.9274
3319.00,1.9279
3318.00,1.9279
3317.00,1.9278
3316.00,1.9280
3315.00,1.9282
3314.00,1.9276
3313.00,1.9258
3312.00,1.9237
3311.00,1.9230
3310.00,1.9245
3309.00,1.9277
3308.00,1.9307
3307.00,1.9322
3306.00,1.9320
3305.00,1.9308
3304.00,1.9295
3303.00,1.9285
3302.00,1.9281
3301.00,1.9276
3300.00,1.9268
3299.00,1.9258
3298.00,1.9253
3297.00,1.9257
3296.00,1.9264
3295.00,1.9273
3294.00,1.9285
3293.00,1.9303
3292.00,1.9321
3291.00,1.9329
3290.00,1.9323
3289.00,1.9311
3288.00,1.9307
3287.00,1.9314
3286.00,1.9324
3285.00,1.9328
3284.00,1.9324
3283.00,1.9322
3282.00,1.9328
3281.00,1.9341
3280.00,1.9353
3279.00,1.9352
3278.00,1.9339
3277.00,1.9323
3276.00,1.9315
3275.00,1.9317
3274.00,1.9328
3273.00,1.9345
3272.00,1.9368
3271.00,1.9390
3270.00,1.9401
3269.00,1.9396
3268.00,1.9378
3267.00,1.9360
3266.00,1.9356
3265.00,1.9371
3264.00,1.9398
3263.00,1.9421
3262.00,1.9429
3261.00,1.9425
3260.00,1.9420
3259.00,1.9423
3258.00,1.9436
3257.00,1.9455
3256.00,1.9476
3255.00,1.9494
3254.00,1.9503
3253.00,1.9504
3252.00,1.9507
3251.00,1.9515
3250.00,1.9522
3249.00,1.9522
3248.00,1.9521
3247.00,1.9534
3246.00,1.9565
3245.00,1.9596
3244.00,1.9609
3243.00,1.9595
3242.00,1.9571
3241.00,1.9559
3240.00,1.9571
3239.00,1.9603
3238.00,1.9633
3237.00,1.9642
3236.00,1.9632
3235.00,1.9619
3234.00,1.9617
3233.00,1.9624
3232.00,1.9632
3231.00,1.9637
3230.00,1.9641
3229.00,1.9646
3228.00,1.9652
3227.00,1.9658
3226.00,1.9671
3225.00,1.9693
3224.00,1.9720
3223.00,1.9741
3222.00,1.9746
3221.00,1.9736
3220.00,1.9715
3219.00,1.9694
3218.00,1.9682
3217.00,1.9687
3216.00,1.9712
3215.00,1.9748
3214.00,1.9775
3213.00,1.9780
3212.00,1.9765
3211.00,1.9743
3210.00,1.9729
3209.00,1.9730
3208.00,1.9741
3207.00,1.9753
3206.00,1.9757
3205.00,1.9751
3204.00,1.9742
3203.00,1.9736
3202.00,1.9734
3201.00,1.9729
3200.00,1.9720
3199.00,1.9711
3198.00,1.9705
3197.00,1.9701
3196.00,1.9694
3195.00,1.9682
3194.00,1.9665
3193.00,1.9645
3192.00,1.9624
3191.00,1.9607
3190.00,1.9599
3189.00,1.9596
3188.00,1.9588
3187.00,1.9569
3186.00,1.9544
3185.00,1.9523
3184.00,1.9514
3183.00,1.9518
3182.00,1.9532
3181.00,1.9549
3180.00,1.9563
3179.00,1.9563
3178.00,1.9545
3177.00,1.9514
3176.00,1.9483
3175.00,1.9463
3174.00,1.9457
3173.00,1.9455
3172.00,1.9444
3171.00,1.9416
3170.00,1.9380
3169.00,1.9351
3168.00,1.9337
3167.00,1.9336
3166.00,1.9336
3165.00,1.9324
3164.00,1.9301
3163.00,1.9271
3162.00,1.9240
3161.00,1.9214
3160.00,1.9195
3159.00,1.9180
3158.00,1.9164
3157.00,1.9143
3156.00,1.9123
3155.00,1.9111
3154.00,1.9113
3153.00,1.9119
3152.00,1.9120
3151.00,1.9107
3150.00,1.9086
3149.00,1.9063
3148.00,1.9040
3147.00,1.9017
3146.00,1.8991
3145.00,1.8967
3144.00,1.8950
3143.00,1.8940
3142.00,1.8932
3141.00,1.8921
3140.00,1.8906
3139.00,1.8891
3138.00,1.8878
3137.00,1.8867
3136.00,1.8860
3135.00,1.8857
3134.00,1.8855
3133.00,1.8847
3132.00,1.8833
3131.00,1.8813
3130.00,1.8789
3129.00,1.8766
3128.00,1.8749
3127.00,1.8742
3126.00,1.8742
3125.00,1.8743
3124.00,1.8739
3123.00,1.8726
3122.00,1.8705
3121.00,1.8683
3120.00,1.8669
3119.00,1.8667
3118.00,1.8670
3117.00,1.8666
3116.00,1.8649
3115.00,1.8627
3114.00,1.8611
3113.00,1.8604
3112.00,1.8600
3111.00,1.8590
3110.00,1.8573
3109.00,1.8556
3108.00,1.8543
3107.00,1.8532
3106.00,1.8521
3105.00,1.8512
3104.00,1.8505
3103.00,1.8500
3102.00,1.8490
3101.00,1.8475
3100.00,1.8460
3099.00,1.8454
3098.00,1.8456
3097.00,1.8456
3096.00,1.8446
3095.00,1.8428
3094.00,1.8409
3093.00,1.8394
3092.00,1.8383
3091.00,1.8378
3090.00,1.8377
3089.00,1.8379
3088.00,1.8381
3087.00,1.8379
3086.00,1.8371
3085.00,1.8358
3084.00,1.8347
3083.00,1.8341
3082.00,1.8339
3081.00,1.8337
3080.00,1.8332
3079.00,1.8322
3078.00,1.8310
3077.00,1.8297
3076.00,1.8285
3075.00,1.8276
3074.00,1.8269
3073.00,1.8261
3072.00,1.8252
3071.00,1.8244
3070.00,1.8241
3069.00,1.8239
3068.00,1.8234
3067.00,1.8226
3066.00,1.8218
3065.00,1.8209
3064.00,1.8197
3063.00,1.8185
3062.00,1.8178
3061.00,1.8177
3060.00,1.8175
3059.00,1.8168
3058.00,1.8162
3057.00,1.8162
3056.00,1.8172
3055.00,1.8180
3054.00,1.8178
3053.00,1.8163
3052.00,1.8145
3051.00,1.8134
3050.00,1.8132
3049.00,1.8130
3048.00,1.8119
3047.00,1.8104
3046.00,1.8093
3045.00,1.8093
3044.00,1.8098
3043.00,1.8101
3042.00,1.8100
3041.00,1.8101
3040.00,1.8101
3039.00,1.8099
3038.00,1.8091
3037.00,1.8082
3036.00,1.8074
3035.00,1.8063
3034.00,1.8050
3033.00,1.8038
3032.00,1.8033
3031.00,1.8031
3030.00,1.8024
3029.00,1.8012
3028.00,1.7998
3027.00,1.7988
3026.00,1.7983
3025.00,1.7982
3024.00,1.7983
3023.00,1.7985
3022.00,1.7989
3021.00,1.7994
3020.00,1.7997
3019.00,1.7993
3018.00,1.7977
3017.00,1.7954
3016.00,1.7934
3015.00,1.7925
3014.00,1.7927
3013.00,1.7933
3012.00,1.7936
3011.00,1.7936
3010.00,1.7932
3009.00,1.7927
3008.00,1.7920
3007.00,1.7912
3006.00,1.7905
3005.00,1.7902
3004.00,1.7903
3003.00,1.7904
3002.00,1.7902
3001.00,1.7894
3000.00,1.7883
2999.00,1.7872
2998.00,1.7863
2997.00,1.7859
2996.00,1.7862
2995.00,1.7870
2994.00,1.7875
2993.00,1.7875
2992.00,1.7872
2991.00,1.7866
2990.00,1.7857
2989.00,1.7846
2988.00,1.7839
2987.00,1.7842
2986.00,1.7852
2985.00,1.7862
2984.00,1.7871
2983.00,1.7881
2982.00,1.7896
2981.00,1.7913
2980.00,1.7923
2979.00,1.7920
2978.00,1.7908
2977.00,1.7897
2976.00,1.7895
2975.00,1.7902
2974.00,1.7912
2973.00,1.7918
2972.00,1.7921
2971.00,1.7930
2970.00,1.7946
2969.00,1.7962
2968.00,1.7974
2967.00,1.7978
2966.00,1.7980
2965.00,1.7983
2964.00,1.7990
2963.00,1.8000
2962.00,1.8012
2961.00,1.8021
2960.00,1.8027
2959.00,1.8035
2958.00,1.8043
2957.00,1.8046
2956.00,1.8038
2955.00,1.8022
2954.00,1.8009
2953.00,1.8004
2952.00,1.8006
2951.00,1.8008
2950.00,1.8005
2949.00,1.7994
2948.00,1.7982
2947.00,1.7975
2946.00,1.7980
2945.00,1.7992
2944.00,1.8003
2943.00,1.8005
2942.00,1.8002
2941.00,1.7998
2940.00,1.7996
2939.00,1.7994
2938.00,1.7992
2937.00,1.7990
2936.00,1.7993
2935.00,1.7999
2934.00,1.8007
2933.00,1.8018
2932.00,1.8031
2931.00,1.8045
2930.00,1.8059
2929.00,1.8072
2928.00,1.8081
2927.00,1.8086
2926.00,1.8085
2925.00,1.8080
2924.00,1.8071
2923.00,1.8061
2922.00,1.8055
2921.00,1.8052
2920.00,1.8053
2919.00,1.8051
2918.00,1.8046
2917.00,1.8035
2916.00,1.8021
2915.00,1.8002
2914.00,1.7977
2913.00,1.7952
2912.00,1.7932
2911.00,1.7914
2910.00,1.7896
2909.00,1.7873
2908.00,1.7850
2907.00,1.7831
2906.00,1.7820
2905.00,1.7816
2904.00,1.7817
2903.00,1.7815
2902.00,1.7804
2901.00,1.7782
2900.00,1.7761
2899.00,1.7749
2898.00,1.7745
2897.00,1.7742
2896.00,1.7733
2895.00,1.7720
2894.00,1.7708
2893.00,1.7700
2892.00,1.7693
2891.00,1.7686
2890.00,1.7679
2889.00,1.7678
2888.00,1.7684
2887.00,1.7690
2886.00,1.7690
2885.00,1.7684
2884.00,1.7681
2883.00,1.7689
2882.00,1.7702
2881.00,1.7711
2880.00,1.7715
2879.00,1.7717
2878.00,1.7720
2877.00,1.7722
2876.00,1.7721
2875.00,1.7718
2874.00,1.7717
2873.00,1.7719
2872.00,1.7726
2871.00,1.7739
2870.00,1.7753
2869.00,1.7764
2868.00,1.7771
2867.00,1.7776
2866.00,1.7783
2865.00,1.7787
2864.00,1.7792
2863.00,1.7801
2862.00,1.7816
2861.00,1.7827
2860.00,1.7823
2859.00,1.7803
2858.00,1.7783
2857.00,1.7776
2856.00,1.7787
2855.00,1.7807
2854.00,1.7822
2853.00,1.7829
2852.00,1.7831
2851.00,1.7833
2850.00,1.7833
2849.00,1.7826
2848.00,1.7811
2847.00,1.7794
2846.00,1.7781
2845.00,1.7773
2844.00,1.7767
2843.00,1.7757
2842.00,1.7743
2841.00,1.7725
2840.00,1.7710
2839.00,1.7704
2838.00,1.7706
2837.00,1.7707
2836.00,1.7705
2835.00,1.7701
2834.00,1.7703
2833.00,1.7710
2832.00,1.7717
2831.00,1.7723
2830.00,1.7728
2829.00,1.7736
2828.00,1.7745
2827.00,1.7752
2826.00,1.7758
2825.00,1.7767
2824.00,1.7782
2823.00,1.7795
2822.00,1.7801
2821.00,1.7801
2820.00,1.7802
2819.00,1.7810
2818.00,1.7826
2817.00,1.7842
2816.00,1.7853
2815.00,1.7860
2814.00,1.7865
2813.00,1.7874
2812.00,1.7884
2811.00,1.7892
2810.00,1.7896
2809.00,1.7899
2808.00,1.7904
2807.00,1.7915
2806.00,1.7927
2805.00,1.7935
2804.00,1.7940
2803.00,1.7943
2802.00,1.7945
2801.00,1.7945
2800.00,1.7941
2799.00,1.7936
2798.00,1.7934
2797.00,1.7934
2796.00,1.7930
2795.00,1.7923
2794.00,1.7918
2793.00,1.7916
2792.00,1.7913
2791.00,1.7904
2790.00,1.7893
2789.00,1.7886
2788.00,1.7881
2787.00,1.7869
2786.00,1.7846
2785.00,1.7818
2784.00,1.7791
2783.00,1.7773
2782.00,1.7763
2781.00,1.7759
2780.00,1.7760
2779.00,1.7761
2778.00,1.7757
2777.00,1.7748
2776.00,1.7738
2775.00,1.7729
2774.00,1.7717
2773.00,1.7699
2772.00,1.7682
2771.00,1.7676
2770.00,1.7681
2769.00,1.7689
2768.00,1.7688
2767.00,1.7677
2766.00,1.7664
2765.00,1.7655
2764.00,1.7647
2763.00,1.7637
2762.00,1.7623
2761.00,1.7611
2760.00,1.7604
2759.00,1.7600
2758.00,1.7597
2757.00,1.7599
2756.00,1.7603
2755.00,1.7607
2754.00,1.7604
2753.00,1.7593
2752.00,1.7580
2751.00,1.7570
2750.00,1.7566
2749.00,1.7567
2748.00,1.7570
2747.00,1.7573
2746.00,1.7576
2745.00,1.7578
2744.00,1.7578
2743.00,1.7577
2742.00,1.7577
2741.00,1.7579
2740.00,1.7579
2739.00,1.7573
2738.00,1.7566
2737.00,1.7564
2736.00,1.7572
2735.00,1.7587
2734.00,1.7601
2733.00,1.7609
2732.00,1.7608
2731.00,1.7603
2730.00,1.7600
2729.00,1.7604
2728.00,1.7619
2727.00,1.7637
2726.00,1.7654
2725.00,1.7668
2724.00,1.7680
2723.00,1.7687
2722.00,1.7683
2721.00,1.7670
2720.00,1.7658
2719.00,1.7661
2718.00,1.7680
2717.00,1.7701
2716.00,1.7708
2715.00,1.7699
2714.00,1.7681
2713.00,1.7665
2712.00,1.7658
2711.00,1.7658
2710.00,1.7661
2709.00,1.7664
2708.00,1.7669
2707.00,1.7679
2706.00,1.7692
2705.00,1.7702
2704.00,1.7708
2703.00,1.7710
2702.00,1.7709
2701.00,1.7705
2700.00,1.7700
2699.00,1.7696
2698.00,1.7698
2697.00,1.7703
2696.00,1.7706
2695.00,1.7705
2694.00,1.7700
2693.00,1.7697
2692.00,1.7697
2691.00,1.7698
2690.00,1.7702
2689.00,1.7709
2688.00,1.7723
2687.00,1.7740
2686.00,1.7749
2685.00,1.7743
2684.00,1.7728
2683.00,1.7714
2682.00,1.7710
2681.00,1.7716
2680.00,1.7725
2679.00,1.7730
2678.00,1.7727
2677.00,1.7718
2676.00,1.7708
2675.00,1.7704
2674.00,1.7711
2673.00,1.7726
2672.00,1.7742
2671.00,1.7751
2670.00,1.7751
2669.00,1.7747
2668.00,1.7743
2667.00,1.7740
2666.00,1.7734
2665.00,1.7725
2664.00,1.7718
2663.00,1.7717
2662.00,1.7720
2661.00,1.7722
2660.00,1.7723
2659.00,1.7729
2658.00,1.7739
2657.00,1.7749
2656.00,1.7756
2655.00,1.7763
2654.00,1.7775
2653.00,1.7788
2652.00,1.7794
2651.00,1.7792
2650.00,1.7787
2649.00,1.7784
2648.00,1.7784
2647.00,1.7786
2646.00,1.7790
2645.00,1.7799
2644.00,1.7813
2643.00,1.7829
2642.00,1.7841
2641.00,1.7846
2640.00,1.7848
2639.00,1.7848
2638.00,1.7847
2637.00,1.7845
2636.00,1.7838
2635.00,1.7831
2634.00,1.7825
2633.00,1.7822
2632.00,1.7826
2631.00,1.7837
2630.00,1.7855
2629.00,1.7873
2628.00,1.7883
2627.00,1.7886
2626.00,1.7887
2625.00,1.7891
2624.00,1.7895
2623.00,1.7894
2622.00,1.7890
2621.00,1.7891
2620.00,1.7898
2619.00,1.7909
2618.00,1.7918
2617.00,1.7927
2616.00,1.7940
2615.00,1.7961
2614.00,1.7982
2613.00,1.7994
2612.00,1.7995
2611.00,1.7989
2610.00,1.7983
2609.00,1.7985
2608.00,1.7994
2607.00,1.8006
2606.00,1.8014
2605.00,1.8016
2604.00,1.8016
2603.00,1.8019
2602.00,1.8026
2601.00,1.8035
2600.00,1.8046
2599.00,1.8060
2598.00,1.8079
2597.00,1.8098
2596.00,1.8110
2595.00,1.8114
2594.00,1.8114
2593.00,1.8117
2592.00,1.8122
2591.00,1.8124
2590.00,1.8120
2589.00,1.8116
2588.00,1.8121
2587.00,1.8133
2586.00,1.8145
2585.00,1.8150
2584.00,1.8153
2583.00,1.8165
2582.00,1.8186
2581.00,1.8207
2580.00,1.8221
2579.00,1.8228
2578.00,1.8234
2577.00,1.8243
2576.00,1.8248
2575.00,1.8246
2574.00,1.8239
2573.00,1.8237
2572.00,1.8246
2571.00,1.8265
2570.00,1.8285
2569.00,1.8302
2568.00,1.8317
2567.00,1.8334
2566.00,1.8354
2565.00,1.8372
2564.00,1.8384
2563.00,1.8389
2562.00,1.8389
2561.00,1.8390
2560.00,1.8395
2559.00,1.8402
2558.00,1.8410
2557.00,1.8419
2556.00,1.8438
2555.00,1.8465
2554.00,1.8491
2553.00,1.8509
2552.00,1.8522
2551.00,1.8539
2550.00,1.8556
2549.00,1.8567
2548.00,1.8568
2547.00,1.8567
2546.00,1.8573
2545.00,1.8583
2544.00,1.8593
2543.00,1.8600
2542.00,1.8608
2541.00,1.8618
2540.00,1.8629
2539.00,1.8641
2538.00,1.8653
2537.00,1.8660
2536.00,1.8659
2535.00,1.8652
2534.00,1.8644
2533.00,1.8642
2532.00,1.8648
2531.00,1.8658
2530.00,1.8666
2529.00,1.8666
2528.00,1.8659
2527.00,1.8648
2526.00,1.8640
2525.00,1.8634
2524.00,1.8629
2523.00,1.8622
2522.00,1.8612
2521.00,1.8599
2520.00,1.8588
2519.00,1.8582
2518.00,1.8580
2517.00,1.8577
2516.00,1.8565
2515.00,1.8543
2514.00,1.8516
2513.00,1.8488
2512.00,1.8458
2511.00,1.8420
2510.00,1.8365
2509.00,1.8292
2508.00,1.8209
2507.00,1.8124
2506.00,1.8046
2505.00,1.7975
2504.00,1.7910
2503.00,1.7850
2502.00,1.7792
2501.00,1.7735
2500.00,1.7677
2499.00,1.7623
2498.00,1.7574
2497.00,1.7533
2496.00,1.7499
2495.00,1.7469
2494.00,1.7439
2493.00,1.7409
2492.00,1.7381
2491.00,1.7360
2490.00,1.7344
2489.00,1.7329
2488.00,1.7316
2487.00,1.7304
2486.00,1.7294
2485.00,1.7287
2484.00,1.7278
2483.00,1.7266
2482.00,1.7250
2481.00,1.7234
2480.00,1.7222
2479.00,1.7214
2478.00,1.7211
2477.00,1.7207
2476.00,1.7199
2475.00,1.7187
2474.00,1.7174
2473.00,1.7164
2472.00,1.7157
2471.00,1.7150
2470.00,1.7139
2469.00,1.7126
2468.00,1.7118
2467.00,1.7117
2466.00,1.7121
2465.00,1.7123
2464.00,1.7119
2463.00,1.7107
2462.00,1.7089
2461.00,1.7071
2460.00,1.7055
2459.00,1.7040
2458.00,1.7023
2457.00,1.7003
2456.00,1.6984
2455.00,1.6968
2454.00,1.6955
2453.00,1.6944
2452.00,1.6934
2451.00,1.6926
2450.00,1.6918
2449.00,1.6912
2448.00,1.6908
2447.00,1.6903
2446.00,1.6894
2445.00,1.6880
2444.00,1.6869
2443.00,1.6865
2442.00,1.6866
2441.00,1.6865
2440.00,1.6858
2439.00,1.6847
2438.00,1.6838
2437.00,1.6835
2436.00,1.6835
2435.00,1.6837
2434.00,1.6839
2433.00,1.6845
2432.00,1.6855
2431.00,1.6871
2430.00,1.6886
2429.00,1.6898
2428.00,1.6904
2427.00,1.6908
2426.00,1.6915
2425.00,1.6927
2424.00,1.6942
2423.00,1.6958
2422.00,1.6974
2421.00,1.6992
2420.00,1.7017
2419.00,1.7047
2418.00,1.7077
2417.00,1.7103
2416.00,1.7130
2415.00,1.7161
2414.00,1.7192
2413.00,1.7218
2412.00,1.7239
2411.00,1.7259
2410.00,1.7279
2409.00,1.7294
2408.00,1.7305
2407.00,1.7315
2406.00,1.7331
2405.00,1.7348
2404.00,1.7362
2403.00,1.7370
2402.00,1.7376
2401.00,1.7383
2400.00,1.7393
2399.00,1.7404
2398.00,1.7413
2397.00,1.7415
2396.00,1.7411
2395.00,1.7406
2394.00,1.7407
2393.00,1.7412
2392.00,1.7419
2391.00,1.7424
2390.00,1.7426
2389.00,1.7425
2388.00,1.7424
2387.00,1.7428
2386.00,1.7437
2385.00,1.7449
2384.00,1.7462
2383.00,1.7472
2382.00,1.7480
2381.00,1.7483
2380.00,1.7481
2379.00,1.7470
2378.00,1.7454
2377.00,1.7442
2376.00,1.7442
2375.00,1.7452
2374.00,1.7466
2373.00,1.7480
2372.00,1.7499
2371.00,1.7528
2370.00,1.7564
2369.00,1.7600
2368.00,1.7635
2367.00,1.7669
2366.00,1.7701
2365.00,1.7729
2364.00,1.7754
2363.00,1.7772
2362.00,1.7779
2361.00,1.7773
2360.00,1.7769
2359.00,1.7776
2358.00,1.7786
2357.00,1.7784
2356.00,1.7769
2355.00,1.7763
2354.00,1.7790
2353.00,1.7855
2352.00,1.7937
2351.00,1.7991
2350.00,1.7985
2349.00,1.7916
2348.00,1.7820
2347.00,1.7752
2346.00,1.7749
2345.00,1.7805
2344.00,1.7880
2343.00,1.7947
2342.00,1.8003
2341.00,1.8057
2340.00,1.8117
2339.00,1.8180
2338.00,1.8233
2337.00,1.8264
2336.00,1.8267
2335.00,1.8254
2334.00,1.8234
2333.00,1.8217
2332.00,1.8203
2331.00,1.8189
2330.00,1.8173
2329.00,1.8150
2328.00,1.8118
2327.00,1.8081
2326.00,1.8047
2325.00,1.8023
2324.00,1.8008
2323.00,1.7993
2322.00,1.7969
2321.00,1.7934
2320.00,1.7898
2319.00,1.7872
2318.00,1.7858
2317.00,1.7850
2316.00,1.7842
2315.00,1.7827
2314.00,1.7805
2313.00,1.7775
2312.00,1.7739
2311.00,1.7702
2310.00,1.7670
2309.00,1.7644
2308.00,1.7618
2307.00,1.7588
2306.00,1.7553
2305.00,1.7520
2304.00,1.7490
2303.00,1.7465
2302.00,1.7439
2301.00,1.7411
2300.00,1.7381
2299.00,1.7348
2298.00,1.7312
2297.00,1.7272
2296.00,1.7231
2295.00,1.7197
2294.00,1.7172
2293.00,1.7154
2292.00,1.7138
2291.00,1.7123
2290.00,1.7111
2289.00,1.7099
2288.00,1.7082
2287.00,1.7058
2286.00,1.7031
2285.00,1.7010
2284.00,1.6998
2283.00,1.6993
2282.00,1.6989
2281.00,1.6983
2280.00,1.6979
2279.00,1.6977
2278.00,1.6976
2277.00,1.6972
2276.00,1.6966
2275.00,1.6957
2274.00,1.6947
2273.00,1.6932
2272.00,1.6916
2271.00,1.6903
2270.00,1.6897
2269.00,1.6892
2268.00,1.6882
2267.00,1.6865
2266.00,1.6840
2265.00,1.6813
2264.00,1.6788
2263.00,1.6767
2262.00,1.6753
2261.00,1.6745
2260.00,1.6739
2259.00,1.6733
2258.00,1.6722
2257.00,1.6705
2256.00,1.6686
2255.00,1.6665
2254.00,1.6645
2253.00,1.6626
2252.00,1.6609
2251.00,1.6590
2250.00,1.6566
2249.00,1.6537
2248.00,1.6504
2247.00,1.6470
2246.00,1.6434
2245.00,1.6397
2244.00,1.6361
2243.00,1.6328
2242.00,1.6299
2241.00,1.6269
2240.00,1.6238
2239.00,1.6208
2238.00,1.6181
2237.00,1.6158
2236.00,1.6137
2235.00,1.6118
2234.00,1.6101
2233.00,1.6087
2232.00,1.6074
2231.00,1.6058
2230.00,1.6036
2229.00,1.6011
2228.00,1.5987
2227.00,1.5973
2226.00,1.5967
2225.00,1.5962
2224.00,1.5956
2223.00,1.5948
2222.00,1.5940
2221.00,1.5932
2220.00,1.5923
2219.00,1.5913
2218.00,1.5903
2217.00,1.5891
2216.00,1.5874
2215.00,1.5853
2214.00,1.5831
2213.00,1.5811
2212.00,1.5793
2211.00,1.5775
2210.00,1.5756
2209.00,1.5738
2208.00,1.5718
2207.00,1.5698
2206.00,1.5675
2205.00,1.5652
2204.00,1.5633
2203.00,1.5619
2202.00,1.5608
2201.00,1.5594
2200.00,1.5578
2199.00,1.5560
2198.00,1.5544
2197.00,1.5529
2196.00,1.5518
2195.00,1.5511
2194.00,1.5508
2193.00,1.5509
2192.00,1.5512
2191.00,1.5516
2190.00,1.5518
2189.00,1.5517
2188.00,1.5515
2187.00,1.5517
2186.00,1.5520
2185.00,1.5522
2184.00,1.5519
2183.00,1.5515
2182.00,1.5515
2181.00,1.5522
2180.00,1.5533
2179.00,1.5547
2178.00,1.5560
2177.00,1.5571
2176.00,1.5576
2175.00,1.5579
2174.00,1.5581
2173.00,1.5583
2172.00,1.5584
2171.00,1.5585
2170.00,1.5588
2169.00,1.5594
2168.00,1.5601
2167.00,1.5607
2166.00,1.5611
2165.00,1.5610
2164.00,1.5602
2163.00,1.5592
2162.00,1.5584
2161.00,1.5580
2160.00,1.5582
2159.00,1.5585
2158.00,1.5586
2157.00,1.5581
2156.00,1.5568
2155.00,1.5550
2154.00,1.5531
2153.00,1.5515
2152.00,1.5501
2151.00,1.5489
2150.00,1.5479
2149.00,1.5468
2148.00,1.5454
2147.00,1.5439
2146.00,1.5424
2145.00,1.5411
2144.00,1.5399
2143.00,1.5388
2142.00,1.5377
2141.00,1.5367
2140.00,1.5358
2139.00,1.5351
2138.00,1.5342
2137.00,1.5331
2136.00,1.5319
2135.00,1.5308
2134.00,1.5300
2133.00,1.5296
2132.00,1.5295
2131.00,1.5294
2130.00,1.5287
2129.00,1.5273
2128.00,1.5255
2127.00,1.5237
2126.00,1.5219
2125.00,1.5201
2124.00,1.5183
2123.00,1.5165
2122.00,1.5150
2121.00,1.5137
2120.00,1.5125
2119.00,1.5113
2118.00,1.5099
2117.00,1.5084
2116.00,1.5066
2115.00,1.5047
2114.00,1.5025
2113.00,1.5004
2112.00,1.4984
2111.00,1.4964
2110.00,1.4946
2109.00,1.4930
2108.00,1.4917
2107.00,1.4907
2106.00,1.4896
2105.00,1.4883
2104.00,1.4864
2103.00,1.4840
2102.00,1.4816
2101.00,1.4793
2100.00,1.4771
2099.00,1.4751
2098.00,1.4734
2097.00,1.4721
2096.00,1.4708
2095.00,1.4692
2094.00,1.4674
2093.00,1.4659
2092.00,1.4649
2091.00,1.4644
2090.00,1.4639
2089.00,1.4631
2088.00,1.4621
2087.00,1.4606
2086.00,1.4590
2085.00,1.4578
2084.00,1.4571
2083.00,1.4568
2082.00,1.4567
2081.00,1.4565
2080.00,1.4563
2079.00,1.4560
2078.00,1.4556
2077.00,1.4552
2076.00,1.4547
2075.00,1.4545
2074.00,1.4542
2073.00,1.4537
2072.00,1.4530
2071.00,1.4525
2070.00,1.4524
2069.00,1.4526
2068.00,1.4527
2067.00,1.4528
2066.00,1.4529
2065.00,1.4533
2064.00,1.4538
2063.00,1.4541
2062.00,1.4540
2061.00,1.4537
2060.00,1.4533
2059.00,1.4527
2058.00,1.4520
2057.00,1.4512
2056.00,1.4501
2055.00,1.4490
2054.00,1.4478
2053.00,1.4462
2052.00,1.4444
2051.00,1.4427
2050.00,1.4413
2049.00,1.4403
2048.00,1.4394
2047.00,1.4380
2046.00,1.4362
2045.00,1.4340
2044.00,1.4317
2043.00,1.4297
2042.00,1.4281
2041.00,1.4272
2040.00,1.4266
2039.00,1.4259
2038.00,1.4249
2037.00,1.4236
2036.00,1.4222
2035.00,1.4210
2034.00,1.4203
2033.00,1.4198
2032.00,1.4195
2031.00,1.4193
2030.00,1.4191
2029.00,1.4188
2028.00,1.4184
2027.00,1.4181
2026.00,1.4182
2025.00,1.4186
2024.00,1.4192
2023.00,1.4196
2022.00,1.4197
2021.00,1.4201
2020.00,1.4209
2019.00,1.4222
2018.00,1.4234
2017.00,1.4244
2016.00,1.4250
2015.00,1.4253
2014.00,1.4256
2013.00,1.4258
2012.00,1.4260
2011.00,1.4264
2010.00,1.4274
2009.00,1.4288
2008.00,1.4301
2007.00,1.4311
2006.00,1.4316
2005.00,1.4317
2004.00,1.4317
2003.00,1.4315
2002.00,1.4314
2001.00,1.4316
2000.00,1.4320
1999.00,1.4325
1998.00,1.4329
1997.00,1.4331
1996.00,1.4333
1995.00,1.4337
1994.00,1.4340
1993.00,1.4344
1992.00,1.4346
1991.00,1.4347
1990.00,1.4350
1989.00,1.4358
1988.00,1.4368
1987.00,1.4378
1986.00,1.4384
1985.00,1.4389
1984.00,1.4397
1983.00,1.4408
1982.00,1.4423
1981.00,1.4438
1980.00,1.4454
1979.00,1.4469
1978.00,1.4483
1977.00,1.4497
1976.00,1.4511
1975.00,1.4526
1974.00,1.4542
1973.00,1.4553
1972.00,1.4559
1971.00,1.4563
1970.00,1.4568
1969.00,1.4576
1968.00,1.4584
1967.00,1.4589
1966.00,1.4586
1965.00,1.4577
1964.00,1.4565
1963.00,1.4554
1962.00,1.4546
1961.00,1.4539
1960.00,1.4529
1959.00,1.4516
1958.00,1.4499
1957.00,1.4479
1956.00,1.4457
1955.00,1.4436
1954.00,1.4416
1953.00,1.4398
1952.00,1.4379
1951.00,1.4361
1950.00,1.4345
1949.00,1.4330
1948.00,1.4315
1947.00,1.4297
1946.00,1.4279
1945.00,1.4263
1944.00,1.4249
1943.00,1.4235
1942.00,1.4221
1941.00,1.4207
1940.00,1.4193
1939.00,1.4179
1938.00,1.4164
1937.00,1.4147
1936.00,1.4130
1935.00,1.4117
1934.00,1.4107
1933.00,1.4098
1932.00,1.4088
1931.00,1.4075
1930.00,1.4063
1929.00,1.4051
1928.00,1.4038
1927.00,1.4022
1926.00,1.4004
1925.00,1.3984
1924.00,1.3964
1923.00,1.3947
1922.00,1.3934
1921.00,1.3923
1920.00,1.3910
1919.00,1.3892
1918.00,1.3875
1917.00,1.3861
1916.00,1.3851
1915.00,1.3836
1914.00,1.3815
1913.00,1.3787
1912.00,1.3757
1911.00,1.3726
1910.00,1.3698
1909.00,1.3675
1908.00,1.3659
1907.00,1.3643
1906.00,1.3622
1905.00,1.3593
1904.00,1.3562
1903.00,1.3534
1902.00,1.3511
1901.00,1.3492
1900.00,1.3475
1899.00,1.3459
1898.00,1.3442
1897.00,1.3425
1896.00,1.3408
1895.00,1.3392
1894.00,1.3378
1893.00,1.3366
1892.00,1.3353
1891.00,1.3337
1890.00,1.3321
1889.00,1.3308
1888.00,1.3298
1887.00,1.3288
1886.00,1.3276
1885.00,1.3262
1884.00,1.3246
1883.00,1.3231
1882.00,1.3218
1881.00,1.3208
1880.00,1.3198
1879.00,1.3187
1878.00,1.3178
1877.00,1.3169
1876.00,1.3161
1875.00,1.3151
1874.00,1.3141
1873.00,1.3132
1872.00,1.3124
1871.00,1.3115
1870.00,1.3106
1869.00,1.3097
1868.00,1.3089
1867.00,1.3080
1866.00,1.3067
1865.00,1.3049
1864.00,1.3028
1863.00,1.3004
1862.00,1.2980
1861.00,1.2959
1860.00,1.2941
1859.00,1.2922
1858.00,1.2899
1857.00,1.2876
1856.00,1.2853
1855.00,1.2832
1854.00,1.2811
1853.00,1.2792
1852.00,1.2775
1851.00,1.2758
1850.00,1.2739
1849.00,1.2715
1848.00,1.2692
1847.00,1.2675
1846.00,1.2666
1845.00,1.2660
1844.00,1.2653
1843.00,1.2644
1842.00,1.2632
1841.00,1.2617
1840.00,1.2597
1839.00,1.2576
1838.00,1.2558
1837.00,1.2544
1836.00,1.2534
1835.00,1.2526
1834.00,1.2517
1833.00,1.2510
1832.00,1.2505
1831.00,1.2501
1830.00,1.2498
1829.00,1.2495
1828.00,1.2494
1827.00,1.2492
1826.00,1.2491
1825.00,1.2490
1824.00,1.2490
1823.00,1.2492
1822.00,1.2492
1821.00,1.2493
1820.00,1.2497
1819.00,1.2504
1818.00,1.2512
1817.00,1.2520
1816.00,1.2525
1815.00,1.2528
1814.00,1.2529
1813.00,1.2530
1812.00,1.2530
1811.00,1.2530
1810.00,1.2527
1809.00,1.2521
1808.00,1.2511
1807.00,1.2500
1806.00,1.2490
1805.00,1.2481
1804.00,1.2472
1803.00,1.2463
1802.00,1.2454
1801.00,1.2445
1800.00,1.2436
1799.00,1.2424
1798.00,1.2411
1797.00,1.2400
1796.00,1.2391
1795.00,1.2384
1794.00,1.2378
1793.00,1.2375
1792.00,1.2375
1791.00,1.2375
1790.00,1.2371
1789.00,1.2362
1788.00,1.2351
1787.00,1.2338
1786.00,1.2327
1785.00,1.2316
1784.00,1.2304
1783.00,1.2291
1782.00,1.2277
1781.00,1.2263
1780.00,1.2251
1779.00,1.2241
1778.00,1.2235
1777.00,1.2229
1776.00,1.2224
1775.00,1.2219
1774.00,1.2215
1773.00,1.2212
1772.00,1.2212
1771.00,1.2213
1770.00,1.2209
1769.00,1.2198
1768.00,1.2185
1767.00,1.2172
1766.00,1.2161
1765.00,1.2153
1764.00,1.2152
1763.00,1.2158
1762.00,1.2171
1761.00,1.2188
1760.00,1.2205
1759.00,1.2221
1758.00,1.2240
1757.00,1.2263
1756.00,1.2289
1755.00,1.2317
1754.00,1.2344
1753.00,1.2370
1752.00,1.2399
1751.00,1.2430
1750.00,1.2461
1749.00,1.2487
1748.00,1.2506
1747.00,1.2521
1746.00,1.2534
1745.00,1.2545
1744.00,1.2554
1743.00,1.2559
1742.00,1.2561
1741.00,1.2563
1740.00,1.2568
1739.00,1.2574
1738.00,1.2577
1737.00,1.2574
1736.00,1.2571
1735.00,1.2569
1734.00,1.2573
1733.00,1.2585
1732.00,1.2595
1731.00,1.2595
1730.00,1.2585
1729.00,1.2571
1728.00,1.2554
1727.00,1.2535
1726.00,1.2514
1725.00,1.2494
1724.00,1.2478
1723.00,1.2463
1722.00,1.2450
1721.00,1.2438
1720.00,1.2423
1719.00,1.2403
1718.00,1.2385
1717.00,1.2379
1716.00,1.2383
1715.00,1.2381
1714.00,1.2367
1713.00,1.2347
1712.00,1.2327
1711.00,1.2309
1710.00,1.2295
1709.00,1.2286
1708.00,1.2284
1707.00,1.2283
1706.00,1.2284
1705.00,1.2288
1704.00,1.2294
1703.00,1.2300
1702.00,1.2311
1701.00,1.2325
1700.00,1.2334
1699.00,1.2336
1698.00,1.2333
1697.00,1.2331
1696.00,1.2337
1695.00,1.2352
1694.00,1.2369
1693.00,1.2382
1692.00,1.2385
1691.00,1.2380
1690.00,1.2377
1689.00,1.2377
1688.00,1.2378
1687.00,1.2378
1686.00,1.2388
1685.00,1.2416
1684.00,1.2461
1683.00,1.2506
1682.00,1.2532
1681.00,1.2538
1680.00,1.2537
1679.00,1.2541
1678.00,1.2553
1677.00,1.2575
1676.00,1.2603
1675.00,1.2631
1674.00,1.2653
1673.00,1.2665
1672.00,1.2669
1671.00,1.2676
1670.00,1.2696
1669.00,1.2731
1668.00,1.2767
1667.00,1.2792
1666.00,1.2807
1665.00,1.2822
1664.00,1.2847
1663.00,1.2882
1662.00,1.2923
1661.00,1.2960
1660.00,1.2989
1659.00,1.3013
1658.00,1.3036
1657.00,1.3058
1656.00,1.3079
1655.00,1.3106
1654.00,1.3154
1653.00,1.3237
1652.00,1.3330
1651.00,1.3394
1650.00,1.3425
1649.00,1.3438
1648.00,1.3452
1647.00,1.3484
1646.00,1.3539
1645.00,1.3600
1644.00,1.3652
1643.00,1.3690
1642.00,1.3719
1641.00,1.3748
1640.00,1.3778
1639.00,1.3803
1638.00,1.3829
1637.00,1.3872
1636.00,1.3944
1635.00,1.4033
1634.00,1.4106
1633.00,1.4150
1632.00,1.4174
1631.00,1.4193
1630.00,1.4219
1629.00,1.4256
1628.00,1.4303
1627.00,1.4353
1626.00,1.4401
1625.00,1.4445
1624.00,1.4487
1623.00,1.4532
1622.00,1.4581
1621.00,1.4627
1620.00,1.4665
1619.00,1.4701
1618.00,1.4754
1617.00,1.4847
1616.00,1.4974
1615.00,1.5104
1614.00,1.5211
1613.00,1.5303
1612.00,1.5397
1611.00,1.5510
1610.00,1.5646
1609.00,1.5802
1608.00,1.5967
1607.00,1.6131
1606.00,1.6290
1605.00,1.6444
1604.00,1.6595
1603.00,1.6741
1602.00,1.6886
1601.00,1.7036
1600.00,1.7194
1599.00,1.7351
1598.00,1.7503
1597.00,1.7655
1596.00,1.7813
1595.00,1.7976
1594.00,1.8141
1593.00,1.8315
1592.00,1.8498
1591.00,1.8683
1590.00,1.8866
1589.00,1.9048
1588.00,1.9229
1587.00,1.9409
1586.00,1.9591
1585.00,1.9779
1584.00,1.9965
1583.00,2.0134
1582.00,2.0291
1581.00,2.0455
1580.00,2.0631
1579.00,2.0807
1578.00,2.0983
1577.00,2.1193
1576.00,2.1463
1575.00,2.1752
1574.00,2.1996
1573.00,2.2186
1572.00,2.2365
1571.00,2.2582
1570.00,2.2864
1569.00,2.3179
1568.00,2.3448
1567.00,2.3636
1566.00,2.3807
1565.00,2.4049
1564.00,2.4356
1563.00,2.4635
1562.00,2.4839
1561.00,2.5047
1560.00,2.5362
1559.00,2.5764
1558.00,2.6103
1557.00,2.6314
1556.00,2.6493
1555.00,2.6699
1554.00,2.6935
1553.00,2.7176
1552.00,2.7392
1551.00,2.7576
1550.00,2.7789
1549.00,2.8080
1548.00,2.8375
1547.00,2.8539
1546.00,2.8578
1545.00,2.8649
1544.00,2.8858
1543.00,2.9174
1542.00,2.9546
1541.00,3.0016
1540.00,3.0546
1539.00,3.0867
1538.00,3.0902
1537.00,3.0933
1536.00,3.1093
1535.00,3.1232
1534.00,3.1272
1533.00,3.1447
1532.00,3.1941
1531.00,3.2580
1530.00,3.3069
1529.00,3.3321
1528.00,3.3373
1527.00,3.3258
1526.00,3.3149
1525.00,3.3205
1524.00,3.3258
1523.00,3.2996
1522.00,3.2585
1521.00,3.2573
1520.00,3.3121
1519.00,3.3711
1518.00,3.3713
1517.00,3.3295
1516.00,3.2979
1515.00,3.2912
1514.00,3.2998
1513.00,3.3211
1512.00,3.3538
1511.00,3.3792
1510.00,3.3796
1509.00,3.3678
1508.00,3.3542
1507.00,3.3296
1506.00,3.3086
1505.00,3.3167
1504.00,3.3502
1503.00,3.3858
1502.00,3.4116
1501.00,3.4320
1500.00,3.4649
1499.00,3.5370
1498.00,3.7042
1497.00,4.0583
1496.00,4.1717
1495.00,3.8284
1494.00,3.6035
1493.00,3.4687
1492.00,3.4197
1491.00,3.4254
1490.00,3.4476
1489.00,3.4863
1488.00,3.5384
1487.00,3.5862
1486.00,3.6106
1485.00,3.6112
1484.00,3.5927
1483.00,3.5595
1482.00,3.5337
1481.00,3.5486
1480.00,3.6100
1479.00,3.6808
1478.00,3.7165
1477.00,3.7019
1476.00,3.6413
1475.00,3.5628
1474.00,3.4995
1473.00,3.4661
1472.00,3.4504
1471.00,3.4417
1470.00,3.4597
1469.00,3.5198
1468.00,3.5979
1467.00,3.6327
1466.00,3.6057
1465.00,3.5746
1464.00,3.5701
1463.00,3.5688
1462.00,3.5573
1461.00,3.5583
1460.00,3.5779
1459.00,3.5915
1458.00,3.5764
1457.00,3.5457
1456.00,3.5429
1455.00,3.5838
1454.00,3.6473
1453.00,3.7040
1452.00,3.7253
1451.00,3.7001
1450.00,3.6354
1449.00,3.5405
1448.00,3.4440
1447.00,3.3796
1446.00,3.3650
1445.00,3.4048
1444.00,3.4918
1443.00,3.5926
1442.00,3.6475
1441.00,3.6327
1440.00,3.6038
1439.00,3.6138
1438.00,3.6817
1437.00,3.7426
1436.00,3.6794
1435.00,3.5816
1434.00,3.5285
1433.00,3.5012
1432.00,3.4883
1431.00,3.5050
1430.00,3.5535
1429.00,3.5968
1428.00,3.5892
1427.00,3.5324
1426.00,3.4790
1425.00,3.4708
1424.00,3.5092
1423.00,3.5508
1422.00,3.5581
1421.00,3.5644
1420.00,3.6021
1419.00,3.6419
1418.00,3.6307
1417.00,3.5793
1416.00,3.5490
1415.00,3.5645
1414.00,3.6116
1413.00,3.6702
1412.00,3.7424
1411.00,3.8179
1410.00,3.8584
1409.00,3.8670
1408.00,3.9651
1407.00,4.3647
1406.00,4.4546
1405.00,4.1070
1404.00,4.1805
1403.00,4.2594
1402.00,4.0923
1401.00,4.0986
1400.00,4.1740
1399.00,4.0353
1398.00,3.7766
1397.00,3.5862
1396.00,3.4944
1395.00,3.4920
1394.00,3.5563
1393.00,3.6301
1392.00,3.6858
1391.00,3.7635
1390.00,3.8761
1389.00,4.0052
1388.00,4.0787
1387.00,3.9659
1386.00,3.8143
1385.00,3.7275
1384.00,3.6723
1383.00,3.6344
1382.00,3.6418
1381.00,3.7040
1380.00,3.7599
1379.00,3.7199
1378.00,3.6275
1377.00,3.5750
1376.00,3.5772
1375.00,3.5894
1374.00,3.5673
1373.00,3.5287
1372.00,3.5166
1371.00,3.5261
1370.00,3.5209
1369.00,3.5160
1368.00,3.5564
1367.00,3.6504
1366.00,3.7465
1365.00,3.7377
1364.00,3.6302
1363.00,3.5257
1362.00,3.4694
1361.00,3.4684
1360.00,3.5087
1359.00,3.5554
1358.00,3.5662
1357.00,3.5229
1356.00,3.4454
1355.00,3.3678
1354.00,3.3133
1353.00,3.2831
1352.00,3.2544
1351.00,3.2118
1350.00,3.1739
1349.00,3.1611
1348.00,3.1650
1347.00,3.1597
1346.00,3.1417
1345.00,3.1262
1344.00,3.1174
1343.00,3.1155
1342.00,3.1190
1341.00,3.1157
1340.00,3.0952
1339.00,3.0686
1338.00,3.0559
1337.00,3.0601
1336.00,3.0666
1335.00,3.0636
1334.00,3.0526
1333.00,3.0391
1332.00,3.0237
1331.00,3.0034
1330.00,2.9848
1329.00,2.9827
1328.00,3.0034
1327.00,3.0376
1326.00,3.0675
1325.00,3.0839
1324.00,3.0966
1323.00,3.1240
1322.00,3.1752
1321.00,3.2378
1320.00,3.2835
1319.00,3.3023
1318.00,3.3185
1317.00,3.3560
1316.00,3.4111
1315.00,3.4649
1314.00,3.5112
1313.00,3.5532
1312.00,3.5643
1311.00,3.5122
1310.00,3.4335
1309.00,3.3772
1308.00,3.3443
1307.00,3.3140
1306.00,3.2868
1305.00,3.2831
1304.00,3.3124
1303.00,3.3654
1302.00,3.4306
1301.00,3.4954
1300.00,3.5211
1299.00,3.4682
1298.00,3.3797
1297.00,3.3245
1296.00,3.3220
1295.00,3.3561
1294.00,3.4003
1293.00,3.4332
1292.00,3.4355
1291.00,3.4009
1290.00,3.3628
1289.00,3.3536
1288.00,3.3598
1287.00,3.3571
1286.00,3.3590
1285.00,3.3835
1284.00,3.4144
1283.00,3.4125
1282.00,3.3697
1281.00,3.3303
1280.00,3.3299
1279.00,3.3563
1278.00,3.3770
1277.00,3.3865
1276.00,3.4110
1275.00,3.4651
1274.00,3.5234
1273.00,3.5628
1272.00,3.6030
1271.00,3.6483
1270.00,3.6461
1269.00,3.5892
1268.00,3.5634
1267.00,3.6102
1266.00,3.6300
1265.00,3.5554
1264.00,3.4910
1263.00,3.4657
1262.00,3.4992
1261.00,3.5966
1260.00,3.6941
1259.00,3.7488
1258.00,3.9850
1257.00,4.3933
1256.00,3.9627
1255.00,3.8228
1254.00,3.7169
1253.00,3.5576
1252.00,3.4890
1251.00,3.4883
1250.00,3.5154
1249.00,3.5433
1248.00,3.5614
1247.00,3.5545
1246.00,3.5347
1245.00,3.5298
1244.00,3.5696
1243.00,3.6505
1242.00,3.6626
1241.00,3.5648
1240.00,3.5006
1239.00,3.5392
1238.00,3.5955
1237.00,3.5644
1236.00,3.5744
1235.00,3.7186
1234.00,3.9213
1233.00,3.8865
1232.00,3.7457
1231.00,3.6899
1230.00,3.7429
1229.00,3.9871
1228.00,4.4564
1227.00,4.1210
1226.00,3.6900
1225.00,3.5037
1224.00,3.4595
1223.00,3.4453
1222.00,3.3894
1221.00,3.3335
1220.00,3.3175
1219.00,3.3221
1218.00,3.3147
1217.00,3.3145
1216.00,3.3550
1215.00,3.4325
1214.00,3.5327
1213.00,3.5683
1212.00,3.4210
1211.00,3.2690
1210.00,3.2033
1209.00,3.2136
1208.00,3.2987
1207.00,3.4621
1206.00,3.6789
1205.00,3.8336
1204.00,3.7011
1203.00,3.4812
1202.00,3.3673
1201.00,3.3351
1200.00,3.3405
1199.00,3.3640
1198.00,3.4075
1197.00,3.4602
1196.00,3.4755
1195.00,3.4400
1194.00,3.4182
1193.00,3.4755
1192.00,3.6302
1191.00,3.8113
1190.00,3.8307
1189.00,3.7102
1188.00,3.6275
1187.00,3.5988
1186.00,3.5727
1185.00,3.5569
1184.00,3.5772
1183.00,3.6159
1182.00,3.6227
1181.00,3.5581
1180.00,3.4544
1179.00,3.3904
1178.00,3.4158
1177.00,3.5216
1176.00,3.5944
1175.00,3.4914
1174.00,3.2980
1173.00,3.1448
1172.00,3.0734
1171.00,3.0908
1170.00,3.2080
1169.00,3.4285
1168.00,3.6157
1167.00,3.5849
1166.00,3.4332
1165.00,3.2838
1164.00,3.2201
1163.00,3.2308
1162.00,3.2655
1161.00,3.2842
1160.00,3.2851
1159.00,3.2886
1158.00,3.2981
1157.00,3.3136
1156.00,3.3413
1155.00,3.3823
1154.00,3.4247
1153.00,3.4551
1152.00,3.4770
1151.00,3.4918
1150.00,3.4994
1149.00,3.5169
1148.00,3.5404
1147.00,3.5399
1146.00,3.5115
1145.00,3.4894
1144.00,3.5089
1143.00,3.5691
1142.00,3.6229
1141.00,3.6369
1140.00,3.6086
1139.00,3.5384
1138.00,3.4617
1137.00,3.4433
1136.00,3.5222
1135.00,3.6542
1134.00,3.7247
1133.00,3.6425
1132.00,3.4602
1131.00,3.3388
1130.00,3.3202
1129.00,3.3748
1128.00,3.3993
1127.00,3.3365
1126.00,3.2957
1125.00,3.3310
1124.00,3.4282
1123.00,3.5586
1122.00,3.6195
1121.00,3.6111
1120.00,3.6214
1119.00,3.5626
1118.00,3.4931
1117.00,3.4938
1116.00,3.5323
1115.00,3.5111
1114.00,3.3956
1113.00,3.2605
1112.00,3.1612
1111.00,3.1155
1110.00,3.1113
1109.00,3.1237
1108.00,3.1291
1107.00,3.1418
1106.00,3.1975
1105.00,3.2644
1104.00,3.2422
1103.00,3.1369
1102.00,3.0355
1101.00,2.9807
1100.00,2.9741
1099.00,2.9948
1098.00,3.0150
1097.00,3.0129
1096.00,2.9818
1095.00,2.9330
1094.00,2.8840
1093.00,2.8419
1092.00,2.8004
1091.00,2.7554
1090.00,2.7172
1089.00,2.7011
1088.00,2.7069
1087.00,2.7105
1086.00,2.6835
1085.00,2.6269
1084.00,2.5662
1083.00,2.5198
1082.00,2.4896
1081.00,2.4694
1080.00,2.4539
1079.00,2.4408
1078.00,2.4290
1077.00,2.4168
1076.00,2.4027
1075.00,2.3870
1074.00,2.3713
1073.00,2.3554
1072.00,2.3373
1071.00,2.3163
1070.00,2.2951
1069.00,2.2769
1068.00,2.2620
1067.00,2.2485
1066.00,2.2353
1065.00,2.2236
1064.00,2.2133
1063.00,2.2023
1062.00,2.1901
1061.00,2.1790
1060.00,2.1721
1059.00,2.1695
1058.00,2.1674
1057.00,2.1617
1056.00,2.1510
1055.00,2.1371
1054.00,2.1231
1053.00,2.1118
1052.00,2.1054
1051.00,2.1044
1050.00,2.1071
1049.00,2.1096
1048.00,2.1085
1047.00,2.1030
1046.00,2.0952
1045.00,2.0880
1044.00,2.0835
1043.00,2.0815
1042.00,2.0807
1041.00,2.0788
1040.00,2.0748
1039.00,2.0697
1038.00,2.0658
1037.00,2.0638
1036.00,2.0617
1035.00,2.0579
1034.00,2.0537
1033.00,2.0520
1032.00,2.0533
1031.00,2.0559
1030.00,2.0586
1029.00,2.0615
1028.00,2.0641
1027.00,2.0639
1026.00,2.0602
1025.00,2.0556
1024.00,2.0541
1023.00,2.0569
1022.00,2.0620
1021.00,2.0675
1020.00,2.0721
1019.00,2.0750
1018.00,2.0761
1017.00,2.0781
1016.00,2.0858
1015.00,2.1018
1014.00,2.1241
1013.00,2.1482
1012.00,2.1718
1011.00,2.1969
1010.00,2.2287
1009.00,2.2714
1008.00,2.3264
1007.00,2.3921
1006.00,2.4633
1005.00,2.5325
1004.00,2.5946
1003.00,2.6503
1002.00,2.7030
1001.00,2.7553
1000.00,2.8059
999.00,2.8459
998.00,2.8664
997.00,2.8647
996.00,2.8502
995.00,2.8466
994.00,2.8744
993.00,2.9380
992.00,3.0131
991.00,3.0496
990.00,3.0492
989.00,3.0702
988.00,3.1420
987.00,3.2488
986.00,3.3470
985.00,3.4065
984.00,3.4159
983.00,3.3320
982.00,3.2095
981.00,3.1365
980.00,3.1025
979.00,3.0573
978.00,2.9898
977.00,2.9209
976.00,2.8623
975.00,2.8099
974.00,2.7486
973.00,2.6690
972.00,2.5788
971.00,2.4910
970.00,2.4140
969.00,2.3514
968.00,2.3048
967.00,2.2731
966.00,2.2499
965.00,2.2252
964.00,2.1912
963.00,2.1474
962.00,2.0981
961.00,2.0486
960.00,2.0026
959.00,1.9628
958.00,1.9301
957.00,1.9033
956.00,1.8798
955.00,1.8576
954.00,1.8369
953.00,1.8182
952.00,1.8019
951.00,1.7872
950.00,1.7741
949.00,1.7623
948.00,1.7514
947.00,1.7411
946.00,1.7313
945.00,1.7223
944.00,1.7138
943.00,1.7052
942.00,1.6968
941.00,1.6896
940.00,1.6844
939.00,1.6808
938.00,1.6779
937.00,1.6752
936.00,1.6729
935.00,1.6706
934.00,1.6684
933.00,1.6664
932.00,1.6654
931.00,1.6652
930.00,1.6648
929.00,1.6637
928.00,1.6623
927.00,1.6608
926.00,1.6589
925.00,1.6554
924.00,1.6497
923.00,1.6420
922.00,1.6330
921.00,1.6243
920.00,1.6171
919.00,1.6116
918.00,1.6063
917.00,1.5993
916.00,1.5893
915.00,1.5770
914.00,1.5644
913.00,1.5532
912.00,1.5438
911.00,1.5351
910.00,1.5256
909.00,1.5150
908.00,1.5047
907.00,1.4962
906.00,1.4898
905.00,1.4847
904.00,1.4800
903.00,1.4752
902.00,1.4703
901.00,1.4651
900.00,1.4596
899.00,1.4531
898.00,1.4454
897.00,1.4369
896.00,1.4286
895.00,1.4219
894.00,1.4169
893.00,1.4130
892.00,1.4096
891.00,1.4067
890.00,1.4043
889.00,1.4025
888.00,1.4016
887.00,1.4015
886.00,1.4016
885.00,1.4006
884.00,1.3980
883.00,1.3937
882.00,1.3881
881.00,1.3818
880.00,1.3753
879.00,1.3693
878.00,1.3639
877.00,1.3585
876.00,1.3531
875.00,1.3484
874.00,1.3451
873.00,1.3425
872.00,1.3401
871.00,1.3374
870.00,1.3349
869.00,1.3331
868.00,1.3320
867.00,1.3315
866.00,1.3314
865.00,1.3315
864.00,1.3313
863.00,1.3314
862.00,1.3324
861.00,1.3348
860.00,1.3376
859.00,1.3402
858.00,1.3429
857.00,1.3469
856.00,1.3531
855.00,1.3613
854.00,1.3704
853.00,1.3800
852.00,1.3896
851.00,1.3985
850.00,1.4056
849.00,1.4096
848.00,1.4101
847.00,1.4076
846.00,1.4037
845.00,1.3998
844.00,1.3963
843.00,1.3934
842.00,1.3914
841.00,1.3902
840.00,1.3896
839.00,1.3893
838.00,1.3906
837.00,1.3966
836.00,1.4095
835.00,1.4297
834.00,1.4551
833.00,1.4841
832.00,1.5159
831.00,1.5508
830.00,1.5882
829.00,1.6267
828.00,1.6671
827.00,1.7147
826.00,1.7787
825.00,1.8687
824.00,1.9888
823.00,2.1326
822.00,2.2775
821.00,2.3910
820.00,2.4590
819.00,2.5040
818.00,2.5616
817.00,2.6431
816.00,2.7204
815.00,2.7616
814.00,2.7585
813.00,2.7245
812.00,2.6948
811.00,2.6860
810.00,2.6917
809.00,2.7082
808.00,2.7386
807.00,2.7756
806.00,2.7986
805.00,2.8025
804.00,2.8055
803.00,2.8080
802.00,2.7874
801.00,2.7469
800.00,2.7140
799.00,2.7047
798.00,2.7138
797.00,2.7207
796.00,2.7045
795.00,2.6650
794.00,2.6224
793.00,2.5981
792.00,2.5990
791.00,2.6140
790.00,2.6213
789.00,2.6079
788.00,2.5848
787.00,2.5722
786.00,2.5755
785.00,2.5844
784.00,2.5876
783.00,2.5828
782.00,2.5727
781.00,2.5545
780.00,2.5186
779.00,2.4654
778.00,2.4127
777.00,2.3786
776.00,2.3671
775.00,2.3687
774.00,2.3709
773.00,2.3691
772.00,2.3673
771.00,2.3688
770.00,2.3713
769.00,2.3672
768.00,2.3523
767.00,2.3323
766.00,2.3176
765.00,2.3127
764.00,2.3123
763.00,2.3073
762.00,2.2958
761.00,2.2848
760.00,2.2807
759.00,2.2841
758.00,2.2928
757.00,2.3060
756.00,2.3211
755.00,2.3312
754.00,2.3331
753.00,2.3335
752.00,2.3410
751.00,2.3544
750.00,2.3652
749.00,2.3714
748.00,2.3798
747.00,2.3932
746.00,2.4046
745.00,2.4051
744.00,2.3944
743.00,2.3792
742.00,2.3667
741.00,2.3606
740.00,2.3570
739.00,2.3435
738.00,2.3109
737.00,2.2670
736.00,2.2272
735.00,2.1983
734.00,2.1762
733.00,2.1556
732.00,2.1367
731.00,2.1230
730.00,2.1144
729.00,2.1078
728.00,2.1031
727.00,2.1041
726.00,2.1131
725.00,2.1287
724.00,2.1483
723.00,2.1694
722.00,2.1902
721.00,2.2083
720.00,2.2212
719.00,2.2285
718.00,2.2316
717.00,2.2340
716.00,2.2391
715.00,2.2468
714.00,2.2517
713.00,2.2477
712.00,2.2337
711.00,2.2154
710.00,2.1982
709.00,2.1836
708.00,2.1703
707.00,2.1590
706.00,2.1513
705.00,2.1475
704.00,2.1443
703.00,2.1357
702.00,2.1178
701.00,2.0939
700.00,2.0747
699.00,2.0699
698.00,2.0789
697.00,2.0899
696.00,2.0901
695.00,2.0793
694.00,2.0678
693.00,2.0628
692.00,2.0627
691.00,2.0612
690.00,2.0559
689.00,2.0499
688.00,2.0468
687.00,2.0462
686.00,2.0465
685.00,2.0492
684.00,2.0578
683.00,2.0716
682.00,2.0835
681.00,2.0858
680.00,2.0781
679.00,2.0674
678.00,2.0595
677.00,2.0562
676.00,2.0565
675.00,2.0600
674.00,2.0676
673.00,2.0791
672.00,2.0923
671.00,2.1042
670.00,2.1136
669.00,2.1246
668.00,2.1441
667.00,2.1648
666.00,2.1692
665.00,2.1555
664.00,2.1370
663.00,2.1270
662.00,2.1318
661.00,2.1473
660.00,2.1637
659.00,2.1737
658.00,2.1770
657.00,2.1765
656.00,2.1762
655.00,2.1810
654.00,2.1938
653.00,2.2120
652.00,2.2276
651.00,2.2330
650.00,2.2284
649.00,2.2193
648.00,2.2106
647.00,2.2025
646.00,2.1926
645.00,2.1787
644.00,2.1626
643.00,2.1498
642.00,2.1436
641.00,2.1409
640.00,2.1364
639.00,2.1295
638.00,2.1245
637.00,2.1223
636.00,2.1139
635.00,2.0889
634.00,2.0496
633.00,2.0095
632.00,1.9773
631.00,1.9500
630.00,1.9204
629.00,1.8888
628.00,1.8637
627.00,1.8506
626.00,1.8453
625.00,1.8370
624.00,1.8191
623.00,1.7952
622.00,1.7729
621.00,1.7569
620.00,1.7481
619.00,1.7446
618.00,1.7417
617.00,1.7348
616.00,1.7237
615.00,1.7131
614.00,1.7064
613.00,1.7026
612.00,1.6983
611.00,1.6910
610.00,1.6791
609.00,1.6626
608.00,1.6439
607.00,1.6261
606.00,1.6102
605.00,1.5950
604.00,1.5807
603.00,1.5712
602.00,1.5688
601.00,1.5702
600.00,1.5689
599.00,1.5610
598.00,1.5485
597.00,1.5349
596.00,1.5220
595.00,1.5106
594.00,1.5017
593.00,1.4949
592.00,1.4877
591.00,1.4779
590.00,1.4672
589.00,1.4595
588.00,1.4579
587.00,1.4615
586.00,1.4667
585.00,1.4713
584.00,1.4762
583.00,1.4833
582.00,1.4917
581.00,1.4990
580.00,1.5045
579.00,1.5104
578.00,1.5170
577.00,1.5222
576.00,1.5259
575.00,1.5320
574.00,1.5434
573.00,1.5569
572.00,1.5676
571.00,1.5759
570.00,1.5865
569.00,1.6011
568.00,1.6158
567.00,1.6256
566.00,1.6295
565.00,1.6287
564.00,1.6241
563.00,1.6181
562.00,1.6154
561.00,1.6193
560.00,1.6303
559.00,1.6478
558.00,1.6714
557.00,1.6987
556.00,1.7239
555.00,1.7421
554.00,1.7525
553.00,1.7590
552.00,1.7667
551.00,1.7826
550.00,1.8137
