Created as New Dataset,
cm-1,A
4000.00,1.8830
3999.00,1.8842
3998.00,1.8858
3997.00,1.8868
3996.00,1.8870
3995.00,1.8866
3994.00,1.8859
3993.00,1.8854
3992.00,1.8855
3991.00,1.8866
3990.00,1.8881
3989.00,1.8891
3988.00,1.8889
3987.00,1.8880
3986.00,1.8870
3985.00,1.8861
3984.00,1.8851
3983.00,1.8839
3982.00,1.8828
3981.00,1.8820
3980.00,1.8818
3979.00,1.8819
3978.00,1.8823
3977.00,1.8826
3976.00,1.8830
3975.00,1.8834
3974.00,1.8844
3973.00,1.8857
3972.00,1.8867
3971.00,1.8868
3970.00,1.8856
3969.00,1.8838
3968.00,1.8823
3967.00,1.8815
3966.00,1.8815
3965.00,1.8820
3964.00,1.8831
3963.00,1.8849
3962.00,1.8863
3961.00,1.8864
3960.00,1.8844
3959.00,1.8814
3958.00,1.8792
3957.00,1.8789
3956.00,1.8801
3955.00,1.8820
3954.00,1.8836
3953.00,1.8846
3952.00,1.8849
3951.00,1.8845
3950.00,1.8836
3949.00,1.8827
3948.00,1.8819
3947.00,1.8812
3946.00,1.8803
3945.00,1.8795
3944.00,1.8793
3943.00,1.8800
3942.00,1.8810
3941.00,1.8815
3940.00,1.8810
3939.00,1.8800
3938.00,1.8795
3937.00,1.8797
3936.00,1.8804
3935.00,1.8812
3934.00,1.8816
3933.00,1.8814
3932.00,1.8804
3931.00,1.8788
3930.00,1.8772
3929.00,1.8766
3928.00,1.8773
3927.00,1.8784
3926.00,1.8791
3925.00,1.8791
3924.00,1.8789
3923.00,1.8794
3922.00,1.8806
3921.00,1.8820
3920.00,1.8831
3919.00,1.8833
3918.00,1.8828
3917.00,1.8820
3916.00,1.8814
3915.00,1.8810
3914.00,1.8809
3913.00,1.8810
3912.00,1.8815
3911.00,1.8818
3910.00,1.8815
3909.00,1.8805
3908.00,1.8795
3907.00,1.8794
3906.00,1.8804
3905.00,1.8821
3904.00,1.8838
3903.00,1.8851
3902.00,1.8859
3901.00,1.8862
3900.00,1.8861
3899.00,1.8860
3898.00,1.8859
3897.00,1.8861
3896.00,1.8869
3895.00,1.8879
3894.00,1.8890
3893.00,1.8895
3892.00,1.8895
3891.00,1.8889
3890.00,1.8880
3889.00,1.8872
3888.00,1.8871
3887.00,1.8878
3886.00,1.8888
3885.00,1.8893
3884.00,1.8889
3883.00,1.8877
3882.00,1.8860
3881.00,1.8840
3880.00,1.8816
3879.00,1.8794
3878.00,1.8779
3877.00,1.8774
3876.00,1.8775
3875.00,1.8775
3874.00,1.8769
3873.00,1.8761
3872.00,1.8760
3871.00,1.8772
3870.00,1.8794
3869.00,1.8816
3868.00,1.8829
3867.00,1.8833
3866.00,1.8827
3865.00,1.8814
3864.00,1.8801
3863.00,1.8794
3862.00,1.8791
3861.00,1.8790
3860.00,1.8791
3859.00,1.8798
3858.00,1.8815
3857.00,1.8838
3856.00,1.8859
3855.00,1.8872
3854.00,1.8888
3853.00,1.8913
3852.00,1.8927
3851.00,1.8912
3850.00,1.8880
3849.00,1.8853
3848.00,1.8837
3847.00,1.8828
3846.00,1.8815
3845.00,1.8790
3844.00,1.8760
3843.00,1.8737
3842.00,1.8734
3841.00,1.8751
3840.00,1.8779
3839.00,1.8804
3838.00,1.8817
3837.00,1.8820
3836.00,1.8816
3835.00,1.8812
3834.00,1.8809
3833.00,1.8806
3832.00,1.8797
3831.00,1.8779
3830.00,1.8754
3829.00,1.8727
3828.00,1.8706
3827.00,1.8693
3826.00,1.8690
3825.00,1.8696
3824.00,1.8709
3823.00,1.8725
3822.00,1.8743
3821.00,1.8766
3820.00,1.8789
3819.00,1.8808
3818.00,1.8821
3817.00,1.8829
3816.00,1.8829
3815.00,1.8821
3814.00,1.8805
3813.00,1.8786
3812.00,1.8765
3811.00,1.8742
3810.00,1.8715
3809.00,1.8688
3808.00,1.8672
3807.00,1.8677
3806.00,1.8705
3805.00,1.8741
3804.00,1.8770
3803.00,1.8784
3802.00,1.8784
3801.00,1.8779
3800.00,1.8775
3799.00,1.8774
3798.00,1.8778
3797.00,1.8782
3796.00,1.8780
3795.00,1.8771
3794.00,1.8759
3793.00,1.8746
3792.00,1.8728
3791.00,1.8704
3790.00,1.8679
3789.00,1.8662
3788.00,1.8656
3787.00,1.8657
3786.00,1.8656
3785.00,1.8652
3784.00,1.8649
3783.00,1.8647
3782.00,1.8644
3781.00,1.8637
3780.00,1.8634
3779.00,1.8642
3778.00,1.8656
3777.00,1.8664
3776.00,1.8658
3775.00,1.8643
3774.00,1.8627
3773.00,1.8616
3772.00,1.8613
3771.00,1.8618
3770.00,1.8634
3769.00,1.8654
3768.00,1.8667
3767.00,1.8667
3766.00,1.8663
3765.00,1.8663
3764.00,1.8671
3763.00,1.8677
3762.00,1.8673
3761.00,1.8656
3760.00,1.8635
3759.00,1.8624
3758.00,1.8627
3757.00,1.8643
3756.00,1.8665
3755.00,1.8687
3754.00,1.8707
3753.00,1.8726
3752.00,1.8751
3751.00,1.8793
3750.00,1.8846
3749.00,1.8893
3748.00,1.8923
3747.00,1.8933
3746.00,1.8921
3745.00,1.8891
3744.00,1.8853
3743.00,1.8815
3742.00,1.8780
3741.00,1.8753
3740.00,1.8735
3739.00,1.8723
3738.00,1.8712
3737.00,1.8700
3736.00,1.8692
3735.00,1.8695
3734.00,1.8712
3733.00,1.8738
3732.00,1.8760
3731.00,1.8767
3730.00,1.8759
3729.00,1.8745
3728.00,1.8735
3727.00,1.8731
3726.00,1.8729
3725.00,1.8720
3724.00,1.8699
3723.00,1.8674
3722.00,1.8660
3721.00,1.8669
3720.00,1.8692
3719.00,1.8714
3718.00,1.8725
3717.00,1.8728
3716.00,1.8733
3715.00,1.8743
3714.00,1.8750
3713.00,1.8746
3712.00,1.8733
3711.00,1.8721
3710.00,1.8712
3709.00,1.8704
3708.00,1.8696
3707.00,1.8694
3706.00,1.8705
3705.00,1.8727
3704.00,1.8748
3703.00,1.8761
3702.00,1.8766
3701.00,1.8771
3700.00,1.8780
3699.00,1.8783
3698.00,1.8773
3697.00,1.8752
3696.00,1.8726
3695.00,1.8705
3694.00,1.8698
3693.00,1.8707
3692.00,1.8728
3691.00,1.8753
3690.00,1.8779
3689.00,1.8813
3688.00,1.8857
3687.00,1.8898
3686.00,1.8923
3685.00,1.8927
3684.00,1.8915
3683.00,1.8898
3682.00,1.8882
3681.00,1.8870
3680.00,1.8867
3679.00,1.8873
3678.00,1.8884
3677.00,1.8900
3676.00,1.8926
3675.00,1.8969
3674.00,1.9018
3673.00,1.9054
3672.00,1.9067
3671.00,1.9058
3670.00,1.9040
3669.00,1.9026
3668.00,1.9014
3667.00,1.8996
3666.00,1.8966
3665.00,1.8930
3664.00,1.8902
3663.00,1.8893
3662.00,1.8901
3661.00,1.8916
3660.00,1.8925
3659.00,1.8926
3658.00,1.8923
3657.00,1.8920
3656.00,1.8920
3655.00,1.8923
3654.00,1.8931
3653.00,1.8946
3652.00,1.8968
3651.00,1.8993
3650.00,1.9019
3649.00,1.9043
3648.00,1.9056
3647.00,1.9056
3646.00,1.9047
3645.00,1.9036
3644.00,1.9025
3643.00,1.9009
3642.00,1.8984
3641.00,1.8956
3640.00,1.8933
3639.00,1.8923
3638.00,1.8925
3637.00,1.8933
3636.00,1.8943
3635.00,1.8955
3634.00,1.8971
3633.00,1.8989
3632.00,1.9009
3631.00,1.9026
3630.00,1.9041
3629.00,1.9059
3628.00,1.9073
3627.00,1.9073
3626.00,1.9059
3625.00,1.9045
3624.00,1.9040
3623.00,1.9042
3622.00,1.9042
3621.00,1.9033
3620.00,1.9022
3619.00,1.9028
3618.00,1.9056
3617.00,1.9094
3616.00,1.9116
3615.00,1.9113
3614.00,1.9098
3613.00,1.9095
3612.00,1.9112
3611.00,1.9136
3610.00,1.9152
3609.00,1.9158
3608.00,1.9161
3607.00,1.9165
3606.00,1.9162
3605.00,1.9148
3604.00,1.9119
3603.00,1.9077
3602.00,1.9032
3601.00,1.9000
3600.00,1.8995
3599.00,1.9017
3598.00,1.9054
3597.00,1.9089
3596.00,1.9109
3595.00,1.9110
3594.00,1.9097
3593.00,1.9082
3592.00,1.9084
3591.00,1.9107
3590.00,1.9138
3589.00,1.9156
3588.00,1.9154
3587.00,1.9140
3586.00,1.9130
3585.00,1.9133
3584.00,1.9145
3583.00,1.9161
3582.00,1.9170
3581.00,1.9168
3580.00,1.9158
3579.00,1.9147
3578.00,1.9140
3577.00,1.9137
3576.00,1.9131
3575.00,1.9122
3574.00,1.9116
3573.00,1.9118
3572.00,1.9126
3571.00,1.9135
3570.00,1.9143
3569.00,1.9152
3568.00,1.9165
3567.00,1.9178
3566.00,1.9185
3565.00,1.9188
3564.00,1.9192
3563.00,1.9197
3562.00,1.9194
3561.00,1.9181
3560.00,1.9168
3559.00,1.9167
3558.00,1.9176
3557.00,1.9186
3556.00,1.9190
3555.00,1.9191
3554.00,1.9191
3553.00,1.9189
3552.00,1.9186
3551.00,1.9186
3550.00,1.9191
3549.00,1.9198
3548.00,1.9201
3547.00,1.9200
3546.00,1.9199
3545.00,1.9204
3544.00,1.9213
3543.00,1.9225
3542.00,1.9240
3541.00,1.9253
3540.00,1.9260
3539.00,1.9255
3538.00,1.9242
3537.00,1.9229
3536.00,1.9223
3535.00,1.9223
3534.00,1.9227
3533.00,1.9232
3532.00,1.9236
3531.00,1.9237
3530.00,1.9232
3529.00,1.9225
3528.00,1.9225
3527.00,1.9239
3526.00,1.9264
3525.00,1.9290
3524.00,1.9306
3523.00,1.9307
3522.00,1.9299
3521.00,1.9288
3520.00,1.9281
3519.00,1.9280
3518.00,1.9283
3517.00,1.9289
3516.00,1.9299
3515.00,1.9310
3514.00,1.9319
3513.00,1.9321
3512.00,1.9312
3511.00,1.9295
3510.00,1.9279
3509.00,1.9272
3508.00,1.9275
3507.00,1.9281
3506.00,1.9279
3505.00,1.9269
3504.00,1.9261
3503.00,1.9266
3502.00,1.9286
3501.00,1.9313
3500.00,1.9335
3499.00,1.9343
3498.00,1.9339
3497.00,1.9336
3496.00,1.9345
3495.00,1.9366
3494.00,1.9384
3493.00,1.9382
3492.00,1.9361
3491.00,1.9336
3490.00,1.9326
3489.00,1.9336
3488.00,1.9353
3487.00,1.9362
3486.00,1.9359
3485.00,1.9348
3484.00,1.9341
3483.00,1.9343
3482.00,1.9356
3481.00,1.9374
3480.00,1.9385
3479.00,1.9382
3478.00,1.9370
3477.00,1.9365
3476.00,1.9380
3475.00,1.9408
3474.00,1.9427
3473.00,1.9421
3472.00,1.9396
3471.00,1.9373
3470.00,1.9369
3469.00,1.9384
3468.00,1.9408
3467.00,1.9424
3466.00,1.9425
3465.00,1.9419
3464.00,1.9416
3463.00,1.9422
3462.00,1.9429
3461.00,1.9428
3460.00,1.9424
3459.00,1.9425
3458.00,1.9432
3457.00,1.9436
3456.00,1.9426
3455.00,1.9406
3454.00,1.9389
3453.00,1.9390
3452.00,1.9410
3451.00,1.9440
3450.00,1.9472
3449.00,1.9499
3448.00,1.9522
3447.00,1.9539
3446.00,1.9546
3445.00,1.9544
3444.00,1.9537
3443.00,1.9530
3442.00,1.9526
3441.00,1.9526
3440.00,1.9528
3439.00,1.9534
3438.00,1.9541
3437.00,1.9544
3436.00,1.9542
3435.00,1.9538
3434.00,1.9538
3433.00,1.9542
3432.00,1.9550
3431.00,1.9565
3430.00,1.9589
3429.00,1.9615
3428.00,1.9627
3427.00,1.9619
3426.00,1.9603
3425.00,1.9601
3424.00,1.9614
3423.00,1.9624
3422.00,1.9613
3421.00,1.9584
3420.00,1.9560
3419.00,1.9553
3418.00,1.9560
3417.00,1.9570
3416.00,1.9574
3415.00,1.9576
3414.00,1.9579
3413.00,1.9585
3412.00,1.9593
3411.00,1.9600
3410.00,1.9604
3409.00,1.9605
3408.00,1.9601
3407.00,1.9592
3406.00,1.9582
3405.00,1.9578
3404.00,1.9586
3403.00,1.9599
3402.00,1.9607
3401.00,1.9604
3400.00,1.9594
3399.00,1.9583
3398.00,1.9572
3397.00,1.9557
3396.00,1.9537
3395.00,1.9522
3394.00,1.9524
3393.00,1.9548
3392.00,1.9578
3391.00,1.9588
3390.00,1.9569
3389.00,1.9535
3388.00,1.9506
3387.00,1.9493
3386.00,1.9497
3385.00,1.9516
3384.00,1.9544
3383.00,1.9571
3382.00,1.9578
3381.00,1.9563
3380.00,1.9540
3379.00,1.9523
3378.00,1.9510
3377.00,1.9497
3376.00,1.9486
3375.00,1.9483
3374.00,1.9491
3373.00,1.9502
3372.00,1.9507
3371.00,1.9504
3370.00,1.9496
3369.00,1.9484
3368.00,1.9472
3367.00,1.9465
3366.00,1.9468
3365.00,1.9477
3364.00,1.9482
3363.00,1.9480
3362.00,1.9472
3361.00,1.9462
3360.00,1.9452
3359.00,1.9440
3358.00,1.9430
3357.00,1.9425
3356.00,1.9423
3355.00,1.9419
3354.00,1.9416
3353.00,1.9424
3352.00,1.9446
3351.00,1.9470
3350.00,1.9475
3349.00,1.9458
3348.00,1.9431
3347.00,1.9413
3346.00,1.9408
3345.00,1.9412
3344.00,1.9418
3343.00,1.9421
3342.00,1.9418
3341.00,1.9409
3340.00,1.9402
3339.00,1.9402
3338.00,1.9410
3337.00,1.9420
3336.00,1.9431
3335.00,1.9439
3334.00,1.9439
3333.00,1.9425
3332.00,1.9397
3331.00,1.9368
3330.00,1.9353
3329.00,1.9356
3328.00,1.9370
3327.00,1.9379
3326.00,1.9382
3325.00,1.9386
3324.00,1.9397
3323.00,1.9409
3322.00,1.9415
3321.00,1.9412
3320.00,1.9402
3319.00,1.9389
3318.00,1.9375
3317.00,1.9363
3316.00,1.9364
3315.00,1.9376
3314.00,1.9391
3313.00,1.9399
3312.00,1.9395
3311.00,1.9385
3310.00,1.9372
3309.00,1.9361
3308.00,1.9350
3307.00,1.9341
3306.00,1.9336
3305.00,1.9336
3304.00,1.9337
3303.00,1.9332
3302.00,1.9320
3301.00,1.9309
3300.00,1.9303
3299.00,1.9305
3298.00,1.9311
3297.00,1.9319
3296.00,1.9326
3295.00,1.9326
3294.00,1.9319
3293.00,1.9313
3292.00,1.9325
3291.00,1.9354
3290.00,1.9386
3289.00,1.9407
3288.00,1.9414
3287.00,1.9415
3286.00,1.9418
3285.00,1.9425
3284.00,1.9436
3283.00,1.9442
3282.00,1.9434
3281.00,1.9413
3280.00,1.9387
3279.00,1.9366
3278.00,1.9355
3277.00,1.9351
3276.00,1.9353
3275.00,1.9360
3274.00,1.9372
3273.00,1.9390
3272.00,1.9407
3271.00,1.9415
3270.00,1.9409
3269.00,1.9393
3268.00,1.9377
3267.00,1.9367
3266.00,1.9357
3265.00,1.9344
3264.00,1.9338
3263.00,1.9345
3262.00,1.9361
3261.00,1.9371
3260.00,1.9367
3259.00,1.9352
3258.00,1.9337
3257.00,1.9335
3256.00,1.9349
3255.00,1.9372
3254.00,1.9391
3253.00,1.9398
3252.00,1.9400
3251.00,1.9407
3250.00,1.9417
3249.00,1.9419
3248.00,1.9408
3247.00,1.9392
3246.00,1.9385
3245.00,1.9393
3244.00,1.9413
3243.00,1.9434
3242.00,1.9449
3241.00,1.9451
3240.00,1.9444
3239.00,1.9434
3238.00,1.9430
3237.00,1.9434
3236.00,1.9443
3235.00,1.9451
3234.00,1.9456
3233.00,1.9460
3232.00,1.9466
3231.00,1.9476
3230.00,1.9488
3229.00,1.9500
3228.00,1.9509
3227.00,1.9513
3226.00,1.9510
3225.00,1.9503
3224.00,1.9501
3223.00,1.9512
3222.00,1.9529
3221.00,1.9539
3220.00,1.9533
3219.00,1.9516
3218.00,1.9502
3217.00,1.9496
3216.00,1.9495
3215.00,1.9492
3214.00,1.9487
3213.00,1.9481
3212.00,1.9480
3211.00,1.9486
3210.00,1.9499
3209.00,1.9514
3208.00,1.9525
3207.00,1.9523
3206.00,1.9506
3205.00,1.9482
3204.00,1.9460
3203.00,1.9453
3202.00,1.9459
3201.00,1.9471
3200.00,1.9481
3199.00,1.9486
3198.00,1.9486
3197.00,1.9480
3196.00,1.9469
3195.00,1.9457
3194.00,1.9453
3193.00,1.9459
3192.00,1.9466
3191.00,1.9463
3190.00,1.9446
3189.00,1.9426
3188.00,1.9413
3187.00,1.9407
3186.00,1.9403
3185.00,1.9400
3184.00,1.9395
3183.00,1.9386
3182.00,1.9367
3181.00,1.9343
3180.00,1.9324
3179.00,1.9312
3178.00,1.9297
3177.00,1.9279
3176.00,1.9269
3175.00,1.9274
3174.00,1.9288
3173.00,1.9300
3172.00,1.9307
3171.00,1.9310
3170.00,1.9302
3169.00,1.9281
3168.00,1.9252
3167.00,1.9229
3166.00,1.9217
3165.00,1.9209
3164.00,1.9200
3163.00,1.9193
3162.00,1.9190
3161.00,1.9187
3160.00,1.9179
3159.00,1.9167
3158.00,1.9153
3157.00,1.9137
3156.00,1.9119
3155.00,1.9104
3154.00,1.9097
3153.00,1.9093
3152.00,1.9084
3151.00,1.9067
3150.00,1.9048
3149.00,1.9032
3148.00,1.9021
3147.00,1.9009
3146.00,1.8996
3145.00,1.8982
3144.00,1.8971
3143.00,1.8964
3142.00,1.8957
3141.00,1.8947
3140.00,1.8931
3139.00,1.8915
3138.00,1.8904
3137.00,1.8902
3136.00,1.8904
3135.00,1.8907
3134.00,1.8907
3133.00,1.8905
3132.00,1.8904
3131.00,1.8902
3130.00,1.8899
3129.00,1.8894
3128.00,1.8889
3127.00,1.8884
3126.00,1.8878
3125.00,1.8867
3124.00,1.8854
3123.00,1.8841
3122.00,1.8829
3121.00,1.8823
3120.00,1.8827
3119.00,1.8837
3118.00,1.8839
3117.00,1.8822
3116.00,1.8789
3115.00,1.8755
3114.00,1.8732
3113.00,1.8721
3112.00,1.8720
3111.00,1.8724
3110.00,1.8731
3109.00,1.8738
3108.00,1.8742
3107.00,1.8741
3106.00,1.8728
3105.00,1.8706
3104.00,1.8681
3103.00,1.8665
3102.00,1.8662
3101.00,1.8668
3100.00,1.8678
3099.00,1.8686
3098.00,1.8686
3097.00,1.8680
3096.00,1.8671
3095.00,1.8664
3094.00,1.8662
3093.00,1.8661
3092.00,1.8663
3091.00,1.8669
3090.00,1.8674
3089.00,1.8671
3088.00,1.8659
3087.00,1.8640
3086.00,1.8622
3085.00,1.8607
3084.00,1.8599
3083.00,1.8601
3082.00,1.8607
3081.00,1.8607
3080.00,1.8594
3079.00,1.8575
3078.00,1.8562
3077.00,1.8562
3076.00,1.8568
3075.00,1.8570
3074.00,1.8564
3073.00,1.8552
3072.00,1.8540
3071.00,1.8532
3070.00,1.8529
3069.00,1.8531
3068.00,1.8537
3067.00,1.8543
3066.00,1.8547
3065.00,1.8545
3064.00,1.8537
3063.00,1.8526
3062.00,1.8518
3061.00,1.8515
3060.00,1.8517
3059.00,1.8516
3058.00,1.8510
3057.00,1.8501
3056.00,1.8495
3055.00,1.8494
3054.00,1.8493
3053.00,1.8489
3052.00,1.8483
3051.00,1.8482
3050.00,1.8487
3049.00,1.8491
3048.00,1.8490
3047.00,1.8488
3046.00,1.8491
3045.00,1.8500
3044.00,1.8508
3043.00,1.8511
3042.00,1.8510
3041.00,1.8506
3040.00,1.8502
3039.00,1.8494
3038.00,1.8485
3037.00,1.8476
3036.00,1.8474
3035.00,1.8478
3034.00,1.8484
3033.00,1.8482
3032.00,1.8473
3031.00,1.8464
3030.00,1.8464
3029.00,1.8470
3028.00,1.8473
3027.00,1.8468
3026.00,1.8459
3025.00,1.8452
3024.00,1.8444
3023.00,1.8432
3022.00,1.8417
3021.00,1.8408
3020.00,1.8411
3019.00,1.8415
3018.00,1.8408
3017.00,1.8395
3016.00,1.8393
3015.00,1.8411
3014.00,1.8441
3013.00,1.8459
3012.00,1.8456
3011.00,1.8440
3010.00,1.8423
3009.00,1.8412
3008.00,1.8406
3007.00,1.8402
3006.00,1.8398
3005.00,1.8394
3004.00,1.8390
3003.00,1.8389
3002.00,1.8391
3001.00,1.8394
3000.00,1.8399
2999.00,1.8407
2998.00,1.8415
2997.00,1.8414
2996.00,1.8402
2995.00,1.8383
2994.00,1.8366
2993.00,1.8358
2992.00,1.8358
2991.00,1.8361
2990.00,1.8363
2989.00,1.8363
2988.00,1.8360
2987.00,1.8355
2986.00,1.8355
2985.00,1.8367
2984.00,1.8392
2983.00,1.8420
2982.00,1.8431
2981.00,1.8418
2980.00,1.8391
2979.00,1.8368
2978.00,1.8365
2977.00,1.8378
2976.00,1.8395
2975.00,1.8402
2974.00,1.8395
2973.00,1.8383
2972.00,1.8374
2971.00,1.8373
2970.00,1.8381
2969.00,1.8397
2968.00,1.8419
2967.00,1.8444
2966.00,1.8461
2965.00,1.8464
2964.00,1.8456
2963.00,1.8448
2962.00,1.8451
2961.00,1.8466
2960.00,1.8486
2959.00,1.8504
2958.00,1.8510
2957.00,1.8504
2956.00,1.8492
2955.00,1.8482
2954.00,1.8478
2953.00,1.8475
2952.00,1.8471
2951.00,1.8466
2950.00,1.8461
2949.00,1.8459
2948.00,1.8462
2947.00,1.8469
2946.00,1.8475
2945.00,1.8475
2944.00,1.8468
2943.00,1.8462
2942.00,1.8461
2941.00,1.8462
2940.00,1.8461
2939.00,1.8459
2938.00,1.8465
2937.00,1.8481
2936.00,1.8500
2935.00,1.8509
2934.00,1.8509
2933.00,1.8508
2932.00,1.8518
2931.00,1.8543
2930.00,1.8573
2929.00,1.8593
2928.00,1.8597
2927.00,1.8590
2926.00,1.8587
2925.00,1.8593
2924.00,1.8603
2923.00,1.8608
2922.00,1.8604
2921.00,1.8597
2920.00,1.8591
2919.00,1.8588
2918.00,1.8588
2917.00,1.8588
2916.00,1.8588
2915.00,1.8585
2914.00,1.8572
2913.00,1.8547
2912.00,1.8513
2911.00,1.8483
2910.00,1.8464
2909.00,1.8454
2908.00,1.8446
2907.00,1.8432
2906.00,1.8413
2905.00,1.8396
2904.00,1.8386
2903.00,1.8380
2902.00,1.8375
2901.00,1.8365
2900.00,1.8351
2899.00,1.8340
2898.00,1.8339
2897.00,1.8346
2896.00,1.8353
2895.00,1.8356
2894.00,1.8354
2893.00,1.8351
2892.00,1.8344
2891.00,1.8329
2890.00,1.8308
2889.00,1.8290
2888.00,1.8285
2887.00,1.8297
2886.00,1.8319
2885.00,1.8343
2884.00,1.8364
2883.00,1.8378
2882.00,1.8381
2881.00,1.8371
2880.00,1.8352
2879.00,1.8333
2878.00,1.8321
2877.00,1.8320
2876.00,1.8327
2875.00,1.8335
2874.00,1.8337
2873.00,1.8333
2872.00,1.8325
2871.00,1.8321
2870.00,1.8322
2869.00,1.8329
2868.00,1.8341
2867.00,1.8356
2866.00,1.8374
2865.00,1.8392
2864.00,1.8408
2863.00,1.8418
2862.00,1.8419
2861.00,1.8412
2860.00,1.8402
2859.00,1.8400
2858.00,1.8408
2857.00,1.8425
2856.00,1.8442
2855.00,1.8456
2854.00,1.8467
2853.00,1.8477
2852.00,1.8487
2851.00,1.8498
2850.00,1.8503
2849.00,1.8498
2848.00,1.8482
2847.00,1.8458
2846.00,1.8435
2845.00,1.8419
2844.00,1.8413
2843.00,1.8412
2842.00,1.8410
2841.00,1.8401
2840.00,1.8387
2839.00,1.8374
2838.00,1.8370
2837.00,1.8374
2836.00,1.8380
2835.00,1.8383
2834.00,1.8382
2833.00,1.8384
2832.00,1.8392
2831.00,1.8404
2830.00,1.8416
2829.00,1.8427
2828.00,1.8437
2827.00,1.8444
2826.00,1.8444
2825.00,1.8442
2824.00,1.8446
2823.00,1.8458
2822.00,1.8475
2821.00,1.8492
2820.00,1.8506
2819.00,1.8518
2818.00,1.8533
2817.00,1.8547
2816.00,1.8557
2815.00,1.8564
2814.00,1.8570
2813.00,1.8579
2812.00,1.8590
2811.00,1.8600
2810.00,1.8606
2809.00,1.8608
2808.00,1.8610
2807.00,1.8613
2806.00,1.8615
2805.00,1.8615
2804.00,1.8611
2803.00,1.8608
2802.00,1.8610
2801.00,1.8617
2800.00,1.8623
2799.00,1.8623
2798.00,1.8615
2797.00,1.8604
2796.00,1.8596
2795.00,1.8593
2794.00,1.8589
2793.00,1.8582
2792.00,1.8571
2791.00,1.8559
2790.00,1.8547
2789.00,1.8533
2788.00,1.8517
2787.00,1.8502
2786.00,1.8497
2785.00,1.8503
2784.00,1.8514
2783.00,1.8519
2782.00,1.8513
2781.00,1.8503
2780.00,1.8501
2779.00,1.8503
2778.00,1.8497
2777.00,1.8476
2776.00,1.8448
2775.00,1.8426
2774.00,1.8417
2773.00,1.8419
2772.00,1.8423
2771.00,1.8423
2770.00,1.8416
2769.00,1.8406
2768.00,1.8400
2767.00,1.8398
2766.00,1.8394
2765.00,1.8384
2764.00,1.8372
2763.00,1.8362
2762.00,1.8354
2761.00,1.8343
2760.00,1.8329
2759.00,1.8314
2758.00,1.8300
2757.00,1.8289
2756.00,1.8283
2755.00,1.8286
2754.00,1.8296
2753.00,1.8310
2752.00,1.8320
2751.00,1.8323
2750.00,1.8317
2749.00,1.8302
2748.00,1.8287
2747.00,1.8277
2746.00,1.8275
2745.00,1.8275
2744.00,1.8274
2743.00,1.8274
2742.00,1.8275
2741.00,1.8276
2740.00,1.8277
2739.00,1.8278
2738.00,1.8281
2737.00,1.8287
2736.00,1.8294
2735.00,1.8303
2734.00,1.8310
2733.00,1.8313
2732.00,1.8312
2731.00,1.8312
2730.00,1.8315
2729.00,1.8322
2728.00,1.8331
2727.00,1.8341
2726.00,1.8352
2725.00,1.8362
2724.00,1.8369
2723.00,1.8370
2722.00,1.8366
2721.00,1.8361
2720.00,1.8360
2719.00,1.8365
2718.00,1.8374
2717.00,1.8380
2716.00,1.8380
2715.00,1.8376
2714.00,1.8371
2713.00,1.8373
2712.00,1.8381
2711.00,1.8391
2710.00,1.8396
2709.00,1.8394
2708.00,1.8389
2707.00,1.8388
2706.00,1.8390
2705.00,1.8391
2704.00,1.8389
2703.00,1.8382
2702.00,1.8373
2701.00,1.8368
2700.00,1.8372
2699.00,1.8388
2698.00,1.8405
2697.00,1.8411
2696.00,1.8401
2695.00,1.8384
2694.00,1.8368
2693.00,1.8362
2692.00,1.8365
2691.00,1.8374
2690.00,1.8380
2689.00,1.8378
2688.00,1.8375
2687.00,1.8381
2686.00,1.8398
2685.00,1.8416
2684.00,1.8426
2683.00,1.8429
2682.00,1.8432
2681.00,1.8433
2680.00,1.8428
2679.00,1.8417
2678.00,1.8404
2677.00,1.8389
2676.00,1.8372
2675.00,1.8361
2674.00,1.8361
2673.00,1.8374
2672.00,1.8389
2671.00,1.8402
2670.00,1.8412
2669.00,1.8421
2668.00,1.8427
2667.00,1.8430
2666.00,1.8432
2665.00,1.8438
2664.00,1.8447
2663.00,1.8450
2662.00,1.8442
2661.00,1.8425
2660.00,1.8405
2659.00,1.8389
2658.00,1.8378
2657.00,1.8374
2656.00,1.8376
2655.00,1.8383
2654.00,1.8393
2653.00,1.8402
2652.00,1.8408
2651.00,1.8411
2650.00,1.8418
2649.00,1.8433
2648.00,1.8453
2647.00,1.8468
2646.00,1.8472
2645.00,1.8463
2644.00,1.8447
2643.00,1.8434
2642.00,1.8429
2641.00,1.8430
2640.00,1.8432
2639.00,1.8436
2638.00,1.8446
2637.00,1.8458
2636.00,1.8466
2635.00,1.8464
2634.00,1.8456
2633.00,1.8449
2632.00,1.8446
2631.00,1.8445
2630.00,1.8447
2629.00,1.8451
2628.00,1.8456
2627.00,1.8460
2626.00,1.8467
2625.00,1.8480
2624.00,1.8496
2623.00,1.8510
2622.00,1.8515
2621.00,1.8510
2620.00,1.8500
2619.00,1.8493
2618.00,1.8495
2617.00,1.8507
2616.00,1.8522
2615.00,1.8531
2614.00,1.8532
2613.00,1.8534
2612.00,1.8541
2611.00,1.8550
2610.00,1.8558
2609.00,1.8559
2608.00,1.8557
2607.00,1.8553
2606.00,1.8551
2605.00,1.8555
2604.00,1.8566
2603.00,1.8581
2602.00,1.8595
2601.00,1.8608
2600.00,1.8621
2599.00,1.8635
2598.00,1.8644
2597.00,1.8649
2596.00,1.8651
2595.00,1.8652
2594.00,1.8650
2593.00,1.8643
2592.00,1.8635
2591.00,1.8631
2590.00,1.8637
2589.00,1.8650
2588.00,1.8661
2587.00,1.8663
2586.00,1.8656
2585.00,1.8648
2584.00,1.8649
2583.00,1.8659
2582.00,1.8672
2581.00,1.8684
2580.00,1.8696
2579.00,1.8709
2578.00,1.8719
2577.00,1.8720
2576.00,1.8714
2575.00,1.8708
2574.00,1.8711
2573.00,1.8725
2572.00,1.8742
2571.00,1.8753
2570.00,1.8756
2569.00,1.8759
2568.00,1.8765
2567.00,1.8775
2566.00,1.8784
2565.00,1.8791
2564.00,1.8800
2563.00,1.8810
2562.00,1.8816
2561.00,1.8817
2560.00,1.8815
2559.00,1.8819
2558.00,1.8827
2557.00,1.8839
2556.00,1.8853
2555.00,1.8868
2554.00,1.8883
2553.00,1.8899
2552.00,1.8919
2551.00,1.8945
2550.00,1.8973
2549.00,1.8997
2548.00,1.9013
2547.00,1.9021
2546.00,1.9024
2545.00,1.9024
2544.00,1.9024
2543.00,1.9022
2542.00,1.9020
2541.00,1.9023
2540.00,1.9033
2539.00,1.9045
2538.00,1.9052
2537.00,1.9049
2536.00,1.9041
2535.00,1.9036
2534.00,1.9038
2533.00,1.9043
2532.00,1.9047
2531.00,1.9044
2530.00,1.9034
2529.00,1.9019
2528.00,1.9007
2527.00,1.9001
2526.00,1.8999
2525.00,1.8998
2524.00,1.9001
2523.00,1.9009
2522.00,1.9018
2521.00,1.9022
2520.00,1.9018
2519.00,1.9010
2518.00,1.8999
2517.00,1.8986
2516.00,1.8969
2515.00,1.8948
2514.00,1.8923
2513.00,1.8894
2512.00,1.8862
2511.00,1.8823
2510.00,1.8775
2509.00,1.8719
2508.00,1.8661
2507.00,1.8605
2506.00,1.8550
2505.00,1.8491
2504.00,1.8428
2503.00,1.8367
2502.00,1.8313
2501.00,1.8268
2500.00,1.8231
2499.00,1.8197
2498.00,1.8159
2497.00,1.8118
2496.00,1.8080
2495.00,1.8052
2494.00,1.8034
2493.00,1.8014
2492.00,1.7986
2491.00,1.7956
2490.00,1.7932
2489.00,1.7919
2488.00,1.7913
2487.00,1.7910
2486.00,1.7907
2485.00,1.7904
2484.00,1.7900
2483.00,1.7897
2482.00,1.7892
2481.00,1.7881
2480.00,1.7863
2479.00,1.7840
2478.00,1.7819
2477.00,1.7809
2476.00,1.7812
2475.00,1.7820
2474.00,1.7823
2473.00,1.7813
2472.00,1.7797
2471.00,1.7784
2470.00,1.7775
2469.00,1.7766
2468.00,1.7753
2467.00,1.7739
2466.00,1.7732
2465.00,1.7731
2464.00,1.7731
2463.00,1.7728
2462.00,1.7720
2461.00,1.7711
2460.00,1.7703
2459.00,1.7698
2458.00,1.7690
2457.00,1.7677
2456.00,1.7662
2455.00,1.7650
2454.00,1.7645
2453.00,1.7645
2452.00,1.7642
2451.00,1.7633
2450.00,1.7619
2449.00,1.7604
2448.00,1.7590
2447.00,1.7578
2446.00,1.7567
2445.00,1.7560
2444.00,1.7558
2443.00,1.7558
2442.00,1.7559
2441.00,1.7557
2440.00,1.7554
2439.00,1.7549
2438.00,1.7546
2437.00,1.7547
2436.00,1.7554
2435.00,1.7563
2434.00,1.7570
2433.00,1.7571
2432.00,1.7569
2431.00,1.7567
2430.00,1.7566
2429.00,1.7566
2428.00,1.7568
2427.00,1.7575
2426.00,1.7587
2425.00,1.7602
2424.00,1.7615
2423.00,1.7628
2422.00,1.7639
2421.00,1.7651
2420.00,1.7666
2419.00,1.7687
2418.00,1.7710
2417.00,1.7730
2416.00,1.7748
2415.00,1.7772
2414.00,1.7804
2413.00,1.7838
2412.00,1.7868
2411.00,1.7892
2410.00,1.7910
2409.00,1.7924
2408.00,1.7930
2407.00,1.7928
2406.00,1.7923
2405.00,1.7923
2404.00,1.7931
2403.00,1.7941
2402.00,1.7946
2401.00,1.7943
2400.00,1.7934
2399.00,1.7927
2398.00,1.7929
2397.00,1.7939
2396.00,1.7951
2395.00,1.7960
2394.00,1.7964
2393.00,1.7967
2392.00,1.7971
2391.00,1.7974
2390.00,1.7977
2389.00,1.7981
2388.00,1.7983
2387.00,1.7983
2386.00,1.7977
2385.00,1.7970
2384.00,1.7963
2383.00,1.7957
2382.00,1.7954
2381.00,1.7960
2380.00,1.7977
2379.00,1.8006
2378.00,1.8038
2377.00,1.8067
2376.00,1.8088
2375.00,1.8095
2374.00,1.8090
2373.00,1.8086
2372.00,1.8095
2371.00,1.8115
2370.00,1.8130
2369.00,1.8129
2368.00,1.8119
2367.00,1.8112
2366.00,1.8110
2365.00,1.8112
2364.00,1.8121
2363.00,1.8140
2362.00,1.8168
2361.00,1.8203
2360.00,1.8248
2359.00,1.8296
2358.00,1.8339
2357.00,1.8363
2356.00,1.8370
2355.00,1.8359
2354.00,1.8325
2353.00,1.8290
2352.00,1.8282
2351.00,1.8317
2350.00,1.8366
2349.00,1.8380
2348.00,1.8345
2347.00,1.8286
2346.00,1.8252
2345.00,1.8265
2344.00,1.8309
2343.00,1.8357
2342.00,1.8388
2341.00,1.8406
2340.00,1.8422
2339.00,1.8444
2338.00,1.8464
2337.00,1.8478
2336.00,1.8492
2335.00,1.8515
2334.00,1.8539
2333.00,1.8556
2332.00,1.8559
2331.00,1.8552
2330.00,1.8545
2329.00,1.8536
2328.00,1.8524
2327.00,1.8506
2326.00,1.8484
2325.00,1.8465
2324.00,1.8452
2323.00,1.8443
2322.00,1.8430
2321.00,1.8414
2320.00,1.8401
2319.00,1.8395
2318.00,1.8387
2317.00,1.8366
2316.00,1.8335
2315.00,1.8301
2314.00,1.8268
2313.00,1.8232
2312.00,1.8197
2311.00,1.8166
2310.00,1.8138
2309.00,1.8109
2308.00,1.8080
2307.00,1.8055
2306.00,1.8036
2305.00,1.8017
2304.00,1.7994
2303.00,1.7968
2302.00,1.7938
2301.00,1.7907
2300.00,1.7878
2299.00,1.7857
2298.00,1.7843
2297.00,1.7832
2296.00,1.7820
2295.00,1.7807
2294.00,1.7790
2293.00,1.7766
2292.00,1.7738
2291.00,1.7714
2290.00,1.7699
2289.00,1.7691
2288.00,1.7686
2287.00,1.7680
2286.00,1.7672
2285.00,1.7661
2284.00,1.7646
2283.00,1.7631
2282.00,1.7621
2281.00,1.7616
2280.00,1.7618
2279.00,1.7625
2278.00,1.7633
2277.00,1.7633
2276.00,1.7624
2275.00,1.7613
2274.00,1.7605
2273.00,1.7600
2272.00,1.7594
2271.00,1.7583
2270.00,1.7569
2269.00,1.7553
2268.00,1.7541
2267.00,1.7534
2266.00,1.7529
2265.00,1.7520
2264.00,1.7504
2263.00,1.7489
2262.00,1.7477
2261.00,1.7470
2260.00,1.7466
2259.00,1.7464
2258.00,1.7461
2257.00,1.7452
2256.00,1.7434
2255.00,1.7409
2254.00,1.7383
2253.00,1.7358
2252.00,1.7336
2251.00,1.7318
2250.00,1.7301
2249.00,1.7283
2248.00,1.7265
2247.00,1.7248
2246.00,1.7230
2245.00,1.7204
2244.00,1.7171
2243.00,1.7138
2242.00,1.7115
2241.00,1.7098
2240.00,1.7079
2239.00,1.7055
2238.00,1.7030
2237.00,1.7006
2236.00,1.6983
2235.00,1.6962
2234.00,1.6947
2233.00,1.6939
2232.00,1.6932
2231.00,1.6925
2230.00,1.6919
2229.00,1.6917
2228.00,1.6913
2227.00,1.6903
2226.00,1.6886
2225.00,1.6866
2224.00,1.6850
2223.00,1.6841
2222.00,1.6836
2221.00,1.6833
2220.00,1.6828
2219.00,1.6823
2218.00,1.6820
2217.00,1.6813
2216.00,1.6800
2215.00,1.6782
2214.00,1.6766
2213.00,1.6754
2212.00,1.6745
2211.00,1.6732
2210.00,1.6716
2209.00,1.6700
2208.00,1.6688
2207.00,1.6681
2206.00,1.6673
2205.00,1.6660
2204.00,1.6640
2203.00,1.6617
2202.00,1.6595
2201.00,1.6576
2200.00,1.6559
2199.00,1.6547
2198.00,1.6541
2197.00,1.6537
2196.00,1.6533
2195.00,1.6530
2194.00,1.6529
2193.00,1.6531
2192.00,1.6533
2191.00,1.6535
2190.00,1.6538
2189.00,1.6539
2188.00,1.6535
2187.00,1.6526
2186.00,1.6516
2185.00,1.6513
2184.00,1.6518
2183.00,1.6526
2182.00,1.6532
2181.00,1.6531
2180.00,1.6523
2179.00,1.6509
2178.00,1.6493
2177.00,1.6483
2176.00,1.6483
2175.00,1.6492
2174.00,1.6506
2173.00,1.6519
2172.00,1.6527
2171.00,1.6533
2170.00,1.6538
2169.00,1.6544
2168.00,1.6548
2167.00,1.6546
2166.00,1.6539
2165.00,1.6535
2164.00,1.6537
2163.00,1.6542
2162.00,1.6544
2161.00,1.6537
2160.00,1.6521
2159.00,1.6502
2158.00,1.6484
2157.00,1.6469
2156.00,1.6454
2155.00,1.6439
2154.00,1.6428
2153.00,1.6424
2152.00,1.6424
2151.00,1.6423
2150.00,1.6416
2149.00,1.6405
2148.00,1.6392
2147.00,1.6380
2146.00,1.6368
2145.00,1.6355
2144.00,1.6342
2143.00,1.6330
2142.00,1.6321
2141.00,1.6315
2140.00,1.6311
2139.00,1.6309
2138.00,1.6305
2137.00,1.6295
2136.00,1.6282
2135.00,1.6270
2134.00,1.6263
2133.00,1.6259
2132.00,1.6254
2131.00,1.6246
2130.00,1.6239
2129.00,1.6232
2128.00,1.6222
2127.00,1.6209
2126.00,1.6194
2125.00,1.6180
2124.00,1.6167
2123.00,1.6154
2122.00,1.6140
2121.00,1.6124
2120.00,1.6108
2119.00,1.6093
2118.00,1.6080
2117.00,1.6072
2116.00,1.6065
2115.00,1.6059
2114.00,1.6048
2113.00,1.6032
2112.00,1.6014
2111.00,1.5997
2110.00,1.5983
2109.00,1.5968
2108.00,1.5953
2107.00,1.5937
2106.00,1.5923
2105.00,1.5914
2104.00,1.5907
2103.00,1.5901
2102.00,1.5891
2101.00,1.5875
2100.00,1.5857
2099.00,1.5839
2098.00,1.5824
2097.00,1.5810
2096.00,1.5793
2095.00,1.5774
2094.00,1.5758
2093.00,1.5745
2092.00,1.5735
2091.00,1.5724
2090.00,1.5715
2089.00,1.5709
2088.00,1.5706
2087.00,1.5705
2086.00,1.5701
2085.00,1.5693
2084.00,1.5682
2083.00,1.5669
2082.00,1.5660
2081.00,1.5655
2080.00,1.5652
2079.00,1.5648
2078.00,1.5642
2077.00,1.5636
2076.00,1.5631
2075.00,1.5626
2074.00,1.5618
2073.00,1.5611
2072.00,1.5608
2071.00,1.5606
2070.00,1.5606
2069.00,1.5606
2068.00,1.5605
2067.00,1.5601
2066.00,1.5596
2065.00,1.5589
2064.00,1.5584
2063.00,1.5582
2062.00,1.5580
2061.00,1.5577
2060.00,1.5571
2059.00,1.5565
2058.00,1.5557
2057.00,1.5549
2056.00,1.5540
2055.00,1.5532
2054.00,1.5524
2053.00,1.5513
2052.00,1.5497
2051.00,1.5480
2050.00,1.5465
2049.00,1.5451
2048.00,1.5437
2047.00,1.5422
2046.00,1.5404
2045.00,1.5387
2044.00,1.5370
2043.00,1.5356
2042.00,1.5343
2041.00,1.5330
2040.00,1.5317
2039.00,1.5303
2038.00,1.5286
2037.00,1.5269
2036.00,1.5256
2035.00,1.5251
2034.00,1.5250
2033.00,1.5246
2032.00,1.5236
2031.00,1.5222
2030.00,1.5212
2029.00,1.5206
2028.00,1.5202
2027.00,1.5201
2026.00,1.5202
2025.00,1.5204
2024.00,1.5201
2023.00,1.5194
2022.00,1.5188
2021.00,1.5188
2020.00,1.5191
2019.00,1.5194
2018.00,1.5193
2017.00,1.5192
2016.00,1.5193
2015.00,1.5198
2014.00,1.5205
2013.00,1.5211
2012.00,1.5213
2011.00,1.5212
2010.00,1.5206
2009.00,1.5198
2008.00,1.5191
2007.00,1.5185
2006.00,1.5181
2005.00,1.5178
2004.00,1.5177
2003.00,1.5182
2002.00,1.5190
2001.00,1.5198
2000.00,1.5198
1999.00,1.5191
1998.00,1.5179
1997.00,1.5165
1996.00,1.5153
1995.00,1.5144
1994.00,1.5139
1993.00,1.5139
1992.00,1.5144
1991.00,1.5154
1990.00,1.5162
1989.00,1.5165
1988.00,1.5163
1987.00,1.5158
1986.00,1.5154
1985.00,1.5152
1984.00,1.5149
1983.00,1.5146
1982.00,1.5144
1981.00,1.5146
1980.00,1.5152
1979.00,1.5161
1978.00,1.5172
1977.00,1.5181
1976.00,1.5185
1975.00,1.5186
1974.00,1.5183
1973.00,1.5180
1972.00,1.5181
1971.00,1.5187
1970.00,1.5193
1969.00,1.5193
1968.00,1.5189
1967.00,1.5183
1966.00,1.5176
1965.00,1.5166
1964.00,1.5151
1963.00,1.5137
1962.00,1.5125
1961.00,1.5117
1960.00,1.5108
1959.00,1.5099
1958.00,1.5086
1957.00,1.5069
1956.00,1.5048
1955.00,1.5026
1954.00,1.5005
1953.00,1.4984
1952.00,1.4963
1951.00,1.4940
1950.00,1.4917
1949.00,1.4897
1948.00,1.4882
1947.00,1.4872
1946.00,1.4862
1945.00,1.4848
1944.00,1.4834
1943.00,1.4823
1942.00,1.4815
1941.00,1.4805
1940.00,1.4789
1939.00,1.4771
1938.00,1.4753
1937.00,1.4734
1936.00,1.4714
1935.00,1.4695
1934.00,1.4679
1933.00,1.4666
1932.00,1.4655
1931.00,1.4643
1930.00,1.4630
1929.00,1.4617
1928.00,1.4603
1927.00,1.4587
1926.00,1.4571
1925.00,1.4557
1924.00,1.4545
1923.00,1.4531
1922.00,1.4513
1921.00,1.4490
1920.00,1.4467
1919.00,1.4445
1918.00,1.4428
1917.00,1.4415
1916.00,1.4401
1915.00,1.4383
1914.00,1.4360
1913.00,1.4335
1912.00,1.4310
1911.00,1.4289
1910.00,1.4271
1909.00,1.4253
1908.00,1.4232
1907.00,1.4206
1906.00,1.4175
1905.00,1.4144
1904.00,1.4115
1903.00,1.4088
1902.00,1.4062
1901.00,1.4038
1900.00,1.4016
1899.00,1.3998
1898.00,1.3980
1897.00,1.3963
1896.00,1.3944
1895.00,1.3926
1894.00,1.3908
1893.00,1.3890
1892.00,1.3871
1891.00,1.3854
1890.00,1.3837
1889.00,1.3821
1888.00,1.3805
1887.00,1.3790
1886.00,1.3775
1885.00,1.3760
1884.00,1.3744
1883.00,1.3725
1882.00,1.3707
1881.00,1.3692
1880.00,1.3680
1879.00,1.3670
1878.00,1.3659
1877.00,1.3646
1876.00,1.3628
1875.00,1.3607
1874.00,1.3583
1873.00,1.3560
1872.00,1.3538
1871.00,1.3519
1870.00,1.3504
1869.00,1.3494
1868.00,1.3486
1867.00,1.3476
1866.00,1.3458
1865.00,1.3433
1864.00,1.3403
1863.00,1.3376
1862.00,1.3352
1861.00,1.3333
1860.00,1.3314
1859.00,1.3291
1858.00,1.3265
1857.00,1.3238
1856.00,1.3211
1855.00,1.3185
1854.00,1.3160
1853.00,1.3133
1852.00,1.3104
1851.00,1.3074
1850.00,1.3046
1849.00,1.3020
1848.00,1.2994
1847.00,1.2970
1846.00,1.2951
1845.00,1.2938
1844.00,1.2926
1843.00,1.2912
1842.00,1.2896
1841.00,1.2876
1840.00,1.2852
1839.00,1.2827
1838.00,1.2801
1837.00,1.2778
1836.00,1.2757
1835.00,1.2735
1834.00,1.2712
1833.00,1.2691
1832.00,1.2673
1831.00,1.2658
1830.00,1.2645
1829.00,1.2633
1828.00,1.2623
1827.00,1.2615
1826.00,1.2607
1825.00,1.2598
1824.00,1.2588
1823.00,1.2578
1822.00,1.2566
1821.00,1.2553
1820.00,1.2541
1819.00,1.2533
1818.00,1.2528
1817.00,1.2524
1816.00,1.2518
1815.00,1.2509
1814.00,1.2497
1813.00,1.2483
1812.00,1.2469
1811.00,1.2455
1810.00,1.2444
1809.00,1.2434
1808.00,1.2421
1807.00,1.2402
1806.00,1.2378
1805.00,1.2353
1804.00,1.2328
1803.00,1.2303
1802.00,1.2280
1801.00,1.2259
1800.00,1.2242
1799.00,1.2225
1798.00,1.2205
1797.00,1.2182
1796.00,1.2155
1795.00,1.2130
1794.00,1.2108
1793.00,1.2093
1792.00,1.2083
1791.00,1.2076
1790.00,1.2065
1789.00,1.2047
1788.00,1.2023
1787.00,1.1995
1786.00,1.1967
1785.00,1.1942
1784.00,1.1922
1783.00,1.1906
1782.00,1.1890
1781.00,1.1873
1780.00,1.1852
1779.00,1.1831
1778.00,1.1810
1777.00,1.1787
1776.00,1.1761
1775.00,1.1736
1774.00,1.1716
1773.00,1.1698
1772.00,1.1684
1771.00,1.1673
1770.00,1.1663
1769.00,1.1650
1768.00,1.1628
1767.00,1.1599
1766.00,1.1568
1765.00,1.1538
1764.00,1.1512
1763.00,1.1490
1762.00,1.1471
1761.00,1.1454
1760.00,1.1440
1759.00,1.1429
1758.00,1.1419
1757.00,1.1405
1756.00,1.1389
1755.00,1.1375
1754.00,1.1362
1753.00,1.1352
1752.00,1.1344
1751.00,1.1343
1750.00,1.1349
1749.00,1.1356
1748.00,1.1358
1747.00,1.1353
1746.00,1.1346
1745.00,1.1339
1744.00,1.1334
1743.00,1.1328
1742.00,1.1323
1741.00,1.1322
1740.00,1.1320
1739.00,1.1315
1738.00,1.1305
1737.00,1.1295
1736.00,1.1288
1735.00,1.1283
1734.00,1.1282
1733.00,1.1287
1732.00,1.1291
1731.00,1.1284
1730.00,1.1263
1729.00,1.1236
1728.00,1.1210
1727.00,1.1188
1726.00,1.1170
1725.00,1.1155
1724.00,1.1142
1723.00,1.1125
1722.00,1.1106
1721.00,1.1085
1720.00,1.1067
1719.00,1.1052
1718.00,1.1041
1717.00,1.1044
1716.00,1.1057
1715.00,1.1064
1714.00,1.1058
1713.00,1.1045
1712.00,1.1031
1711.00,1.1016
1710.00,1.1001
1709.00,1.0990
1708.00,1.0987
1707.00,1.0992
1706.00,1.0999
1705.00,1.1001
1704.00,1.0997
1703.00,1.0988
1702.00,1.0988
1701.00,1.1001
1700.00,1.1019
1699.00,1.1034
1698.00,1.1043
1697.00,1.1053
1696.00,1.1066
1695.00,1.1081
1694.00,1.1097
1693.00,1.1105
1692.00,1.1103
1691.00,1.1096
1690.00,1.1092
1689.00,1.1092
1688.00,1.1087
1687.00,1.1080
1686.00,1.1082
1685.00,1.1107
1684.00,1.1151
1683.00,1.1197
1682.00,1.1229
1681.00,1.1241
1680.00,1.1240
1679.00,1.1235
1678.00,1.1236
1677.00,1.1247
1676.00,1.1271
1675.00,1.1304
1674.00,1.1336
1673.00,1.1358
1672.00,1.1373
1671.00,1.1393
1670.00,1.1431
1669.00,1.1485
1668.00,1.1536
1667.00,1.1570
1666.00,1.1586
1665.00,1.1597
1664.00,1.1619
1663.00,1.1657
1662.00,1.1707
1661.00,1.1758
1660.00,1.1799
1659.00,1.1830
1658.00,1.1850
1657.00,1.1855
1656.00,1.1851
1655.00,1.1864
1654.00,1.1931
1653.00,1.2066
1652.00,1.2211
1651.00,1.2289
1650.00,1.2301
1649.00,1.2292
1648.00,1.2305
1647.00,1.2363
1646.00,1.2452
1645.00,1.2542
1644.00,1.2605
1643.00,1.2641
1642.00,1.2665
1641.00,1.2690
1640.00,1.2716
1639.00,1.2737
1638.00,1.2761
1637.00,1.2808
1636.00,1.2897
1635.00,1.3008
1634.00,1.3098
1633.00,1.3148
1632.00,1.3168
1631.00,1.3181
1630.00,1.3205
1629.00,1.3250
1628.00,1.3310
1627.00,1.3367
1626.00,1.3416
1625.00,1.3466
1624.00,1.3532
1623.00,1.3620
1622.00,1.3712
1621.00,1.3784
1620.00,1.3830
1619.00,1.3873
1618.00,1.3951
1617.00,1.4095
1616.00,1.4287
1615.00,1.4478
1614.00,1.4639
1613.00,1.4787
1612.00,1.4951
1611.00,1.5143
1610.00,1.5358
1609.00,1.5585
1608.00,1.5816
1607.00,1.6048
1606.00,1.6281
1605.00,1.6517
1604.00,1.6759
1603.00,1.7002
1602.00,1.7238
1601.00,1.7465
1600.00,1.7687
1599.00,1.7907
1598.00,1.8124
1597.00,1.8346
1596.00,1.8575
1595.00,1.8805
1594.00,1.9035
1593.00,1.9272
1592.00,1.9519
1591.00,1.9758
1590.00,1.9983
1589.00,2.0203
1588.00,2.0428
1587.00,2.0651
1586.00,2.0872
1585.00,2.1104
1584.00,2.1349
1583.00,2.1594
1582.00,2.1826
1581.00,2.2052
1580.00,2.2268
1579.00,2.2459
1578.00,2.2648
1577.00,2.2903
1576.00,2.3244
1575.00,2.3573
1574.00,2.3796
1573.00,2.3944
1572.00,2.4101
1571.00,2.4306
1570.00,2.4565
1569.00,2.4867
1568.00,2.5178
1567.00,2.5459
1566.00,2.5726
1565.00,2.6025
1564.00,2.6332
1563.00,2.6548
1562.00,2.6663
1561.00,2.6818
1560.00,2.7128
1559.00,2.7464
1558.00,2.7620
1557.00,2.7694
1556.00,2.7864
1555.00,2.8123
1554.00,2.8412
1553.00,2.8744
1552.00,2.9129
1551.00,2.9462
1550.00,2.9664
1549.00,2.9820
1548.00,3.0041
1547.00,3.0278
1546.00,3.0445
1545.00,3.0610
1544.00,3.0872
1543.00,3.1143
1542.00,3.1310
1541.00,3.1555
1540.00,3.2059
1539.00,3.2466
1538.00,3.2332
1537.00,3.1950
1536.00,3.1759
1535.00,3.1880
1534.00,3.2261
1533.00,3.2855
1532.00,3.3554
1531.00,3.3940
1530.00,3.3750
1529.00,3.3359
1528.00,3.3094
1527.00,3.2964
1526.00,3.2955
1525.00,3.3109
1524.00,3.3337
1523.00,3.3365
1522.00,3.3180
1521.00,3.3203
1520.00,3.3707
1519.00,3.4473
1518.00,3.5030
1517.00,3.5161
1516.00,3.5028
1515.00,3.4867
1514.00,3.4841
1513.00,3.5026
1512.00,3.5253
1511.00,3.5146
1510.00,3.4633
1509.00,3.4117
1508.00,3.3895
1507.00,3.3918
1506.00,3.4091
1505.00,3.4422
1504.00,3.4733
1503.00,3.4603
1502.00,3.3969
1501.00,3.3286
1500.00,3.2972
1499.00,3.3156
1498.00,3.3877
1497.00,3.5049
1496.00,3.5932
1495.00,3.6298
1494.00,3.6655
1493.00,3.6277
1492.00,3.5432
1491.00,3.5186
1490.00,3.5775
1489.00,3.6509
1488.00,3.6353
1487.00,3.5786
1486.00,3.5447
1485.00,3.5446
1484.00,3.5548
1483.00,3.5435
1482.00,3.5355
1481.00,3.5704
1480.00,3.6739
1479.00,3.8182
1478.00,3.9750
1477.00,4.0367
1476.00,3.7933
1475.00,3.5807
1474.00,3.4951
1473.00,3.4916
1472.00,3.5364
1471.00,3.5884
1470.00,3.6414
1469.00,3.7220
1468.00,3.8718
1467.00,3.9711
1466.00,4.0739
1465.00,4.4770
1464.00,4.1173
1463.00,3.7637
1462.00,3.6455
1461.00,3.6041
1460.00,3.6059
1459.00,3.6340
1458.00,3.6855
1457.00,3.7715
1456.00,3.9004
1455.00,3.9942
1454.00,3.9598
1453.00,3.8450
1452.00,3.7282
1451.00,3.6673
1450.00,3.7081
1449.00,3.9009
1448.00,4.1495
1447.00,4.2110
1446.00,4.0968
1445.00,3.8957
1444.00,3.8118
1443.00,3.7911
1442.00,3.7684
1441.00,3.7403
1440.00,3.6997
1439.00,3.6921
1438.00,3.7938
1437.00,4.1797
1436.00,4.2920
1435.00,3.8728
1434.00,3.7345
1433.00,3.6840
1432.00,3.7196
1431.00,3.8565
1430.00,3.9882
1429.00,4.0370
1428.00,3.9734
1427.00,3.9036
1426.00,3.9008
1425.00,3.8471
1424.00,3.7538
1423.00,3.7394
1422.00,3.7845
1421.00,3.8410
1420.00,3.8684
1419.00,3.8567
1418.00,3.8412
1417.00,3.8340
1416.00,3.8748
1415.00,3.9581
1414.00,3.9171
1413.00,3.8028
1412.00,3.7526
1411.00,3.8342
1410.00,4.2018
1409.00,4.2231
1408.00,3.8549
1407.00,3.7593
1406.00,3.7377
1405.00,3.7268
1404.00,3.7490
1403.00,3.8222
1402.00,3.9254
1401.00,3.9268
1400.00,3.8478
1399.00,3.7930
1398.00,3.7616
1397.00,3.7061
1396.00,3.5976
1395.00,3.4696
1394.00,3.3913
1393.00,3.3974
1392.00,3.4793
1391.00,3.6022
1390.00,3.7200
1389.00,3.7935
1388.00,3.8188
1387.00,3.8770
1386.00,3.9978
1385.00,4.1049
1384.00,4.1428
1383.00,4.3206
1382.00,4.8486
1381.00,4.4406
1380.00,4.2540
1379.00,4.1750
1378.00,3.9951
1377.00,3.9686
1376.00,4.0511
1375.00,4.1249
1374.00,4.0602
1373.00,4.0121
1372.00,4.1115
1371.00,4.2307
1370.00,4.1966
1369.00,3.9291
1368.00,3.7202
1367.00,3.6283
1366.00,3.5822
1365.00,3.5354
1364.00,3.4727
1363.00,3.4068
1362.00,3.3616
1361.00,3.3503
1360.00,3.3580
1359.00,3.3553
1358.00,3.3403
1357.00,3.3347
1356.00,3.3400
1355.00,3.3277
1354.00,3.2825
1353.00,3.2331
1352.00,3.2069
1351.00,3.2004
1350.00,3.1987
1349.00,3.1985
1348.00,3.1995
1347.00,3.1874
1346.00,3.1537
1345.00,3.1231
1344.00,3.1213
1343.00,3.1446
1342.00,3.1683
1341.00,3.1709
1340.00,3.1475
1339.00,3.1062
1338.00,3.0630
1337.00,3.0361
1336.00,3.0335
1335.00,3.0439
1334.00,3.0480
1333.00,3.0379
1332.00,3.0188
1331.00,3.0000
1330.00,2.9915
1329.00,3.0008
1328.00,3.0312
1327.00,3.0758
1326.00,3.1166
1325.00,3.1414
1324.00,3.1584
1323.00,3.1808
1322.00,3.2055
1321.00,3.2225
1320.00,3.2341
1319.00,3.2512
1318.00,3.2890
1317.00,3.3653
1316.00,3.4861
1315.00,3.6218
1314.00,3.6998
1313.00,3.6920
1312.00,3.6449
1311.00,3.5838
1310.00,3.5234
1309.00,3.4942
1308.00,3.5231
1307.00,3.5902
1306.00,3.6061
1305.00,3.5230
1304.00,3.4134
1303.00,3.3428
1302.00,3.3263
1301.00,3.3484
1300.00,3.3787
1299.00,3.3960
1298.00,3.4049
1297.00,3.4200
1296.00,3.4441
1295.00,3.4602
1294.00,3.4595
1293.00,3.4434
1292.00,3.4129
1291.00,3.3795
1290.00,3.3532
1289.00,3.3367
1288.00,3.3277
1287.00,3.3188
1286.00,3.3085
1285.00,3.3066
1284.00,3.3127
1283.00,3.3069
1282.00,3.2878
1281.00,3.2831
1280.00,3.3103
1279.00,3.3608
1278.00,3.4210
1277.00,3.5001
1276.00,3.6048
1275.00,3.7034
1274.00,3.7857
1273.00,3.8723
1272.00,3.8858
1271.00,3.7569
1270.00,3.5858
1269.00,3.4851
1268.00,3.4724
1267.00,3.4983
1266.00,3.5016
1265.00,3.4867
1264.00,3.5096
1263.00,3.5965
1262.00,3.7033
1261.00,3.7337
1260.00,3.7383
1259.00,3.8370
1258.00,4.1231
1257.00,4.4715
1256.00,4.1900
1255.00,3.9950
1254.00,3.9744
1253.00,4.1196
1252.00,4.0393
1251.00,3.7092
1250.00,3.5506
1249.00,3.5013
1248.00,3.4831
1247.00,3.4656
1246.00,3.4736
1245.00,3.5630
1244.00,3.7697
1243.00,4.1613
1242.00,4.7376
1241.00,4.3921
1240.00,4.0310
1239.00,3.8692
1238.00,3.8273
1237.00,3.9563
1236.00,4.2499
1235.00,3.9934
1234.00,3.7494
1233.00,3.6868
1232.00,3.7213
1231.00,3.7633
1230.00,3.6875
1229.00,3.6119
1228.00,3.6401
1227.00,3.7635
1226.00,3.8120
1225.00,3.6489
1224.00,3.4276
1223.00,3.2662
1222.00,3.2085
1221.00,3.2471
1220.00,3.3298
1219.00,3.3942
1218.00,3.4126
1217.00,3.3728
1216.00,3.3044
1215.00,3.2362
1214.00,3.1834
1213.00,3.1645
1212.00,3.1844
1211.00,3.2198
1210.00,3.2273
1209.00,3.2059
1208.00,3.1960
1207.00,3.2071
1206.00,3.2226
1205.00,3.2451
1204.00,3.2944
1203.00,3.3725
1202.00,3.4598
1201.00,3.5183
1200.00,3.4919
1199.00,3.3935
1198.00,3.3090
1197.00,3.2898
1196.00,3.3388
1195.00,3.4201
1194.00,3.4889
1193.00,3.5493
1192.00,3.5305
1191.00,3.3901
1190.00,3.2838
1189.00,3.2788
1188.00,3.4062
1187.00,3.7034
1186.00,4.0224
1185.00,4.0061
1184.00,3.7611
1183.00,3.5176
1182.00,3.3748
1181.00,3.3091
1180.00,3.3048
1179.00,3.3575
1178.00,3.4582
1177.00,3.5944
1176.00,3.7064
1175.00,3.7259
1174.00,3.7083
1173.00,3.7775
1172.00,3.7991
1171.00,3.5588
1170.00,3.3853
1169.00,3.3467
1168.00,3.4120
1167.00,3.5242
1166.00,3.5759
1165.00,3.5552
1164.00,3.5286
1163.00,3.5079
1162.00,3.5099
1161.00,3.5602
1160.00,3.6120
1159.00,3.6341
1158.00,3.6388
1157.00,3.6022
1156.00,3.5265
1155.00,3.4406
1154.00,3.3606
1153.00,3.3144
1152.00,3.3310
1151.00,3.4560
1150.00,3.7073
1149.00,3.6972
1148.00,3.5256
1147.00,3.5091
1146.00,3.6092
1145.00,3.7704
1144.00,3.6969
1143.00,3.5064
1142.00,3.4432
1141.00,3.4652
1140.00,3.5157
1139.00,3.5710
1138.00,3.6159
1137.00,3.6628
1136.00,3.7159
1135.00,3.8113
1134.00,3.9126
1133.00,3.6779
1132.00,3.4404
1131.00,3.3799
1130.00,3.4932
1129.00,3.8338
1128.00,4.5440
1127.00,4.3767
1126.00,3.8662
1125.00,3.6763
1124.00,3.6339
1123.00,3.6545
1122.00,3.7205
1121.00,3.7907
1120.00,3.7940
1119.00,3.6636
1118.00,3.4495
1117.00,3.2949
1116.00,3.2472
1115.00,3.2960
1114.00,3.3903
1113.00,3.4917
1112.00,3.5609
1111.00,3.4133
1110.00,3.2033
1109.00,3.0772
1108.00,3.0219
1107.00,3.0074
1106.00,3.0062
1105.00,3.0008
1104.00,2.9905
1103.00,2.9864
1102.00,2.9997
1101.00,3.0277
1100.00,3.0469
1099.00,3.0463
1098.00,3.0288
1097.00,2.9818
1096.00,2.9077
1095.00,2.8367
1094.00,2.7994
1093.00,2.7980
1092.00,2.7987
1091.00,2.7642
1090.00,2.7063
1089.00,2.6644
1088.00,2.6566
1087.00,2.6696
1086.00,2.6747
1085.00,2.6547
1084.00,2.6145
1083.00,2.5684
1082.00,2.5301
1081.00,2.5062
1080.00,2.4932
1079.00,2.4821
1078.00,2.4681
1077.00,2.4521
1076.00,2.4332
1075.00,2.4082
1074.00,2.3801
1073.00,2.3583
1072.00,2.3488
1071.00,2.3472
1070.00,2.3439
1069.00,2.3342
1068.00,2.3204
1067.00,2.3067
1066.00,2.2954
1065.00,2.2867
1064.00,2.2767
1063.00,2.2618
1062.00,2.2447
1061.00,2.2328
1060.00,2.2300
1059.00,2.2313
1058.00,2.2286
1057.00,2.2203
1056.00,2.2120
1055.00,2.2092
1054.00,2.2121
1053.00,2.2177
1052.00,2.2225
1051.00,2.2230
1050.00,2.2183
1049.00,2.2116
1048.00,2.2087
1047.00,2.2115
1046.00,2.2155
1045.00,2.2132
1044.00,2.2019
1043.00,2.1868
1042.00,2.1760
1041.00,2.1725
1040.00,2.1719
1039.00,2.1682
1038.00,2.1612
1037.00,2.1552
1036.00,2.1527
1035.00,2.1515
1034.00,2.1474
1033.00,2.1391
1032.00,2.1292
1031.00,2.1229
1030.00,2.1249
1029.00,2.1359
1028.00,2.1518
1027.00,2.1656
1026.00,2.1723
1025.00,2.1703
1024.00,2.1609
1023.00,2.1479
1022.00,2.1388
1021.00,2.1393
1020.00,2.1491
1019.00,2.1620
1018.00,2.1729
1017.00,2.1817
1016.00,2.1906
1015.00,2.2011
1014.00,2.2156
1013.00,2.2370
1012.00,2.2643
1011.00,2.2914
1010.00,2.3152
1009.00,2.3415
1008.00,2.3794
1007.00,2.4325
1006.00,2.4970
1005.00,2.5669
1004.00,2.6360
1003.00,2.7004
1002.00,2.7660
1001.00,2.8459
1000.00,2.9326
999.00,2.9838
998.00,2.9744
997.00,2.9422
996.00,2.9345
995.00,2.9586
994.00,2.9917
993.00,3.0170
992.00,3.0425
991.00,3.0756
990.00,3.1133
989.00,3.1607
988.00,3.2240
987.00,3.2878
986.00,3.3248
985.00,3.3504
984.00,3.4026
983.00,3.4568
982.00,3.4440
981.00,3.3661
980.00,3.2733
979.00,3.1840
978.00,3.0896
977.00,2.9935
976.00,2.9045
975.00,2.8175
974.00,2.7268
973.00,2.6415
972.00,2.5739
971.00,2.5257
970.00,2.4881
969.00,2.4501
968.00,2.4062
967.00,2.3574
966.00,2.3081
965.00,2.2634
964.00,2.2256
963.00,2.1924
962.00,2.1599
961.00,2.1260
960.00,2.0926
959.00,2.0623
958.00,2.0368
957.00,2.0162
956.00,1.9987
955.00,1.9818
954.00,1.9642
953.00,1.9469
952.00,1.9328
951.00,1.9230
950.00,1.9164
949.00,1.9109
948.00,1.9054
947.00,1.9002
946.00,1.8949
945.00,1.8887
944.00,1.8815
943.00,1.8736
942.00,1.8658
941.00,1.8592
940.00,1.8544
939.00,1.8513
938.00,1.8493
937.00,1.8476
936.00,1.8454
935.00,1.8425
934.00,1.8395
933.00,1.8369
932.00,1.8343
931.00,1.8308
930.00,1.8264
929.00,1.8222
928.00,1.8189
927.00,1.8160
926.00,1.8127
925.00,1.8096
924.00,1.8079
923.00,1.8078
922.00,1.8080
921.00,1.8072
920.00,1.8046
919.00,1.7988
918.00,1.7896
917.00,1.7789
916.00,1.7694
915.00,1.7618
914.00,1.7541
913.00,1.7444
912.00,1.7336
911.00,1.7243
910.00,1.7181
909.00,1.7138
908.00,1.7092
907.00,1.7030
906.00,1.6960
905.00,1.6898
904.00,1.6846
903.00,1.6794
902.00,1.6733
901.00,1.6672
900.00,1.6622
899.00,1.6580
898.00,1.6534
897.00,1.6481
896.00,1.6425
895.00,1.6367
894.00,1.6306
893.00,1.6240
892.00,1.6174
891.00,1.6105
890.00,1.6030
889.00,1.5967
888.00,1.5939
887.00,1.5947
886.00,1.5958
885.00,1.5942
884.00,1.5897
883.00,1.5841
882.00,1.5785
881.00,1.5729
880.00,1.5678
879.00,1.5638
878.00,1.5605
877.00,1.5563
876.00,1.5500
875.00,1.5423
874.00,1.5346
873.00,1.5281
872.00,1.5237
871.00,1.5216
870.00,1.5205
869.00,1.5183
868.00,1.5136
867.00,1.5070
866.00,1.5004
865.00,1.4953
864.00,1.4915
863.00,1.4880
862.00,1.4840
861.00,1.4799
860.00,1.4774
859.00,1.4777
858.00,1.4806
857.00,1.4848
856.00,1.4888
855.00,1.4921
854.00,1.4945
853.00,1.4957
852.00,1.4963
851.00,1.4967
850.00,1.4971
849.00,1.4964
848.00,1.4942
847.00,1.4906
846.00,1.4863
845.00,1.4813
844.00,1.4755
843.00,1.4697
842.00,1.4655
841.00,1.4641
840.00,1.4651
839.00,1.4677
838.00,1.4713
837.00,1.4765
836.00,1.4843
835.00,1.4954
834.00,1.5108
833.00,1.5308
832.00,1.5552
831.00,1.5817
830.00,1.6078
829.00,1.6326
828.00,1.6590
827.00,1.6929
826.00,1.7419
825.00,1.8130
824.00,1.9101
823.00,2.0300
822.00,2.1609
821.00,2.2846
820.00,2.3840
819.00,2.4500
818.00,2.4836
817.00,2.5009
816.00,2.5239
815.00,2.5603
814.00,2.6007
813.00,2.6345
812.00,2.6658
811.00,2.7086
810.00,2.7632
809.00,2.8082
808.00,2.8369
807.00,2.8826
806.00,2.9830
805.00,3.1290
804.00,3.1908
803.00,3.0948
802.00,2.9691
801.00,2.8836
800.00,2.8416
799.00,2.8276
798.00,2.8366
797.00,2.8737
796.00,2.9293
795.00,2.9673
794.00,2.9599
793.00,2.9302
792.00,2.9150
791.00,2.9217
790.00,2.9284
789.00,2.9074
788.00,2.8585
787.00,2.8110
786.00,2.7886
785.00,2.7883
784.00,2.7846
783.00,2.7589
782.00,2.7231
781.00,2.6984
780.00,2.6882
779.00,2.6809
778.00,2.6720
777.00,2.6739
776.00,2.6871
775.00,2.6896
774.00,2.6676
773.00,2.6350
772.00,2.6137
771.00,2.6059
770.00,2.5985
769.00,2.5852
768.00,2.5696
767.00,2.5536
766.00,2.5375
765.00,2.5281
764.00,2.5307
763.00,2.5345
762.00,2.5230
761.00,2.4975
760.00,2.4741
759.00,2.4608
758.00,2.4523
757.00,2.4434
756.00,2.4387
755.00,2.4442
754.00,2.4585
753.00,2.4789
752.00,2.5112
751.00,2.5657
750.00,2.6325
749.00,2.6729
748.00,2.6568
747.00,2.6056
746.00,2.5578
745.00,2.5262
744.00,2.5013
743.00,2.4735
742.00,2.4473
741.00,2.4315
740.00,2.4240
739.00,2.4114
738.00,2.3851
737.00,2.3507
736.00,2.3169
735.00,2.2852
734.00,2.2562
733.00,2.2352
732.00,2.2251
731.00,2.2195
730.00,2.2088
729.00,2.1943
728.00,2.1873
727.00,2.1956
726.00,2.2170
725.00,2.2464
724.00,2.2811
723.00,2.3151
722.00,2.3351
721.00,2.3327
720.00,2.3174
719.00,2.3062
718.00,2.3053
717.00,2.3112
716.00,2.3213
715.00,2.3355
714.00,2.3495
713.00,2.3542
712.00,2.3426
711.00,2.3162
710.00,2.2852
709.00,2.2591
708.00,2.2401
707.00,2.2276
706.00,2.2210
705.00,2.2184
704.00,2.2147
703.00,2.2044
702.00,2.1892
701.00,2.1775
700.00,2.1743
699.00,2.1747
698.00,2.1693
697.00,2.1561
696.00,2.1420
695.00,2.1332
694.00,2.1289
693.00,2.1255
692.00,2.1218
691.00,2.1175
690.00,2.1105
689.00,2.0996
688.00,2.0882
687.00,2.0809
686.00,2.0795
685.00,2.0814
684.00,2.0840
683.00,2.0879
682.00,2.0953
681.00,2.1064
680.00,2.1186
679.00,2.1296
678.00,2.1381
677.00,2.1411
676.00,2.1383
675.00,2.1340
674.00,2.1327
673.00,2.1377
672.00,2.1498
671.00,2.1670
670.00,2.1843
669.00,2.1947
668.00,2.1877
667.00,2.1582
666.00,2.1239
665.00,2.1070
664.00,2.1148
663.00,2.1411
662.00,2.1673
661.00,2.1765
660.00,2.1726
659.00,2.1716
658.00,2.1809
657.00,2.1953
656.00,2.2084
655.00,2.2195
654.00,2.2304
653.00,2.2384
652.00,2.2379
651.00,2.2261
650.00,2.2061
649.00,2.1839
648.00,2.1664
647.00,2.1574
646.00,2.1585
645.00,2.1688
644.00,2.1817
643.00,2.1880
642.00,2.1849
641.00,2.1782
640.00,2.1724
639.00,2.1667
638.00,2.1590
637.00,2.1499
636.00,2.1396
635.00,2.1247
634.00,2.0985
633.00,2.0624
632.00,2.0283
631.00,2.0019
630.00,1.9778
629.00,1.9518
628.00,1.9285
627.00,1.9140
626.00,1.9083
625.00,1.9046
624.00,1.8964
623.00,1.8836
622.00,1.8700
621.00,1.8581
620.00,1.8477
619.00,1.8391
618.00,1.8340
617.00,1.8343
616.00,1.8402
615.00,1.8474
614.00,1.8479
613.00,1.8363
612.00,1.8152
611.00,1.7918
610.00,1.7720
609.00,1.7585
608.00,1.7524
607.00,1.7514
606.00,1.7505
605.00,1.7457
604.00,1.7381
603.00,1.7308
602.00,1.7239
601.00,1.7147
600.00,1.7039
599.00,1.6946
598.00,1.6882
597.00,1.6825
596.00,1.6764
595.00,1.6708
594.00,1.6652
593.00,1.6569
592.00,1.6456
591.00,1.6353
590.00,1.6294
589.00,1.6261
588.00,1.6218
587.00,1.6170
586.00,1.6154
585.00,1.6189
584.00,1.6241
583.00,1.6259
582.00,1.6243
581.00,1.6262
580.00,1.6369
579.00,1.6539
578.00,1.6681
577.00,1.6734
576.00,1.6736
575.00,1.6782
574.00,1.6924
573.00,1.7131
572.00,1.7338
571.00,1.7496
570.00,1.7580
569.00,1.7590
568.00,1.7544
567.00,1.7468
566.00,1.7381
565.00,1.7316
564.00,1.7331
563.00,1.7451
562.00,1.7608
561.00,1.7676
560.00,1.7613
559.00,1.7543
558.00,1.7624
557.00,1.7894
556.00,1.8238
555.00,1.8499
554.00,1.8635
553.00,1.8743
552.00,1.8939
551.00,1.9266
550.00,1.9657
