Created as New Dataset,
cm-1,A
4000.00,1.4574
3999.00,1.4571
3998.00,1.4567
3997.00,1.4560
3996.00,1.4549
3995.00,1.4539
3994.00,1.4534
3993.00,1.4536
3992.00,1.4543
3991.00,1.4551
3990.00,1.4556
3989.00,1.4556
3988.00,1.4551
3987.00,1.4545
3986.00,1.4538
3985.00,1.4534
3984.00,1.4532
3983.00,1.4533
3982.00,1.4535
3981.00,1.4539
3980.00,1.4544
3979.00,1.4547
3978.00,1.4548
3977.00,1.4545
3976.00,1.4539
3975.00,1.4532
3974.00,1.4527
3973.00,1.4525
3972.00,1.4526
3971.00,1.4528
3970.00,1.4529
3969.00,1.4529
3968.00,1.4528
3967.00,1.4527
3966.00,1.4528
3965.00,1.4527
3964.00,1.4524
3963.00,1.4520
3962.00,1.4515
3961.00,1.4512
3960.00,1.4512
3959.00,1.4513
3958.00,1.4514
3957.00,1.4512
3956.00,1.4505
3955.00,1.4498
3954.00,1.4493
3953.00,1.4492
3952.00,1.4495
3951.00,1.4500
3950.00,1.4505
3949.00,1.4508
3948.00,1.4511
3947.00,1.4511
3946.00,1.4510
3945.00,1.4507
3944.00,1.4504
3943.00,1.4502
3942.00,1.4502
3941.00,1.4502
3940.00,1.4500
3939.00,1.4496
3938.00,1.4491
3937.00,1.4488
3936.00,1.4488
3935.00,1.4491
3934.00,1.4495
3933.00,1.4495
3932.00,1.4490
3931.00,1.4484
3930.00,1.4480
3929.00,1.4481
3928.00,1.4483
3927.00,1.4482
3926.00,1.4478
3925.00,1.4474
3924.00,1.4475
3923.00,1.4478
3922.00,1.4481
3921.00,1.4480
3920.00,1.4477
3919.00,1.4475
3918.00,1.4475
3917.00,1.4477
3916.00,1.4479
3915.00,1.4480
3914.00,1.4481
3913.00,1.4482
3912.00,1.4482
3911.00,1.4480
3910.00,1.4473
3909.00,1.4463
3908.00,1.4457
3907.00,1.4457
3906.00,1.4465
3905.00,1.4478
3904.00,1.4491
3903.00,1.4499
3902.00,1.4498
3901.00,1.4491
3900.00,1.4483
3899.00,1.4479
3898.00,1.4477
3897.00,1.4474
3896.00,1.4471
3895.00,1.4468
3894.00,1.4466
3893.00,1.4466
3892.00,1.4466
3891.00,1.4469
3890.00,1.4473
3889.00,1.4475
3888.00,1.4472
3887.00,1.4464
3886.00,1.4457
3885.00,1.4458
3884.00,1.4465
3883.00,1.4473
3882.00,1.4477
3881.00,1.4475
3880.00,1.4472
3879.00,1.4469
3878.00,1.4466
3877.00,1.4463
3876.00,1.4458
3875.00,1.4453
3874.00,1.4454
3873.00,1.4458
3872.00,1.4462
3871.00,1.4464
3870.00,1.4468
3869.00,1.4476
3868.00,1.4487
3867.00,1.4497
3866.00,1.4502
3865.00,1.4500
3864.00,1.4491
3863.00,1.4478
3862.00,1.4466
3861.00,1.4458
3860.00,1.4455
3859.00,1.4457
3858.00,1.4463
3857.00,1.4475
3856.00,1.4489
3855.00,1.4500
3854.00,1.4508
3853.00,1.4518
3852.00,1.4524
3851.00,1.4520
3850.00,1.4508
3849.00,1.4490
3848.00,1.4469
3847.00,1.4449
3846.00,1.4432
3845.00,1.4420
3844.00,1.4415
3843.00,1.4417
3842.00,1.4426
3841.00,1.4436
3840.00,1.4446
3839.00,1.4454
3838.00,1.4460
3837.00,1.4466
3836.00,1.4469
3835.00,1.4471
3834.00,1.4468
3833.00,1.4458
3832.00,1.4445
3831.00,1.4434
3830.00,1.4426
3829.00,1.4419
3828.00,1.4409
3827.00,1.4398
3826.00,1.4391
3825.00,1.4395
3824.00,1.4407
3823.00,1.4417
3822.00,1.4421
3821.00,1.4426
3820.00,1.4434
3819.00,1.4444
3818.00,1.4451
3817.00,1.4452
3816.00,1.4449
3815.00,1.4444
3814.00,1.4437
3813.00,1.4427
3812.00,1.4415
3811.00,1.4406
3810.00,1.4399
3809.00,1.4394
3808.00,1.4391
3807.00,1.4392
3806.00,1.4400
3805.00,1.4412
3804.00,1.4422
3803.00,1.4425
3802.00,1.4422
3801.00,1.4418
3800.00,1.4415
3799.00,1.4411
3798.00,1.4406
3797.00,1.4399
3796.00,1.4388
3795.00,1.4375
3794.00,1.4361
3793.00,1.4350
3792.00,1.4341
3791.00,1.4333
3790.00,1.4324
3789.00,1.4314
3788.00,1.4305
3787.00,1.4298
3786.00,1.4294
3785.00,1.4296
3784.00,1.4303
3783.00,1.4310
3782.00,1.4313
3781.00,1.4313
3780.00,1.4314
3779.00,1.4319
3778.00,1.4327
3777.00,1.4331
3776.00,1.4330
3775.00,1.4326
3774.00,1.4324
3773.00,1.4323
3772.00,1.4321
3771.00,1.4315
3770.00,1.4311
3769.00,1.4312
3768.00,1.4319
3767.00,1.4326
3766.00,1.4330
3765.00,1.4331
3764.00,1.4329
3763.00,1.4327
3762.00,1.4325
3761.00,1.4324
3760.00,1.4324
3759.00,1.4325
3758.00,1.4326
3757.00,1.4328
3756.00,1.4334
3755.00,1.4346
3754.00,1.4367
3753.00,1.4394
3752.00,1.4419
3751.00,1.4436
3750.00,1.4444
3749.00,1.4451
3748.00,1.4460
3747.00,1.4468
3746.00,1.4467
3745.00,1.4457
3744.00,1.4443
3743.00,1.4428
3742.00,1.4414
3741.00,1.4403
3740.00,1.4397
3739.00,1.4393
3738.00,1.4390
3737.00,1.4388
3736.00,1.4393
3735.00,1.4407
3734.00,1.4423
3733.00,1.4432
3732.00,1.4431
3731.00,1.4422
3730.00,1.4411
3729.00,1.4400
3728.00,1.4393
3727.00,1.4387
3726.00,1.4383
3725.00,1.4380
3724.00,1.4377
3723.00,1.4375
3722.00,1.4371
3721.00,1.4366
3720.00,1.4359
3719.00,1.4353
3718.00,1.4348
3717.00,1.4346
3716.00,1.4348
3715.00,1.4354
3714.00,1.4359
3713.00,1.4363
3712.00,1.4365
3711.00,1.4369
3710.00,1.4374
3709.00,1.4380
3708.00,1.4385
3707.00,1.4387
3706.00,1.4386
3705.00,1.4384
3704.00,1.4382
3703.00,1.4380
3702.00,1.4378
3701.00,1.4379
3700.00,1.4382
3699.00,1.4387
3698.00,1.4394
3697.00,1.4401
3696.00,1.4410
3695.00,1.4420
3694.00,1.4434
3693.00,1.4450
3692.00,1.4465
3691.00,1.4478
3690.00,1.4488
3689.00,1.4495
3688.00,1.4498
3687.00,1.4499
3686.00,1.4498
3685.00,1.4494
3684.00,1.4487
3683.00,1.4477
3682.00,1.4466
3681.00,1.4459
3680.00,1.4465
3679.00,1.4485
3678.00,1.4515
3677.00,1.4544
3676.00,1.4568
3675.00,1.4586
3674.00,1.4601
3673.00,1.4614
3672.00,1.4623
3671.00,1.4624
3670.00,1.4614
3669.00,1.4595
3668.00,1.4573
3667.00,1.4554
3666.00,1.4541
3665.00,1.4532
3664.00,1.4524
3663.00,1.4515
3662.00,1.4505
3661.00,1.4497
3660.00,1.4490
3659.00,1.4485
3658.00,1.4482
3657.00,1.4485
3656.00,1.4493
3655.00,1.4505
3654.00,1.4519
3653.00,1.4534
3652.00,1.4550
3651.00,1.4565
3650.00,1.4582
3649.00,1.4599
3648.00,1.4610
3647.00,1.4610
3646.00,1.4599
3645.00,1.4585
3644.00,1.4574
3643.00,1.4568
3642.00,1.4564
3641.00,1.4560
3640.00,1.4557
3639.00,1.4556
3638.00,1.4557
3637.00,1.4564
3636.00,1.4576
3635.00,1.4592
3634.00,1.4609
3633.00,1.4628
3632.00,1.4644
3631.00,1.4656
3630.00,1.4663
3629.00,1.4670
3628.00,1.4681
3627.00,1.4692
3626.00,1.4698
3625.00,1.4698
3624.00,1.4696
3623.00,1.4692
3622.00,1.4689
3621.00,1.4688
3620.00,1.4691
3619.00,1.4695
3618.00,1.4701
3617.00,1.4706
3616.00,1.4710
3615.00,1.4713
3614.00,1.4717
3613.00,1.4722
3612.00,1.4726
3611.00,1.4729
3610.00,1.4732
3609.00,1.4735
3608.00,1.4739
3607.00,1.4744
3606.00,1.4748
3605.00,1.4752
3604.00,1.4756
3603.00,1.4758
3602.00,1.4757
3601.00,1.4757
3600.00,1.4762
3599.00,1.4772
3598.00,1.4783
3597.00,1.4792
3596.00,1.4798
3595.00,1.4805
3594.00,1.4813
3593.00,1.4824
3592.00,1.4838
3591.00,1.4854
3590.00,1.4867
3589.00,1.4876
3588.00,1.4883
3587.00,1.4891
3586.00,1.4901
3585.00,1.4909
3584.00,1.4916
3583.00,1.4921
3582.00,1.4922
3581.00,1.4921
3580.00,1.4921
3579.00,1.4924
3578.00,1.4930
3577.00,1.4935
3576.00,1.4938
3575.00,1.4940
3574.00,1.4942
3573.00,1.4946
3572.00,1.4953
3571.00,1.4965
3570.00,1.4981
3569.00,1.4995
3568.00,1.5004
3567.00,1.5010
3566.00,1.5016
3565.00,1.5025
3564.00,1.5034
3563.00,1.5042
3562.00,1.5051
3561.00,1.5062
3560.00,1.5075
3559.00,1.5087
3558.00,1.5093
3557.00,1.5095
3556.00,1.5095
3555.00,1.5096
3554.00,1.5098
3553.00,1.5104
3552.00,1.5116
3551.00,1.5134
3550.00,1.5151
3549.00,1.5162
3548.00,1.5167
3547.00,1.5171
3546.00,1.5182
3545.00,1.5199
3544.00,1.5220
3543.00,1.5240
3542.00,1.5257
3541.00,1.5273
3540.00,1.5286
3539.00,1.5296
3538.00,1.5299
3537.00,1.5298
3536.00,1.5296
3535.00,1.5298
3534.00,1.5307
3533.00,1.5321
3532.00,1.5337
3531.00,1.5353
3530.00,1.5363
3529.00,1.5366
3528.00,1.5368
3527.00,1.5376
3526.00,1.5391
3525.00,1.5413
3524.00,1.5435
3523.00,1.5454
3522.00,1.5468
3521.00,1.5477
3520.00,1.5481
3519.00,1.5483
3518.00,1.5490
3517.00,1.5504
3516.00,1.5525
3515.00,1.5546
3514.00,1.5560
3513.00,1.5569
3512.00,1.5577
3511.00,1.5590
3510.00,1.5609
3509.00,1.5630
3508.00,1.5651
3507.00,1.5667
3506.00,1.5678
3505.00,1.5683
3504.00,1.5688
3503.00,1.5697
3502.00,1.5711
3501.00,1.5726
3500.00,1.5735
3499.00,1.5739
3498.00,1.5742
3497.00,1.5750
3496.00,1.5766
3495.00,1.5787
3494.00,1.5808
3493.00,1.5826
3492.00,1.5842
3491.00,1.5856
3490.00,1.5868
3489.00,1.5874
3488.00,1.5873
3487.00,1.5870
3486.00,1.5872
3485.00,1.5884
3484.00,1.5906
3483.00,1.5936
3482.00,1.5967
3481.00,1.5992
3480.00,1.6010
3479.00,1.6021
3478.00,1.6033
3477.00,1.6047
3476.00,1.6064
3475.00,1.6079
3474.00,1.6089
3473.00,1.6094
3472.00,1.6098
3471.00,1.6105
3470.00,1.6118
3469.00,1.6136
3468.00,1.6158
3467.00,1.6182
3466.00,1.6205
3465.00,1.6223
3464.00,1.6234
3463.00,1.6240
3462.00,1.6245
3461.00,1.6252
3460.00,1.6265
3459.00,1.6283
3458.00,1.6303
3457.00,1.6321
3456.00,1.6337
3455.00,1.6354
3454.00,1.6375
3453.00,1.6399
3452.00,1.6424
3451.00,1.6449
3450.00,1.6473
3449.00,1.6496
3448.00,1.6519
3447.00,1.6543
3446.00,1.6567
3445.00,1.6593
3444.00,1.6619
3443.00,1.6646
3442.00,1.6674
3441.00,1.6699
3440.00,1.6720
3439.00,1.6738
3438.00,1.6754
3437.00,1.6772
3436.00,1.6793
3435.00,1.6815
3434.00,1.6835
3433.00,1.6851
3432.00,1.6866
3431.00,1.6882
3430.00,1.6898
3429.00,1.6906
3428.00,1.6906
3427.00,1.6905
3426.00,1.6912
3425.00,1.6927
3424.00,1.6941
3423.00,1.6947
3422.00,1.6949
3421.00,1.6953
3420.00,1.6960
3419.00,1.6969
3418.00,1.6977
3417.00,1.6981
3416.00,1.6981
3415.00,1.6977
3414.00,1.6972
3413.00,1.6969
3412.00,1.6970
3411.00,1.6974
3410.00,1.6982
3409.00,1.6995
3408.00,1.7009
3407.00,1.7019
3406.00,1.7025
3405.00,1.7032
3404.00,1.7042
3403.00,1.7051
3402.00,1.7056
3401.00,1.7057
3400.00,1.7058
3399.00,1.7061
3398.00,1.7065
3397.00,1.7069
3396.00,1.7071
3395.00,1.7069
3394.00,1.7066
3393.00,1.7063
3392.00,1.7063
3391.00,1.7063
3390.00,1.7060
3389.00,1.7056
3388.00,1.7054
3387.00,1.7054
3386.00,1.7053
3385.00,1.7048
3384.00,1.7038
3383.00,1.7024
3382.00,1.7010
3381.00,1.7001
3380.00,1.7000
3379.00,1.7003
3378.00,1.7001
3377.00,1.6991
3376.00,1.6979
3375.00,1.6972
3374.00,1.6973
3373.00,1.6978
3372.00,1.6982
3371.00,1.6982
3370.00,1.6976
3369.00,1.6968
3368.00,1.6962
3367.00,1.6963
3366.00,1.6970
3365.00,1.6978
3364.00,1.6979
3363.00,1.6972
3362.00,1.6959
3361.00,1.6940
3360.00,1.6917
3359.00,1.6893
3358.00,1.6874
3357.00,1.6861
3356.00,1.6854
3355.00,1.6852
3354.00,1.6852
3353.00,1.6851
3352.00,1.6849
3351.00,1.6848
3350.00,1.6849
3349.00,1.6847
3348.00,1.6834
3347.00,1.6813
3346.00,1.6793
3345.00,1.6780
3344.00,1.6774
3343.00,1.6767
3342.00,1.6757
3341.00,1.6747
3340.00,1.6741
3339.00,1.6736
3338.00,1.6728
3337.00,1.6718
3336.00,1.6712
3335.00,1.6715
3334.00,1.6726
3333.00,1.6737
3332.00,1.6742
3331.00,1.6737
3330.00,1.6727
3329.00,1.6718
3328.00,1.6716
3327.00,1.6717
3326.00,1.6719
3325.00,1.6719
3324.00,1.6720
3323.00,1.6725
3322.00,1.6730
3321.00,1.6735
3320.00,1.6737
3319.00,1.6737
3318.00,1.6735
3317.00,1.6732
3316.00,1.6731
3315.00,1.6731
3314.00,1.6730
3313.00,1.6728
3312.00,1.6726
3311.00,1.6729
3310.00,1.6739
3309.00,1.6751
3308.00,1.6762
3307.00,1.6767
3306.00,1.6770
3305.00,1.6772
3304.00,1.6775
3303.00,1.6778
3302.00,1.6785
3301.00,1.6795
3300.00,1.6807
3299.00,1.6814
3298.00,1.6816
3297.00,1.6813
3296.00,1.6811
3295.00,1.6810
3294.00,1.6814
3293.00,1.6819
3292.00,1.6824
3291.00,1.6830
3290.00,1.6840
3289.00,1.6856
3288.00,1.6877
3287.00,1.6894
3286.00,1.6904
3285.00,1.6910
3284.00,1.6920
3283.00,1.6932
3282.00,1.6943
3281.00,1.6952
3280.00,1.6964
3279.00,1.6978
3278.00,1.6990
3277.00,1.6999
3276.00,1.7008
3275.00,1.7019
3274.00,1.7033
3273.00,1.7045
3272.00,1.7050
3271.00,1.7051
3270.00,1.7052
3269.00,1.7057
3268.00,1.7066
3267.00,1.7081
3266.00,1.7100
3265.00,1.7121
3264.00,1.7144
3263.00,1.7165
3262.00,1.7182
3261.00,1.7199
3260.00,1.7220
3259.00,1.7247
3258.00,1.7270
3257.00,1.7282
3256.00,1.7286
3255.00,1.7290
3254.00,1.7300
3253.00,1.7314
3252.00,1.7328
3251.00,1.7339
3250.00,1.7347
3249.00,1.7354
3248.00,1.7359
3247.00,1.7364
3246.00,1.7371
3245.00,1.7385
3244.00,1.7407
3243.00,1.7435
3242.00,1.7456
3241.00,1.7466
3240.00,1.7470
3239.00,1.7478
3238.00,1.7492
3237.00,1.7510
3236.00,1.7527
3235.00,1.7542
3234.00,1.7557
3233.00,1.7575
3232.00,1.7598
3231.00,1.7625
3230.00,1.7651
3229.00,1.7668
3228.00,1.7676
3227.00,1.7679
3226.00,1.7683
3225.00,1.7692
3224.00,1.7706
3223.00,1.7723
3222.00,1.7739
3221.00,1.7749
3220.00,1.7756
3219.00,1.7763
3218.00,1.7773
3217.00,1.7781
3216.00,1.7786
3215.00,1.7788
3214.00,1.7794
3213.00,1.7802
3212.00,1.7806
3211.00,1.7804
3210.00,1.7798
3209.00,1.7791
3208.00,1.7786
3207.00,1.7781
3206.00,1.7773
3205.00,1.7763
3204.00,1.7752
3203.00,1.7743
3202.00,1.7736
3201.00,1.7730
3200.00,1.7722
3199.00,1.7711
3198.00,1.7697
3197.00,1.7681
3196.00,1.7662
3195.00,1.7644
3194.00,1.7630
3193.00,1.7621
3192.00,1.7612
3191.00,1.7598
3190.00,1.7574
3189.00,1.7545
3188.00,1.7514
3187.00,1.7485
3186.00,1.7458
3185.00,1.7434
3184.00,1.7416
3183.00,1.7407
3182.00,1.7399
3181.00,1.7382
3180.00,1.7356
3179.00,1.7327
3178.00,1.7307
3177.00,1.7294
3176.00,1.7280
3175.00,1.7256
3174.00,1.7220
3173.00,1.7180
3172.00,1.7144
3171.00,1.7115
3170.00,1.7088
3169.00,1.7059
3168.00,1.7026
3167.00,1.6994
3166.00,1.6966
3165.00,1.6947
3164.00,1.6931
3163.00,1.6913
3162.00,1.6891
3161.00,1.6868
3160.00,1.6847
3159.00,1.6827
3158.00,1.6804
3157.00,1.6775
3156.00,1.6740
3155.00,1.6703
3154.00,1.6666
3153.00,1.6635
3152.00,1.6612
3151.00,1.6598
3150.00,1.6585
3149.00,1.6566
3148.00,1.6542
3147.00,1.6520
3146.00,1.6503
3145.00,1.6486
3144.00,1.6464
3143.00,1.6438
3142.00,1.6413
3141.00,1.6390
3140.00,1.6367
3139.00,1.6339
3138.00,1.6307
3137.00,1.6279
3136.00,1.6259
3135.00,1.6246
3134.00,1.6235
3133.00,1.6222
3132.00,1.6203
3131.00,1.6178
3130.00,1.6149
3129.00,1.6119
3128.00,1.6093
3127.00,1.6076
3126.00,1.6062
3125.00,1.6047
3124.00,1.6028
3123.00,1.6009
3122.00,1.5992
3121.00,1.5977
3120.00,1.5958
3119.00,1.5936
3118.00,1.5911
3117.00,1.5886
3116.00,1.5864
3115.00,1.5846
3114.00,1.5832
3113.00,1.5819
3112.00,1.5804
3111.00,1.5789
3110.00,1.5773
3109.00,1.5757
3108.00,1.5738
3107.00,1.5718
3106.00,1.5698
3105.00,1.5682
3104.00,1.5670
3103.00,1.5658
3102.00,1.5645
3101.00,1.5632
3100.00,1.5617
3099.00,1.5600
3098.00,1.5582
3097.00,1.5566
3096.00,1.5551
3095.00,1.5537
3094.00,1.5524
3093.00,1.5509
3092.00,1.5495
3091.00,1.5483
3090.00,1.5472
3089.00,1.5458
3088.00,1.5442
3087.00,1.5424
3086.00,1.5408
3085.00,1.5395
3084.00,1.5383
3083.00,1.5372
3082.00,1.5358
3081.00,1.5343
3080.00,1.5329
3079.00,1.5319
3078.00,1.5311
3077.00,1.5303
3076.00,1.5290
3075.00,1.5274
3074.00,1.5256
3073.00,1.5237
3072.00,1.5219
3071.00,1.5205
3070.00,1.5198
3069.00,1.5197
3068.00,1.5194
3067.00,1.5185
3066.00,1.5170
3065.00,1.5153
3064.00,1.5138
3063.00,1.5127
3062.00,1.5121
3061.00,1.5117
3060.00,1.5110
3059.00,1.5097
3058.00,1.5081
3057.00,1.5065
3056.00,1.5053
3055.00,1.5046
3054.00,1.5041
3053.00,1.5036
3052.00,1.5029
3051.00,1.5021
3050.00,1.5012
3049.00,1.5003
3048.00,1.4993
3047.00,1.4981
3046.00,1.4970
3045.00,1.4961
3044.00,1.4955
3043.00,1.4949
3042.00,1.4942
3041.00,1.4933
3040.00,1.4924
3039.00,1.4914
3038.00,1.4903
3037.00,1.4893
3036.00,1.4881
3035.00,1.4868
3034.00,1.4857
3033.00,1.4848
3032.00,1.4841
3031.00,1.4834
3030.00,1.4826
3029.00,1.4818
3028.00,1.4810
3027.00,1.4802
3026.00,1.4793
3025.00,1.4782
3024.00,1.4770
3023.00,1.4759
3022.00,1.4751
3021.00,1.4743
3020.00,1.4736
3019.00,1.4728
3018.00,1.4719
3017.00,1.4712
3016.00,1.4707
3015.00,1.4702
3014.00,1.4693
3013.00,1.4682
3012.00,1.4669
3011.00,1.4660
3010.00,1.4654
3009.00,1.4648
3008.00,1.4640
3007.00,1.4630
3006.00,1.4621
3005.00,1.4614
3004.00,1.4609
3003.00,1.4605
3002.00,1.4602
3001.00,1.4599
3000.00,1.4594
2999.00,1.4588
2998.00,1.4582
2997.00,1.4578
2996.00,1.4574
2995.00,1.4569
2994.00,1.4561
2993.00,1.4552
2992.00,1.4542
2991.00,1.4533
2990.00,1.4529
2989.00,1.4530
2988.00,1.4534
2987.00,1.4533
2986.00,1.4526
2985.00,1.4513
2984.00,1.4501
2983.00,1.4492
2982.00,1.4487
2981.00,1.4484
2980.00,1.4483
2979.00,1.4483
2978.00,1.4484
2977.00,1.4485
2976.00,1.4486
2975.00,1.4487
2974.00,1.4486
2973.00,1.4481
2972.00,1.4475
2971.00,1.4470
2970.00,1.4466
2969.00,1.4467
2968.00,1.4472
2967.00,1.4479
2966.00,1.4488
2965.00,1.4497
2964.00,1.4504
2963.00,1.4507
2962.00,1.4503
2961.00,1.4494
2960.00,1.4484
2959.00,1.4480
2958.00,1.4482
2957.00,1.4488
2956.00,1.4496
2955.00,1.4502
2954.00,1.4502
2953.00,1.4493
2952.00,1.4480
2951.00,1.4468
2950.00,1.4462
2949.00,1.4459
2948.00,1.4457
2947.00,1.4451
2946.00,1.4443
2945.00,1.4436
2944.00,1.4432
2943.00,1.4431
2942.00,1.4431
2941.00,1.4432
2940.00,1.4432
2939.00,1.4433
2938.00,1.4436
2937.00,1.4438
2936.00,1.4439
2935.00,1.4441
2934.00,1.4443
2933.00,1.4447
2932.00,1.4454
2931.00,1.4462
2930.00,1.4468
2929.00,1.4468
2928.00,1.4462
2927.00,1.4453
2926.00,1.4445
2925.00,1.4439
2924.00,1.4437
2923.00,1.4438
2922.00,1.4441
2921.00,1.4446
2920.00,1.4452
2919.00,1.4455
2918.00,1.4452
2917.00,1.4441
2916.00,1.4425
2915.00,1.4405
2914.00,1.4384
2913.00,1.4361
2912.00,1.4341
2911.00,1.4326
2910.00,1.4317
2909.00,1.4312
2908.00,1.4308
2907.00,1.4303
2906.00,1.4300
2905.00,1.4297
2904.00,1.4294
2903.00,1.4287
2902.00,1.4278
2901.00,1.4268
2900.00,1.4259
2899.00,1.4251
2898.00,1.4244
2897.00,1.4237
2896.00,1.4231
2895.00,1.4226
2894.00,1.4220
2893.00,1.4215
2892.00,1.4210
2891.00,1.4207
2890.00,1.4207
2889.00,1.4208
2888.00,1.4208
2887.00,1.4205
2886.00,1.4202
2885.00,1.4198
2884.00,1.4197
2883.00,1.4195
2882.00,1.4194
2881.00,1.4194
2880.00,1.4196
2879.00,1.4202
2878.00,1.4211
2877.00,1.4219
2876.00,1.4224
2875.00,1.4224
2874.00,1.4221
2873.00,1.4217
2872.00,1.4214
2871.00,1.4213
2870.00,1.4213
2869.00,1.4215
2868.00,1.4218
2867.00,1.4221
2866.00,1.4223
2865.00,1.4225
2864.00,1.4226
2863.00,1.4228
2862.00,1.4231
2861.00,1.4238
2860.00,1.4249
2859.00,1.4262
2858.00,1.4273
2857.00,1.4279
2856.00,1.4282
2855.00,1.4285
2854.00,1.4291
2853.00,1.4301
2852.00,1.4310
2851.00,1.4313
2850.00,1.4312
2849.00,1.4308
2848.00,1.4306
2847.00,1.4307
2846.00,1.4308
2845.00,1.4302
2844.00,1.4290
2843.00,1.4277
2842.00,1.4268
2841.00,1.4266
2840.00,1.4267
2839.00,1.4270
2838.00,1.4273
2837.00,1.4276
2836.00,1.4280
2835.00,1.4285
2834.00,1.4289
2833.00,1.4294
2832.00,1.4298
2831.00,1.4301
2830.00,1.4303
2829.00,1.4303
2828.00,1.4304
2827.00,1.4309
2826.00,1.4318
2825.00,1.4325
2824.00,1.4330
2823.00,1.4334
2822.00,1.4344
2821.00,1.4360
2820.00,1.4379
2819.00,1.4396
2818.00,1.4409
2817.00,1.4418
2816.00,1.4424
2815.00,1.4429
2814.00,1.4435
2813.00,1.4445
2812.00,1.4456
2811.00,1.4469
2810.00,1.4481
2809.00,1.4490
2808.00,1.4496
2807.00,1.4500
2806.00,1.4504
2805.00,1.4508
2804.00,1.4513
2803.00,1.4518
2802.00,1.4521
2801.00,1.4523
2800.00,1.4525
2799.00,1.4528
2798.00,1.4531
2797.00,1.4529
2796.00,1.4523
2795.00,1.4513
2794.00,1.4502
2793.00,1.4491
2792.00,1.4478
2791.00,1.4464
2790.00,1.4452
2789.00,1.4444
2788.00,1.4436
2787.00,1.4427
2786.00,1.4415
2785.00,1.4402
2784.00,1.4391
2783.00,1.4383
2782.00,1.4377
2781.00,1.4371
2780.00,1.4364
2779.00,1.4356
2778.00,1.4348
2777.00,1.4340
2776.00,1.4331
2775.00,1.4322
2774.00,1.4314
2773.00,1.4308
2772.00,1.4301
2771.00,1.4293
2770.00,1.4283
2769.00,1.4274
2768.00,1.4265
2767.00,1.4257
2766.00,1.4250
2765.00,1.4245
2764.00,1.4244
2763.00,1.4245
2762.00,1.4243
2761.00,1.4237
2760.00,1.4226
2759.00,1.4215
2758.00,1.4207
2757.00,1.4204
2756.00,1.4202
2755.00,1.4199
2754.00,1.4194
2753.00,1.4188
2752.00,1.4183
2751.00,1.4183
2750.00,1.4186
2749.00,1.4189
2748.00,1.4189
2747.00,1.4187
2746.00,1.4185
2745.00,1.4184
2744.00,1.4185
2743.00,1.4185
2742.00,1.4185
2741.00,1.4186
2740.00,1.4188
2739.00,1.4192
2738.00,1.4197
2737.00,1.4204
2736.00,1.4211
2735.00,1.4219
2734.00,1.4227
2733.00,1.4232
2732.00,1.4236
2731.00,1.4241
2730.00,1.4249
2729.00,1.4261
2728.00,1.4272
2727.00,1.4278
2726.00,1.4282
2725.00,1.4285
2724.00,1.4289
2723.00,1.4290
2722.00,1.4289
2721.00,1.4289
2720.00,1.4292
2719.00,1.4296
2718.00,1.4301
2717.00,1.4304
2716.00,1.4308
2715.00,1.4312
2714.00,1.4318
2713.00,1.4326
2712.00,1.4335
2711.00,1.4342
2710.00,1.4345
2709.00,1.4344
2708.00,1.4343
2707.00,1.4346
2706.00,1.4353
2705.00,1.4359
2704.00,1.4364
2703.00,1.4365
2702.00,1.4366
2701.00,1.4367
2700.00,1.4368
2699.00,1.4369
2698.00,1.4369
2697.00,1.4371
2696.00,1.4377
2695.00,1.4385
2694.00,1.4394
2693.00,1.4400
2692.00,1.4403
2691.00,1.4405
2690.00,1.4407
2689.00,1.4409
2688.00,1.4411
2687.00,1.4410
2686.00,1.4408
2685.00,1.4404
2684.00,1.4400
2683.00,1.4398
2682.00,1.4399
2681.00,1.4405
2680.00,1.4412
2679.00,1.4417
2678.00,1.4417
2677.00,1.4415
2676.00,1.4415
2675.00,1.4418
2674.00,1.4421
2673.00,1.4423
2672.00,1.4425
2671.00,1.4427
2670.00,1.4430
2669.00,1.4433
2668.00,1.4437
2667.00,1.4443
2666.00,1.4449
2665.00,1.4457
2664.00,1.4464
2663.00,1.4472
2662.00,1.4480
2661.00,1.4485
2660.00,1.4486
2659.00,1.4484
2658.00,1.4483
2657.00,1.4484
2656.00,1.4488
2655.00,1.4493
2654.00,1.4498
2653.00,1.4503
2652.00,1.4509
2651.00,1.4516
2650.00,1.4522
2649.00,1.4527
2648.00,1.4531
2647.00,1.4536
2646.00,1.4541
2645.00,1.4542
2644.00,1.4542
2643.00,1.4544
2642.00,1.4548
2641.00,1.4553
2640.00,1.4558
2639.00,1.4563
2638.00,1.4569
2637.00,1.4573
2636.00,1.4573
2635.00,1.4568
2634.00,1.4565
2633.00,1.4566
2632.00,1.4575
2631.00,1.4587
2630.00,1.4600
2629.00,1.4610
2628.00,1.4617
2627.00,1.4624
2626.00,1.4629
2625.00,1.4633
2624.00,1.4637
2623.00,1.4644
2622.00,1.4654
2621.00,1.4665
2620.00,1.4677
2619.00,1.4685
2618.00,1.4690
2617.00,1.4693
2616.00,1.4697
2615.00,1.4707
2614.00,1.4720
2613.00,1.4733
2612.00,1.4744
2611.00,1.4755
2610.00,1.4767
2609.00,1.4781
2608.00,1.4796
2607.00,1.4809
2606.00,1.4820
2605.00,1.4828
2604.00,1.4835
2603.00,1.4844
2602.00,1.4854
2601.00,1.4865
2600.00,1.4875
2599.00,1.4885
2598.00,1.4893
2597.00,1.4901
2596.00,1.4906
2595.00,1.4911
2594.00,1.4915
2593.00,1.4920
2592.00,1.4928
2591.00,1.4936
2590.00,1.4944
2589.00,1.4952
2588.00,1.4960
2587.00,1.4970
2586.00,1.4982
2585.00,1.4997
2584.00,1.5012
2583.00,1.5026
2582.00,1.5039
2581.00,1.5051
2580.00,1.5061
2579.00,1.5071
2578.00,1.5081
2577.00,1.5093
2576.00,1.5105
2575.00,1.5115
2574.00,1.5123
2573.00,1.5132
2572.00,1.5142
2571.00,1.5156
2570.00,1.5172
2569.00,1.5187
2568.00,1.5201
2567.00,1.5217
2566.00,1.5235
2565.00,1.5254
2564.00,1.5269
2563.00,1.5284
2562.00,1.5300
2561.00,1.5320
2560.00,1.5342
2559.00,1.5362
2558.00,1.5377
2557.00,1.5389
2556.00,1.5399
2555.00,1.5413
2554.00,1.5431
2553.00,1.5450
2552.00,1.5465
2551.00,1.5475
2550.00,1.5485
2549.00,1.5503
2548.00,1.5529
2547.00,1.5556
2546.00,1.5576
2545.00,1.5587
2544.00,1.5591
2543.00,1.5591
2542.00,1.5588
2541.00,1.5587
2540.00,1.5588
2539.00,1.5593
2538.00,1.5600
2537.00,1.5607
2536.00,1.5615
2535.00,1.5622
2534.00,1.5626
2533.00,1.5627
2532.00,1.5623
2531.00,1.5617
2530.00,1.5614
2529.00,1.5615
2528.00,1.5618
2527.00,1.5620
2526.00,1.5617
2525.00,1.5612
2524.00,1.5608
2523.00,1.5602
2522.00,1.5593
2521.00,1.5581
2520.00,1.5567
2519.00,1.5554
2518.00,1.5538
2517.00,1.5518
2516.00,1.5492
2515.00,1.5459
2514.00,1.5422
2513.00,1.5378
2512.00,1.5330
2511.00,1.5276
2510.00,1.5216
2509.00,1.5150
2508.00,1.5077
2507.00,1.4998
2506.00,1.4915
2505.00,1.4830
2504.00,1.4747
2503.00,1.4671
2502.00,1.4605
2501.00,1.4550
2500.00,1.4502
2499.00,1.4461
2498.00,1.4422
2497.00,1.4386
2496.00,1.4351
2495.00,1.4319
2494.00,1.4291
2493.00,1.4267
2492.00,1.4248
2491.00,1.4231
2490.00,1.4216
2489.00,1.4203
2488.00,1.4192
2487.00,1.4182
2486.00,1.4171
2485.00,1.4158
2484.00,1.4144
2483.00,1.4130
2482.00,1.4117
2481.00,1.4107
2480.00,1.4098
2479.00,1.4089
2478.00,1.4082
2477.00,1.4076
2476.00,1.4069
2475.00,1.4062
2474.00,1.4054
2473.00,1.4047
2472.00,1.4041
2471.00,1.4035
2470.00,1.4030
2469.00,1.4026
2468.00,1.4023
2467.00,1.4019
2466.00,1.4013
2465.00,1.4007
2464.00,1.4000
2463.00,1.3992
2462.00,1.3983
2461.00,1.3972
2460.00,1.3962
2459.00,1.3951
2458.00,1.3940
2457.00,1.3925
2456.00,1.3906
2455.00,1.3884
2454.00,1.3865
2453.00,1.3852
2452.00,1.3844
2451.00,1.3836
2450.00,1.3828
2449.00,1.3819
2448.00,1.3811
2447.00,1.3803
2446.00,1.3796
2445.00,1.3790
2444.00,1.3789
2443.00,1.3792
2442.00,1.3799
2441.00,1.3804
2440.00,1.3807
2439.00,1.3805
2438.00,1.3802
2437.00,1.3799
2436.00,1.3797
2435.00,1.3798
2434.00,1.3801
2433.00,1.3808
2432.00,1.3821
2431.00,1.3836
2430.00,1.3850
2429.00,1.3861
2428.00,1.3870
2427.00,1.3876
2426.00,1.3883
2425.00,1.3893
2424.00,1.3909
2423.00,1.3931
2422.00,1.3954
2421.00,1.3975
2420.00,1.3995
2419.00,1.4016
2418.00,1.4042
2417.00,1.4071
2416.00,1.4104
2415.00,1.4138
2414.00,1.4171
2413.00,1.4200
2412.00,1.4226
2411.00,1.4248
2410.00,1.4267
2409.00,1.4283
2408.00,1.4297
2407.00,1.4311
2406.00,1.4324
2405.00,1.4334
2404.00,1.4341
2403.00,1.4345
2402.00,1.4346
2401.00,1.4349
2400.00,1.4355
2399.00,1.4362
2398.00,1.4370
2397.00,1.4377
2396.00,1.4385
2395.00,1.4394
2394.00,1.4402
2393.00,1.4406
2392.00,1.4407
2391.00,1.4407
2390.00,1.4410
2389.00,1.4417
2388.00,1.4426
2387.00,1.4439
2386.00,1.4454
2385.00,1.4474
2384.00,1.4500
2383.00,1.4536
2382.00,1.4581
2381.00,1.4634
2380.00,1.4694
2379.00,1.4758
2378.00,1.4821
2377.00,1.4880
2376.00,1.4932
2375.00,1.4976
2374.00,1.5013
2373.00,1.5041
2372.00,1.5062
2371.00,1.5079
2370.00,1.5094
2369.00,1.5109
2368.00,1.5125
2367.00,1.5145
2366.00,1.5171
2365.00,1.5202
2364.00,1.5236
2363.00,1.5274
2362.00,1.5313
2361.00,1.5351
2360.00,1.5382
2359.00,1.5405
2358.00,1.5423
2357.00,1.5436
2356.00,1.5450
2355.00,1.5465
2354.00,1.5483
2353.00,1.5500
2352.00,1.5517
2351.00,1.5534
2350.00,1.5552
2349.00,1.5568
2348.00,1.5578
2347.00,1.5583
2346.00,1.5589
2345.00,1.5603
2344.00,1.5626
2343.00,1.5647
2342.00,1.5652
2341.00,1.5645
2340.00,1.5637
2339.00,1.5631
2338.00,1.5623
2337.00,1.5613
2336.00,1.5606
2335.00,1.5607
2334.00,1.5608
2333.00,1.5604
2332.00,1.5594
2331.00,1.5587
2330.00,1.5584
2329.00,1.5581
2328.00,1.5569
2327.00,1.5548
2326.00,1.5526
2325.00,1.5510
2324.00,1.5502
2323.00,1.5500
2322.00,1.5499
2321.00,1.5489
2320.00,1.5468
2319.00,1.5437
2318.00,1.5401
2317.00,1.5363
2316.00,1.5323
2315.00,1.5280
2314.00,1.5241
2313.00,1.5212
2312.00,1.5194
2311.00,1.5178
2310.00,1.5154
2309.00,1.5116
2308.00,1.5066
2307.00,1.5010
2306.00,1.4951
2305.00,1.4895
2304.00,1.4842
2303.00,1.4791
2302.00,1.4740
2301.00,1.4689
2300.00,1.4637
2299.00,1.4586
2298.00,1.4535
2297.00,1.4487
2296.00,1.4442
2295.00,1.4402
2294.00,1.4368
2293.00,1.4338
2292.00,1.4310
2291.00,1.4283
2290.00,1.4254
2289.00,1.4226
2288.00,1.4200
2287.00,1.4179
2286.00,1.4161
2285.00,1.4144
2284.00,1.4129
2283.00,1.4116
2282.00,1.4106
2281.00,1.4098
2280.00,1.4091
2279.00,1.4084
2278.00,1.4079
2277.00,1.4072
2276.00,1.4064
2275.00,1.4054
2274.00,1.4043
2273.00,1.4034
2272.00,1.4025
2271.00,1.4020
2270.00,1.4018
2269.00,1.4016
2268.00,1.4008
2267.00,1.3996
2266.00,1.3982
2265.00,1.3968
2264.00,1.3955
2263.00,1.3943
2262.00,1.3931
2261.00,1.3920
2260.00,1.3908
2259.00,1.3895
2258.00,1.3878
2257.00,1.3859
2256.00,1.3840
2255.00,1.3820
2254.00,1.3802
2253.00,1.3784
2252.00,1.3765
2251.00,1.3743
2250.00,1.3715
2249.00,1.3685
2248.00,1.3655
2247.00,1.3627
2246.00,1.3598
2245.00,1.3567
2244.00,1.3532
2243.00,1.3496
2242.00,1.3462
2241.00,1.3432
2240.00,1.3407
2239.00,1.3386
2238.00,1.3366
2237.00,1.3347
2236.00,1.3330
2235.00,1.3316
2234.00,1.3306
2233.00,1.3297
2232.00,1.3289
2231.00,1.3278
2230.00,1.3266
2229.00,1.3253
2228.00,1.3239
2227.00,1.3224
2226.00,1.3208
2225.00,1.3195
2224.00,1.3186
2223.00,1.3183
2222.00,1.3181
2221.00,1.3175
2220.00,1.3165
2219.00,1.3152
2218.00,1.3138
2217.00,1.3126
2216.00,1.3114
2215.00,1.3102
2214.00,1.3090
2213.00,1.3075
2212.00,1.3059
2211.00,1.3043
2210.00,1.3028
2209.00,1.3014
2208.00,1.3000
2207.00,1.2984
2206.00,1.2968
2205.00,1.2954
2204.00,1.2943
2203.00,1.2934
2202.00,1.2923
2201.00,1.2909
2200.00,1.2894
2199.00,1.2881
2198.00,1.2871
2197.00,1.2863
2196.00,1.2857
2195.00,1.2854
2194.00,1.2853
2193.00,1.2851
2192.00,1.2847
2191.00,1.2842
2190.00,1.2840
2189.00,1.2841
2188.00,1.2844
2187.00,1.2848
2186.00,1.2851
2185.00,1.2854
2184.00,1.2856
2183.00,1.2860
2182.00,1.2866
2181.00,1.2876
2180.00,1.2885
2179.00,1.2894
2178.00,1.2904
2177.00,1.2913
2176.00,1.2922
2175.00,1.2930
2174.00,1.2937
2173.00,1.2943
2172.00,1.2948
2171.00,1.2951
2170.00,1.2955
2169.00,1.2959
2168.00,1.2966
2167.00,1.2972
2166.00,1.2976
2165.00,1.2976
2164.00,1.2972
2163.00,1.2967
2162.00,1.2962
2161.00,1.2957
2160.00,1.2950
2159.00,1.2942
2158.00,1.2933
2157.00,1.2925
2156.00,1.2920
2155.00,1.2914
2154.00,1.2906
2153.00,1.2896
2152.00,1.2887
2151.00,1.2879
2150.00,1.2873
2149.00,1.2867
2148.00,1.2860
2147.00,1.2854
2146.00,1.2849
2145.00,1.2843
2144.00,1.2836
2143.00,1.2828
2142.00,1.2821
2141.00,1.2816
2140.00,1.2813
2139.00,1.2810
2138.00,1.2806
2137.00,1.2802
2136.00,1.2796
2135.00,1.2790
2134.00,1.2783
2133.00,1.2777
2132.00,1.2771
2131.00,1.2765
2130.00,1.2758
2129.00,1.2750
2128.00,1.2742
2127.00,1.2733
2126.00,1.2725
2125.00,1.2716
2124.00,1.2707
2123.00,1.2698
2122.00,1.2688
2121.00,1.2676
2120.00,1.2664
2119.00,1.2652
2118.00,1.2642
2117.00,1.2631
2116.00,1.2619
2115.00,1.2605
2114.00,1.2593
2113.00,1.2582
2112.00,1.2573
2111.00,1.2562
2110.00,1.2549
2109.00,1.2534
2108.00,1.2520
2107.00,1.2507
2106.00,1.2494
2105.00,1.2482
2104.00,1.2469
2103.00,1.2457
2102.00,1.2445
2101.00,1.2433
2100.00,1.2420
2099.00,1.2408
2098.00,1.2396
2097.00,1.2385
2096.00,1.2377
2095.00,1.2371
2094.00,1.2366
2093.00,1.2360
2092.00,1.2353
2091.00,1.2346
2090.00,1.2341
2089.00,1.2339
2088.00,1.2339
2087.00,1.2337
2086.00,1.2333
2085.00,1.2326
2084.00,1.2318
2083.00,1.2312
2082.00,1.2307
2081.00,1.2303
2080.00,1.2299
2079.00,1.2296
2078.00,1.2295
2077.00,1.2297
2076.00,1.2298
2075.00,1.2297
2074.00,1.2296
2073.00,1.2297
2072.00,1.2300
2071.00,1.2305
2070.00,1.2310
2069.00,1.2314
2068.00,1.2318
2067.00,1.2322
2066.00,1.2327
2065.00,1.2329
2064.00,1.2330
2063.00,1.2331
2062.00,1.2331
2061.00,1.2333
2060.00,1.2333
2059.00,1.2330
2058.00,1.2324
2057.00,1.2315
2056.00,1.2305
2055.00,1.2295
2054.00,1.2288
2053.00,1.2281
2052.00,1.2275
2051.00,1.2268
2050.00,1.2261
2049.00,1.2255
2048.00,1.2250
2047.00,1.2243
2046.00,1.2232
2045.00,1.2221
2044.00,1.2212
2043.00,1.2205
2042.00,1.2197
2041.00,1.2188
2040.00,1.2178
2039.00,1.2168
2038.00,1.2159
2037.00,1.2152
2036.00,1.2147
2035.00,1.2146
2034.00,1.2146
2033.00,1.2148
2032.00,1.2148
2031.00,1.2147
2030.00,1.2146
2029.00,1.2145
2028.00,1.2147
2027.00,1.2149
2026.00,1.2153
2025.00,1.2157
2024.00,1.2161
2023.00,1.2166
2022.00,1.2169
2021.00,1.2172
2020.00,1.2174
2019.00,1.2178
2018.00,1.2184
2017.00,1.2193
2016.00,1.2204
2015.00,1.2213
2014.00,1.2220
2013.00,1.2224
2012.00,1.2228
2011.00,1.2233
2010.00,1.2240
2009.00,1.2248
2008.00,1.2257
2007.00,1.2265
2006.00,1.2272
2005.00,1.2280
2004.00,1.2287
2003.00,1.2295
2002.00,1.2302
2001.00,1.2306
2000.00,1.2309
1999.00,1.2313
1998.00,1.2318
1997.00,1.2321
1996.00,1.2322
1995.00,1.2321
1994.00,1.2322
1993.00,1.2322
1992.00,1.2324
1991.00,1.2328
1990.00,1.2336
1989.00,1.2345
1988.00,1.2355
1987.00,1.2363
1986.00,1.2373
1985.00,1.2384
1984.00,1.2397
1983.00,1.2408
1982.00,1.2417
1981.00,1.2426
1980.00,1.2436
1979.00,1.2450
1978.00,1.2466
1977.00,1.2482
1976.00,1.2497
1975.00,1.2508
1974.00,1.2518
1973.00,1.2527
1972.00,1.2534
1971.00,1.2541
1970.00,1.2549
1969.00,1.2558
1968.00,1.2567
1967.00,1.2573
1966.00,1.2576
1965.00,1.2574
1964.00,1.2571
1963.00,1.2568
1962.00,1.2564
1961.00,1.2559
1960.00,1.2551
1959.00,1.2541
1958.00,1.2530
1957.00,1.2519
1956.00,1.2509
1955.00,1.2500
1954.00,1.2490
1953.00,1.2481
1952.00,1.2473
1951.00,1.2465
1950.00,1.2455
1949.00,1.2444
1948.00,1.2432
1947.00,1.2420
1946.00,1.2411
1945.00,1.2404
1944.00,1.2398
1943.00,1.2391
1942.00,1.2381
1941.00,1.2369
1940.00,1.2359
1939.00,1.2350
1938.00,1.2342
1937.00,1.2333
1936.00,1.2324
1935.00,1.2317
1934.00,1.2311
1933.00,1.2304
1932.00,1.2297
1931.00,1.2291
1930.00,1.2285
1929.00,1.2277
1928.00,1.2266
1927.00,1.2254
1926.00,1.2243
1925.00,1.2236
1924.00,1.2228
1923.00,1.2218
1922.00,1.2207
1921.00,1.2197
1920.00,1.2191
1919.00,1.2185
1918.00,1.2177
1917.00,1.2167
1916.00,1.2158
1915.00,1.2149
1914.00,1.2140
1913.00,1.2130
1912.00,1.2118
1911.00,1.2105
1910.00,1.2093
1909.00,1.2081
1908.00,1.2068
1907.00,1.2055
1906.00,1.2040
1905.00,1.2024
1904.00,1.2006
1903.00,1.1989
1902.00,1.1975
1901.00,1.1964
1900.00,1.1955
1899.00,1.1944
1898.00,1.1931
1897.00,1.1917
1896.00,1.1907
1895.00,1.1898
1894.00,1.1890
1893.00,1.1884
1892.00,1.1880
1891.00,1.1875
1890.00,1.1868
1889.00,1.1860
1888.00,1.1852
1887.00,1.1846
1886.00,1.1840
1885.00,1.1832
1884.00,1.1824
1883.00,1.1818
1882.00,1.1814
1881.00,1.1810
1880.00,1.1806
1879.00,1.1801
1878.00,1.1797
1877.00,1.1794
1876.00,1.1792
1875.00,1.1789
1874.00,1.1784
1873.00,1.1776
1872.00,1.1769
1871.00,1.1766
1870.00,1.1763
1869.00,1.1759
1868.00,1.1751
1867.00,1.1744
1866.00,1.1740
1865.00,1.1738
1864.00,1.1735
1863.00,1.1730
1862.00,1.1721
1861.00,1.1710
1860.00,1.1697
1859.00,1.1683
1858.00,1.1672
1857.00,1.1662
1856.00,1.1653
1855.00,1.1641
1854.00,1.1629
1853.00,1.1615
1852.00,1.1602
1851.00,1.1592
1850.00,1.1582
1849.00,1.1572
1848.00,1.1560
1847.00,1.1550
1846.00,1.1544
1845.00,1.1538
1844.00,1.1528
1843.00,1.1516
1842.00,1.1510
1841.00,1.1508
1840.00,1.1505
1839.00,1.1497
1838.00,1.1488
1837.00,1.1480
1836.00,1.1475
1835.00,1.1469
1834.00,1.1463
1833.00,1.1459
1832.00,1.1462
1831.00,1.1468
1830.00,1.1470
1829.00,1.1465
1828.00,1.1460
1827.00,1.1460
1826.00,1.1462
1825.00,1.1464
1824.00,1.1466
1823.00,1.1470
1822.00,1.1477
1821.00,1.1481
1820.00,1.1483
1819.00,1.1487
1818.00,1.1495
1817.00,1.1506
1816.00,1.1516
1815.00,1.1522
1814.00,1.1526
1813.00,1.1528
1812.00,1.1530
1811.00,1.1532
1810.00,1.1532
1809.00,1.1532
1808.00,1.1530
1807.00,1.1525
1806.00,1.1518
1805.00,1.1511
1804.00,1.1505
1803.00,1.1501
1802.00,1.1499
1801.00,1.1497
1800.00,1.1493
1799.00,1.1488
1798.00,1.1481
1797.00,1.1474
1796.00,1.1466
1795.00,1.1459
1794.00,1.1455
1793.00,1.1454
1792.00,1.1453
1791.00,1.1450
1790.00,1.1448
1789.00,1.1448
1788.00,1.1447
1787.00,1.1443
1786.00,1.1438
1785.00,1.1431
1784.00,1.1424
1783.00,1.1420
1782.00,1.1420
1781.00,1.1420
1780.00,1.1417
1779.00,1.1414
1778.00,1.1411
1777.00,1.1407
1776.00,1.1399
1775.00,1.1388
1774.00,1.1384
1773.00,1.1385
1772.00,1.1387
1771.00,1.1388
1770.00,1.1391
1769.00,1.1392
1768.00,1.1387
1767.00,1.1376
1766.00,1.1367
1765.00,1.1362
1764.00,1.1361
1763.00,1.1359
1762.00,1.1352
1761.00,1.1343
1760.00,1.1339
1759.00,1.1342
1758.00,1.1350
1757.00,1.1355
1756.00,1.1356
1755.00,1.1357
1754.00,1.1361
1753.00,1.1368
1752.00,1.1378
1751.00,1.1391
1750.00,1.1410
1749.00,1.1433
1748.00,1.1454
1747.00,1.1472
1746.00,1.1488
1745.00,1.1504
1744.00,1.1519
1743.00,1.1531
1742.00,1.1545
1741.00,1.1563
1740.00,1.1581
1739.00,1.1591
1738.00,1.1594
1737.00,1.1594
1736.00,1.1596
1735.00,1.1597
1734.00,1.1594
1733.00,1.1595
1732.00,1.1610
1731.00,1.1626
1730.00,1.1626
1729.00,1.1608
1728.00,1.1583
1727.00,1.1563
1726.00,1.1550
1725.00,1.1539
1724.00,1.1526
1723.00,1.1509
1722.00,1.1489
1721.00,1.1471
1720.00,1.1455
1719.00,1.1439
1718.00,1.1420
1717.00,1.1407
1716.00,1.1409
1715.00,1.1418
1714.00,1.1422
1713.00,1.1421
1712.00,1.1420
1711.00,1.1420
1710.00,1.1420
1709.00,1.1420
1708.00,1.1425
1707.00,1.1435
1706.00,1.1446
1705.00,1.1452
1704.00,1.1453
1703.00,1.1454
1702.00,1.1463
1701.00,1.1475
1700.00,1.1478
1699.00,1.1481
1698.00,1.1503
1697.00,1.1537
1696.00,1.1566
1695.00,1.1584
1694.00,1.1607
1693.00,1.1641
1692.00,1.1673
1691.00,1.1695
1690.00,1.1709
1689.00,1.1717
1688.00,1.1718
1687.00,1.1718
1686.00,1.1727
1685.00,1.1746
1684.00,1.1761
1683.00,1.1775
1682.00,1.1803
1681.00,1.1833
1680.00,1.1848
1679.00,1.1850
1678.00,1.1850
1677.00,1.1856
1676.00,1.1864
1675.00,1.1866
1674.00,1.1868
1673.00,1.1877
1672.00,1.1891
1671.00,1.1903
1670.00,1.1907
1669.00,1.1906
1668.00,1.1904
1667.00,1.1906
1666.00,1.1913
1665.00,1.1922
1664.00,1.1931
1663.00,1.1936
1662.00,1.1941
1661.00,1.1949
1660.00,1.1960
1659.00,1.1968
1658.00,1.1969
1657.00,1.1966
1656.00,1.1964
1655.00,1.1970
1654.00,1.1981
1653.00,1.1977
1652.00,1.1978
1651.00,1.2014
1650.00,1.2068
1649.00,1.2115
1648.00,1.2144
1647.00,1.2151
1646.00,1.2151
1645.00,1.2161
1644.00,1.2186
1643.00,1.2216
1642.00,1.2242
1641.00,1.2263
1640.00,1.2283
1639.00,1.2306
1638.00,1.2334
1637.00,1.2360
1636.00,1.2374
1635.00,1.2375
1634.00,1.2383
1633.00,1.2409
1632.00,1.2442
1631.00,1.2470
1630.00,1.2492
1629.00,1.2511
1628.00,1.2527
1627.00,1.2541
1626.00,1.2562
1625.00,1.2590
1624.00,1.2615
1623.00,1.2630
1622.00,1.2644
1621.00,1.2667
1620.00,1.2702
1619.00,1.2743
1618.00,1.2786
1617.00,1.2831
1616.00,1.2882
1615.00,1.2950
1614.00,1.3041
1613.00,1.3148
1612.00,1.3261
1611.00,1.3379
1610.00,1.3507
1609.00,1.3649
1608.00,1.3801
1607.00,1.3958
1606.00,1.4124
1605.00,1.4302
1604.00,1.4489
1603.00,1.4683
1602.00,1.4881
1601.00,1.5087
1600.00,1.5294
1599.00,1.5498
1598.00,1.5701
1597.00,1.5911
1596.00,1.6126
1595.00,1.6341
1594.00,1.6558
1593.00,1.6787
1592.00,1.7027
1591.00,1.7267
1590.00,1.7508
1589.00,1.7760
1588.00,1.8022
1587.00,1.8280
1586.00,1.8534
1585.00,1.8796
1584.00,1.9064
1583.00,1.9321
1582.00,1.9564
1581.00,1.9804
1580.00,2.0047
1579.00,2.0288
1578.00,2.0540
1577.00,2.0828
1576.00,2.1141
1575.00,2.1421
1574.00,2.1653
1573.00,2.1867
1572.00,2.2086
1571.00,2.2319
1570.00,2.2590
1569.00,2.2918
1568.00,2.3252
1567.00,2.3518
1566.00,2.3730
1565.00,2.3971
1564.00,2.4259
1563.00,2.4511
1562.00,2.4689
1561.00,2.4881
1560.00,2.5191
1559.00,2.5569
1558.00,2.5906
1557.00,2.6237
1556.00,2.6597
1555.00,2.6895
1554.00,2.7066
1553.00,2.7183
1552.00,2.7341
1551.00,2.7535
1550.00,2.7722
1549.00,2.7882
1548.00,2.7962
1547.00,2.7909
1546.00,2.7807
1545.00,2.7817
1544.00,2.7969
1543.00,2.8131
1542.00,2.8244
1541.00,2.8418
1540.00,2.8673
1539.00,2.8821
1538.00,2.8807
1537.00,2.8793
1536.00,2.8842
1535.00,2.8871
1534.00,2.8833
1533.00,2.8799
1532.00,2.8818
1531.00,2.8821
1530.00,2.8769
1529.00,2.8725
1528.00,2.8750
1527.00,2.8859
1526.00,2.9072
1525.00,2.9388
1524.00,2.9664
1523.00,2.9699
1522.00,2.9519
1521.00,2.9374
1520.00,2.9418
1519.00,2.9633
1518.00,3.0004
1517.00,3.0507
1516.00,3.0877
1515.00,3.0832
1514.00,3.0578
1513.00,3.0452
1512.00,3.0490
1511.00,3.0547
1510.00,3.0588
1509.00,3.0713
1508.00,3.0899
1507.00,3.0918
1506.00,3.0764
1505.00,3.0679
1504.00,3.0648
1503.00,3.0576
1502.00,3.0568
1501.00,3.0689
1500.00,3.0759
1499.00,3.0498
1498.00,3.0015
1497.00,2.9721
1496.00,2.9730
1495.00,2.9812
1494.00,2.9809
1493.00,2.9832
1492.00,2.9948
1491.00,2.9986
1490.00,2.9762
1489.00,2.9366
1488.00,2.9028
1487.00,2.8906
1486.00,2.9085
1485.00,2.9561
1484.00,3.0139
1483.00,3.0469
1482.00,3.0397
1481.00,3.0135
1480.00,2.9893
1479.00,2.9735
1478.00,2.9741
1477.00,3.0017
1476.00,3.0514
1475.00,3.0969
1474.00,3.1206
1473.00,3.1375
1472.00,3.1615
1471.00,3.1819
1470.00,3.1940
1469.00,3.2115
1468.00,3.2348
1467.00,3.2434
1466.00,3.2325
1465.00,3.2256
1464.00,3.2334
1463.00,3.2359
1462.00,3.2222
1461.00,3.2083
1460.00,3.2033
1459.00,3.1962
1458.00,3.1821
1457.00,3.1782
1456.00,3.1916
1455.00,3.2019
1454.00,3.1959
1453.00,3.1842
1452.00,3.1762
1451.00,3.1717
1450.00,3.1771
1449.00,3.2025
1448.00,3.2378
1447.00,3.2590
1446.00,3.2629
1445.00,3.2667
1444.00,3.2776
1443.00,3.2822
1442.00,3.2746
1441.00,3.2710
1440.00,3.2790
1439.00,3.2836
1438.00,3.2738
1437.00,3.2558
1436.00,3.2254
1435.00,3.1796
1434.00,3.1461
1433.00,3.1539
1432.00,3.2049
1431.00,3.2668
1430.00,3.2983
1429.00,3.3049
1428.00,3.3168
1427.00,3.3352
1426.00,3.3415
1425.00,3.3303
1424.00,3.3113
1423.00,3.2958
1422.00,3.2974
1421.00,3.3272
1420.00,3.3718
1419.00,3.3881
1418.00,3.3675
1417.00,3.3522
1416.00,3.3616
1415.00,3.3778
1414.00,3.3824
1413.00,3.3822
1412.00,3.3863
1411.00,3.3792
1410.00,3.3606
1409.00,3.3643
1408.00,3.3915
1407.00,3.4057
1406.00,3.4032
1405.00,3.4000
1404.00,3.3915
1403.00,3.3634
1402.00,3.3110
1401.00,3.2567
1400.00,3.2271
1399.00,3.2338
1398.00,3.2852
1397.00,3.3893
1396.00,3.5172
1395.00,3.5622
1394.00,3.4808
1393.00,3.3803
1392.00,3.3223
1391.00,3.2930
1390.00,3.2758
1389.00,3.2878
1388.00,3.3479
1387.00,3.4360
1386.00,3.4912
1385.00,3.4918
1384.00,3.4998
1383.00,3.5589
1382.00,3.6417
1381.00,3.7061
1380.00,3.7868
1379.00,3.8686
1378.00,3.8430
1377.00,3.7795
1376.00,3.7562
1375.00,3.7482
1374.00,3.7336
1373.00,3.6916
1372.00,3.5921
1371.00,3.4537
1370.00,3.3278
1369.00,3.2524
1368.00,3.2350
1367.00,3.2539
1366.00,3.2729
1365.00,3.2665
1364.00,3.2363
1363.00,3.1991
1362.00,3.1797
1361.00,3.1968
1360.00,3.2446
1359.00,3.2948
1358.00,3.3192
1357.00,3.3091
1356.00,3.2700
1355.00,3.2166
1354.00,3.1670
1353.00,3.1350
1352.00,3.1312
1351.00,3.1586
1350.00,3.2078
1349.00,3.2584
1348.00,3.2900
1347.00,3.3015
1346.00,3.3081
1345.00,3.3122
1344.00,3.2935
1343.00,3.2411
1342.00,3.1787
1341.00,3.1394
1340.00,3.1362
1339.00,3.1519
1338.00,3.1596
1337.00,3.1572
1336.00,3.1580
1335.00,3.1656
1334.00,3.1751
1333.00,3.1873
1332.00,3.2044
1331.00,3.2212
1330.00,3.2403
1329.00,3.2775
1328.00,3.3341
1327.00,3.3789
1326.00,3.3834
1325.00,3.3692
1324.00,3.3721
1323.00,3.4005
1322.00,3.4445
1321.00,3.4968
1320.00,3.5505
1319.00,3.5891
1318.00,3.6137
1317.00,3.6633
1316.00,3.7607
1315.00,3.8525
1314.00,3.8453
1313.00,3.7785
1312.00,3.7623
1311.00,3.8472
1310.00,3.9158
1309.00,3.8184
1308.00,3.7352
1307.00,3.7261
1306.00,3.7388
1305.00,3.7136
1304.00,3.6262
1303.00,3.5448
1302.00,3.5346
1301.00,3.6128
1300.00,3.7440
1299.00,3.8320
1298.00,3.8423
1297.00,3.8831
1296.00,3.9907
1295.00,4.0132
1294.00,3.9069
1293.00,3.8071
1292.00,3.7481
1291.00,3.7102
1290.00,3.6925
1289.00,3.7195
1288.00,3.7955
1287.00,3.8007
1286.00,3.6691
1285.00,3.5708
1284.00,3.5489
1283.00,3.5624
1282.00,3.6144
1281.00,3.7129
1280.00,3.7151
1279.00,3.6361
1278.00,3.6754
1277.00,3.8976
1276.00,4.1379
1275.00,4.0634
1274.00,4.0292
1273.00,4.0807
1272.00,4.1996
1271.00,4.5506
1270.00,4.5507
1269.00,4.0975
1268.00,3.8317
1267.00,3.6642
1266.00,3.5769
1265.00,3.5506
1264.00,3.5676
1263.00,3.5950
1262.00,3.5761
1261.00,3.5109
1260.00,3.4503
1259.00,3.4387
1258.00,3.4692
1257.00,3.4690
1256.00,3.4248
1255.00,3.4101
1254.00,3.4465
1253.00,3.5055
1252.00,3.5289
1251.00,3.4653
1250.00,3.3450
1249.00,3.2571
1248.00,3.2637
1247.00,3.3732
1246.00,3.5212
1245.00,3.5724
1244.00,3.5189
1243.00,3.4892
1242.00,3.5135
1241.00,3.5426
1240.00,3.5528
1239.00,3.5337
1238.00,3.5059
1237.00,3.5319
1236.00,3.6325
1235.00,3.7037
1234.00,3.6839
1233.00,3.7484
1232.00,3.9205
1231.00,3.8527
1230.00,3.6718
1229.00,3.5741
1228.00,3.5047
1227.00,3.4443
1226.00,3.4015
1225.00,3.3880
1224.00,3.4245
1223.00,3.5015
1222.00,3.5291
1221.00,3.4698
1220.00,3.3837
1219.00,3.3039
1218.00,3.2571
1217.00,3.2504
1216.00,3.2536
1215.00,3.2283
1214.00,3.1856
1213.00,3.1748
1212.00,3.2158
1211.00,3.2576
1210.00,3.2450
1209.00,3.2204
1208.00,3.2240
1207.00,3.2492
1206.00,3.2724
1205.00,3.2735
1204.00,3.2585
1203.00,3.2510
1202.00,3.2643
1201.00,3.3000
1200.00,3.3541
1199.00,3.3922
1198.00,3.3679
1197.00,3.3064
1196.00,3.2655
1195.00,3.2722
1194.00,3.3244
1193.00,3.4012
1192.00,3.4801
1191.00,3.5317
1190.00,3.5136
1189.00,3.4568
1188.00,3.4220
1187.00,3.4291
1186.00,3.4517
1185.00,3.4358
1184.00,3.3898
1183.00,3.3688
1182.00,3.3934
1181.00,3.4141
1180.00,3.3500
1179.00,3.2337
1178.00,3.1426
1177.00,3.0984
1176.00,3.0873
1175.00,3.0900
1174.00,3.1004
1173.00,3.1249
1172.00,3.1666
1171.00,3.2096
1170.00,3.2304
1169.00,3.2188
1168.00,3.1806
1167.00,3.1351
1166.00,3.1004
1165.00,3.0771
1164.00,3.0611
1163.00,3.0591
1162.00,3.0732
1161.00,3.0939
1160.00,3.1189
1159.00,3.1582
1158.00,3.2222
1157.00,3.2937
1156.00,3.3264
1155.00,3.3001
1154.00,3.2482
1153.00,3.2070
1152.00,3.1771
1151.00,3.1544
1150.00,3.1520
1149.00,3.1882
1148.00,3.2735
1147.00,3.3835
1146.00,3.4370
1145.00,3.3973
1144.00,3.3451
1143.00,3.3567
1142.00,3.4372
1141.00,3.5015
1140.00,3.4527
1139.00,3.3547
1138.00,3.3144
1137.00,3.3553
1136.00,3.4044
1135.00,3.3528
1134.00,3.2314
1133.00,3.1305
1132.00,3.0792
1131.00,3.0631
1130.00,3.0596
1129.00,3.0594
1128.00,3.0692
1127.00,3.0873
1126.00,3.0992
1125.00,3.1043
1124.00,3.1251
1123.00,3.1596
1122.00,3.1573
1121.00,3.1202
1120.00,3.1135
1119.00,3.1530
1118.00,3.1847
1117.00,3.1601
1116.00,3.1246
1115.00,3.1253
1114.00,3.1512
1113.00,3.1650
1112.00,3.1538
1111.00,3.1367
1110.00,3.1236
1109.00,3.1089
1108.00,3.0890
1107.00,3.0621
1106.00,3.0248
1105.00,2.9789
1104.00,2.9364
1103.00,2.9156
1102.00,2.9271
1101.00,2.9624
1100.00,3.0032
1099.00,3.0379
1098.00,3.0616
1097.00,3.0665
1096.00,3.0391
1095.00,2.9787
1094.00,2.9085
1093.00,2.8466
1092.00,2.7905
1091.00,2.7369
1090.00,2.6930
1089.00,2.6639
1088.00,2.6420
1087.00,2.6132
1086.00,2.5739
1085.00,2.5338
1084.00,2.5028
1083.00,2.4804
1082.00,2.4584
1081.00,2.4284
1080.00,2.3866
1079.00,2.3387
1078.00,2.2965
1077.00,2.2662
1076.00,2.2429
1075.00,2.2172
1074.00,2.1865
1073.00,2.1574
1072.00,2.1357
1071.00,2.1202
1070.00,2.1064
1069.00,2.0929
1068.00,2.0811
1067.00,2.0723
1066.00,2.0648
1065.00,2.0555
1064.00,2.0418
1063.00,2.0234
1062.00,2.0027
1061.00,1.9835
1060.00,1.9687
1059.00,1.9584
1058.00,1.9513
1057.00,1.9466
1056.00,1.9434
1055.00,1.9396
1054.00,1.9328
1053.00,1.9226
1052.00,1.9117
1051.00,1.9027
1050.00,1.8956
1049.00,1.8891
1048.00,1.8826
1047.00,1.8766
1046.00,1.8715
1045.00,1.8674
1044.00,1.8648
1043.00,1.8639
1042.00,1.8645
1041.00,1.8654
1040.00,1.8658
1039.00,1.8652
1038.00,1.8631
1037.00,1.8584
1036.00,1.8513
1035.00,1.8444
1034.00,1.8410
1033.00,1.8416
1032.00,1.8437
1031.00,1.8445
1030.00,1.8439
1029.00,1.8444
1028.00,1.8479
1027.00,1.8541
1026.00,1.8610
1025.00,1.8669
1024.00,1.8714
1023.00,1.8752
1022.00,1.8786
1021.00,1.8822
1020.00,1.8865
1019.00,1.8929
1018.00,1.9030
1017.00,1.9172
1016.00,1.9355
1015.00,1.9575
1014.00,1.9835
1013.00,2.0142
1012.00,2.0514
1011.00,2.0980
1010.00,2.1569
1009.00,2.2290
1008.00,2.3112
1007.00,2.3986
1006.00,2.4887
1005.00,2.5837
1004.00,2.6840
1003.00,2.7784
1002.00,2.8497
1001.00,2.8847
1000.00,2.8813
999.00,2.8566
998.00,2.8332
997.00,2.8282
996.00,2.8450
995.00,2.8690
994.00,2.8807
993.00,2.8765
992.00,2.8706
991.00,2.8804
990.00,2.9182
989.00,2.9875
988.00,3.0752
987.00,3.1336
986.00,3.1192
985.00,3.0703
984.00,3.0278
983.00,2.9893
982.00,2.9468
981.00,2.9089
980.00,2.8920
979.00,2.8974
978.00,2.8967
977.00,2.8497
976.00,2.7564
975.00,2.6559
974.00,2.5739
973.00,2.5052
972.00,2.4311
971.00,2.3452
970.00,2.2586
969.00,2.1839
968.00,2.1244
967.00,2.0766
966.00,2.0360
965.00,1.9988
964.00,1.9610
963.00,1.9199
962.00,1.8762
961.00,1.8335
960.00,1.7948
959.00,1.7612
958.00,1.7320
957.00,1.7068
956.00,1.6852
955.00,1.6667
954.00,1.6509
953.00,1.6373
952.00,1.6256
951.00,1.6156
950.00,1.6074
949.00,1.6007
948.00,1.5946
947.00,1.5883
946.00,1.5815
945.00,1.5744
944.00,1.5674
943.00,1.5603
942.00,1.5535
941.00,1.5478
940.00,1.5436
939.00,1.5406
938.00,1.5384
937.00,1.5365
936.00,1.5349
935.00,1.5345
934.00,1.5358
933.00,1.5388
932.00,1.5423
931.00,1.5452
930.00,1.5470
929.00,1.5480
928.00,1.5482
927.00,1.5462
926.00,1.5420
925.00,1.5367
924.00,1.5320
923.00,1.5274
922.00,1.5212
921.00,1.5125
920.00,1.5027
919.00,1.4937
918.00,1.4861
917.00,1.4794
916.00,1.4727
915.00,1.4654
914.00,1.4574
913.00,1.4485
912.00,1.4388
911.00,1.4285
910.00,1.4185
909.00,1.4096
908.00,1.4017
907.00,1.3944
906.00,1.3875
905.00,1.3819
904.00,1.3781
903.00,1.3757
902.00,1.3734
901.00,1.3698
900.00,1.3648
899.00,1.3589
898.00,1.3528
897.00,1.3469
896.00,1.3418
895.00,1.3379
894.00,1.3354
893.00,1.3342
892.00,1.3337
891.00,1.3329
890.00,1.3315
889.00,1.3296
888.00,1.3283
887.00,1.3282
886.00,1.3293
885.00,1.3307
884.00,1.3313
883.00,1.3298
882.00,1.3262
881.00,1.3211
880.00,1.3159
879.00,1.3112
878.00,1.3072
877.00,1.3037
876.00,1.3003
875.00,1.2968
874.00,1.2931
873.00,1.2895
872.00,1.2869
871.00,1.2860
870.00,1.2865
869.00,1.2873
868.00,1.2874
867.00,1.2864
866.00,1.2848
865.00,1.2835
864.00,1.2830
863.00,1.2830
862.00,1.2833
861.00,1.2844
860.00,1.2868
859.00,1.2904
858.00,1.2945
857.00,1.2986
856.00,1.3031
855.00,1.3089
854.00,1.3161
853.00,1.3245
852.00,1.3332
851.00,1.3413
850.00,1.3476
849.00,1.3516
848.00,1.3534
847.00,1.3535
846.00,1.3522
845.00,1.3498
844.00,1.3465
843.00,1.3426
842.00,1.3386
841.00,1.3349
840.00,1.3319
839.00,1.3304
838.00,1.3306
837.00,1.3323
836.00,1.3356
835.00,1.3407
834.00,1.3480
833.00,1.3583
832.00,1.3722
831.00,1.3903
830.00,1.4122
829.00,1.4381
828.00,1.4711
827.00,1.5192
826.00,1.5952
825.00,1.7128
824.00,1.8828
823.00,2.1064
822.00,2.3616
821.00,2.5877
820.00,2.7219
819.00,2.7722
818.00,2.7823
817.00,2.7798
816.00,2.7814
815.00,2.8008
814.00,2.8363
813.00,2.8742
812.00,2.8932
811.00,2.8745
810.00,2.8407
809.00,2.8265
808.00,2.8293
807.00,2.8217
806.00,2.7997
805.00,2.7916
804.00,2.8179
803.00,2.8641
802.00,2.8854
801.00,2.8605
800.00,2.8227
799.00,2.7996
798.00,2.7812
797.00,2.7590
796.00,2.7389
795.00,2.7226
794.00,2.7195
793.00,2.7295
792.00,2.7296
791.00,2.7024
790.00,2.6513
789.00,2.5906
788.00,2.5345
787.00,2.4886
786.00,2.4523
785.00,2.4240
784.00,2.4020
783.00,2.3832
782.00,2.3625
781.00,2.3372
780.00,2.3091
779.00,2.2832
778.00,2.2631
777.00,2.2494
776.00,2.2401
775.00,2.2325
774.00,2.2244
773.00,2.2161
772.00,2.2101
771.00,2.2080
770.00,2.2082
769.00,2.2055
768.00,2.1954
767.00,2.1801
766.00,2.1682
765.00,2.1663
764.00,2.1712
763.00,2.1732
762.00,2.1655
761.00,2.1500
760.00,2.1343
759.00,2.1258
758.00,2.1285
757.00,2.1436
756.00,2.1684
755.00,2.1961
754.00,2.2191
753.00,2.2360
752.00,2.2559
751.00,2.2940
750.00,2.3615
749.00,2.4531
748.00,2.5407
747.00,2.5941
746.00,2.6158
745.00,2.6295
744.00,2.6351
743.00,2.6031
742.00,2.5212
741.00,2.4179
740.00,2.3245
739.00,2.2528
738.00,2.2013
737.00,2.1649
736.00,2.1368
735.00,2.1063
734.00,2.0662
733.00,2.0209
732.00,1.9800
731.00,1.9500
730.00,1.9330
729.00,1.9293
728.00,1.9398
727.00,1.9649
726.00,2.0014
725.00,2.0420
724.00,2.0787
723.00,2.1077
722.00,2.1298
721.00,2.1468
720.00,2.1570
719.00,2.1576
718.00,2.1468
717.00,2.1282
716.00,2.1106
715.00,2.1020
714.00,2.1039
713.00,2.1105
712.00,2.1123
711.00,2.1050
710.00,2.0931
709.00,2.0815
708.00,2.0710
707.00,2.0597
706.00,2.0474
705.00,2.0374
704.00,2.0320
703.00,2.0283
702.00,2.0198
701.00,2.0040
700.00,1.9860
699.00,1.9734
698.00,1.9701
697.00,1.9725
696.00,1.9732
695.00,1.9677
694.00,1.9578
693.00,1.9489
692.00,1.9441
691.00,1.9419
690.00,1.9379
689.00,1.9303
688.00,1.9223
687.00,1.9190
686.00,1.9210
685.00,1.9226
684.00,1.9179
683.00,1.9086
682.00,1.9016
681.00,1.9007
680.00,1.9038
679.00,1.9074
678.00,1.9108
677.00,1.9145
676.00,1.9173
675.00,1.9186
674.00,1.9202
673.00,1.9247
672.00,1.9323
671.00,1.9418
670.00,1.9540
669.00,1.9729
668.00,1.9935
667.00,1.9979
666.00,1.9882
665.00,1.9845
664.00,1.9907
663.00,2.0027
662.00,2.0164
661.00,2.0303
660.00,2.0436
659.00,2.0553
658.00,2.0649
657.00,2.0739
656.00,2.0848
655.00,2.0990
654.00,2.1165
653.00,2.1355
652.00,2.1541
651.00,2.1699
650.00,2.1797
649.00,2.1800
648.00,2.1704
647.00,2.1515
646.00,2.1233
645.00,2.0889
644.00,2.0554
643.00,2.0301
642.00,2.0155
641.00,2.0093
640.00,2.0071
639.00,2.0060
638.00,2.0013
637.00,1.9843
636.00,1.9483
635.00,1.8982
634.00,1.8485
633.00,1.8091
632.00,1.7802
631.00,1.7560
630.00,1.7337
629.00,1.7137
628.00,1.6969
627.00,1.6825
626.00,1.6689
625.00,1.6550
624.00,1.6408
623.00,1.6268
622.00,1.6146
621.00,1.6051
620.00,1.5981
619.00,1.5919
618.00,1.5855
617.00,1.5794
616.00,1.5742
615.00,1.5697
614.00,1.5649
613.00,1.5586
612.00,1.5500
611.00,1.5392
610.00,1.5276
609.00,1.5172
608.00,1.5095
607.00,1.5047
606.00,1.5018
605.00,1.4993
604.00,1.4955
603.00,1.4896
602.00,1.4816
601.00,1.4725
600.00,1.4633
599.00,1.4544
598.00,1.4465
597.00,1.4402
596.00,1.4360
595.00,1.4324
594.00,1.4276
593.00,1.4201
592.00,1.4107
591.00,1.4010
590.00,1.3925
589.00,1.3857
588.00,1.3808
587.00,1.3774
586.00,1.3758
585.00,1.3767
584.00,1.3804
583.00,1.3864
582.00,1.3936
581.00,1.4016
580.00,1.4105
579.00,1.4193
578.00,1.4262
577.00,1.4307
576.00,1.4335
575.00,1.4354
574.00,1.4363
573.00,1.4370
572.00,1.4394
571.00,1.4444
570.00,1.4511
569.00,1.4593
568.00,1.4702
567.00,1.4836
566.00,1.4954
565.00,1.5011
564.00,1.5016
563.00,1.5020
562.00,1.5068
561.00,1.5161
560.00,1.5277
559.00,1.5390
558.00,1.5487
557.00,1.5576
556.00,1.5688
555.00,1.5850
554.00,1.6049
553.00,1.6241
552.00,1.6405
551.00,1.6562
550.00,1.6740
