Created as New Dataset,Sample 001 By Dylan Kletzing Tuesday, March 11, 2025
cm-1,A
4000.00,0.2292
3999.00,0.2290
3998.00,0.2286
3997.00,0.2282
3996.00,0.2278
3995.00,0.2274
3994.00,0.2269
3993.00,0.2265
3992.00,0.2259
3991.00,0.2254
3990.00,0.2246
3989.00,0.2238
3988.00,0.2228
3987.00,0.2220
3986.00,0.2213
3985.00,0.2207
3984.00,0.2201
3983.00,0.2194
3982.00,0.2186
3981.00,0.2180
3980.00,0.2176
3979.00,0.2173
3978.00,0.2169
3977.00,0.2163
3976.00,0.2157
3975.00,0.2150
3974.00,0.2145
3973.00,0.2142
3972.00,0.2140
3971.00,0.2137
3970.00,0.2135
3969.00,0.2134
3968.00,0.2131
3967.00,0.2129
3966.00,0.2125
3965.00,0.2122
3964.00,0.2120
3963.00,0.2119
3962.00,0.2117
3961.00,0.2114
3960.00,0.2112
3959.00,0.2109
3958.00,0.2108
3957.00,0.2107
3956.00,0.2107
3955.00,0.2107
3954.00,0.2107
3953.00,0.2106
3952.00,0.2106
3951.00,0.2106
3950.00,0.2105
3949.00,0.2103
3948.00,0.2101
3947.00,0.2099
3946.00,0.2098
3945.00,0.2098
3944.00,0.2097
3943.00,0.2097
3942.00,0.2098
3941.00,0.2101
3940.00,0.2104
3939.00,0.2106
3938.00,0.2104
3937.00,0.2100
3936.00,0.2098
3935.00,0.2097
3934.00,0.2099
3933.00,0.2101
3932.00,0.2101
3931.00,0.2101
3930.00,0.2100
3929.00,0.2099
3928.00,0.2098
3927.00,0.2098
3926.00,0.2097
3925.00,0.2094
3924.00,0.2092
3923.00,0.2091
3922.00,0.2092
3921.00,0.2093
3920.00,0.2094
3919.00,0.2094
3918.00,0.2093
3917.00,0.2091
3916.00,0.2087
3915.00,0.2085
3914.00,0.2085
3913.00,0.2086
3912.00,0.2087
3911.00,0.2086
3910.00,0.2085
3909.00,0.2084
3908.00,0.2084
3907.00,0.2086
3906.00,0.2089
3905.00,0.2090
3904.00,0.2088
3903.00,0.2086
3902.00,0.2087
3901.00,0.2090
3900.00,0.2091
3899.00,0.2089
3898.00,0.2084
3897.00,0.2080
3896.00,0.2078
3895.00,0.2076
3894.00,0.2075
3893.00,0.2075
3892.00,0.2074
3891.00,0.2071
3890.00,0.2067
3889.00,0.2067
3888.00,0.2070
3887.00,0.2070
3886.00,0.2068
3885.00,0.2065
3884.00,0.2065
3883.00,0.2067
3882.00,0.2067
3881.00,0.2063
3880.00,0.2059
3879.00,0.2059
3878.00,0.2062
3877.00,0.2063
3876.00,0.2061
3875.00,0.2057
3874.00,0.2055
3873.00,0.2057
3872.00,0.2061
3871.00,0.2062
3870.00,0.2058
3869.00,0.2052
3868.00,0.2053
3867.00,0.2057
3866.00,0.2057
3865.00,0.2050
3864.00,0.2045
3863.00,0.2046
3862.00,0.2049
3861.00,0.2049
3860.00,0.2046
3859.00,0.2043
3858.00,0.2040
3857.00,0.2037
3856.00,0.2034
3855.00,0.2033
3854.00,0.2034
3853.00,0.2033
3852.00,0.2032
3851.00,0.2035
3850.00,0.2037
3849.00,0.2036
3848.00,0.2035
3847.00,0.2035
3846.00,0.2036
3845.00,0.2034
3844.00,0.2030
3843.00,0.2026
3842.00,0.2025
3841.00,0.2027
3840.00,0.2029
3839.00,0.2031
3838.00,0.2032
3837.00,0.2032
3836.00,0.2032
3835.00,0.2033
3834.00,0.2034
3833.00,0.2034
3832.00,0.2033
3831.00,0.2031
3830.00,0.2030
3829.00,0.2031
3828.00,0.2032
3827.00,0.2030
3826.00,0.2024
3825.00,0.2020
3824.00,0.2019
3823.00,0.2020
3822.00,0.2019
3821.00,0.2016
3820.00,0.2013
3819.00,0.2016
3818.00,0.2019
3817.00,0.2015
3816.00,0.2005
3815.00,0.1997
3814.00,0.1996
3813.00,0.1997
3812.00,0.1994
3811.00,0.1989
3810.00,0.1988
3809.00,0.1992
3808.00,0.1995
3807.00,0.1992
3806.00,0.1985
3805.00,0.1983
3804.00,0.1986
3803.00,0.1987
3802.00,0.1984
3801.00,0.1980
3800.00,0.1979
3799.00,0.1982
3798.00,0.1983
3797.00,0.1978
3796.00,0.1972
3795.00,0.1971
3794.00,0.1973
3793.00,0.1972
3792.00,0.1969
3791.00,0.1964
3790.00,0.1961
3789.00,0.1959
3788.00,0.1957
3787.00,0.1954
3786.00,0.1954
3785.00,0.1954
3784.00,0.1954
3783.00,0.1954
3782.00,0.1952
3781.00,0.1949
3780.00,0.1945
3779.00,0.1941
3778.00,0.1939
3777.00,0.1941
3776.00,0.1941
3775.00,0.1937
3774.00,0.1931
3773.00,0.1927
3772.00,0.1926
3771.00,0.1925
3770.00,0.1923
3769.00,0.1922
3768.00,0.1924
3767.00,0.1926
3766.00,0.1925
3765.00,0.1922
3764.00,0.1920
3763.00,0.1920
3762.00,0.1921
3761.00,0.1919
3760.00,0.1917
3759.00,0.1916
3758.00,0.1917
3757.00,0.1917
3756.00,0.1914
3755.00,0.1910
3754.00,0.1908
3753.00,0.1906
3752.00,0.1906
3751.00,0.1907
3750.00,0.1906
3749.00,0.1902
3748.00,0.1901
3747.00,0.1905
3746.00,0.1910
3745.00,0.1910
3744.00,0.1903
3743.00,0.1896
3742.00,0.1895
3741.00,0.1895
3740.00,0.1892
3739.00,0.1890
3738.00,0.1893
3737.00,0.1896
3736.00,0.1894
3735.00,0.1890
3734.00,0.1889
3733.00,0.1891
3732.00,0.1891
3731.00,0.1888
3730.00,0.1885
3729.00,0.1885
3728.00,0.1885
3727.00,0.1884
3726.00,0.1882
3725.00,0.1881
3724.00,0.1880
3723.00,0.1879
3722.00,0.1878
3721.00,0.1877
3720.00,0.1877
3719.00,0.1876
3718.00,0.1872
3717.00,0.1869
3716.00,0.1868
3715.00,0.1869
3714.00,0.1870
3713.00,0.1869
3712.00,0.1868
3711.00,0.1867
3710.00,0.1866
3709.00,0.1866
3708.00,0.1867
3707.00,0.1865
3706.00,0.1861
3705.00,0.1857
3704.00,0.1854
3703.00,0.1854
3702.00,0.1855
3701.00,0.1857
3700.00,0.1858
3699.00,0.1859
3698.00,0.1859
3697.00,0.1858
3696.00,0.1856
3695.00,0.1857
3694.00,0.1860
3693.00,0.1863
3692.00,0.1866
3691.00,0.1870
3690.00,0.1873
3689.00,0.1872
3688.00,0.1869
3687.00,0.1867
3686.00,0.1868
3685.00,0.1869
3684.00,0.1868
3683.00,0.1865
3682.00,0.1864
3681.00,0.1863
3680.00,0.1860
3679.00,0.1858
3678.00,0.1859
3677.00,0.1864
3676.00,0.1867
3675.00,0.1866
3674.00,0.1865
3673.00,0.1870
3672.00,0.1875
3671.00,0.1874
3670.00,0.1871
3669.00,0.1871
3668.00,0.1873
3667.00,0.1875
3666.00,0.1875
3665.00,0.1875
3664.00,0.1878
3663.00,0.1883
3662.00,0.1889
3661.00,0.1896
3660.00,0.1906
3659.00,0.1919
3658.00,0.1937
3657.00,0.1959
3656.00,0.1984
3655.00,0.2010
3654.00,0.2035
3653.00,0.2058
3652.00,0.2077
3651.00,0.2094
3650.00,0.2108
3649.00,0.2115
3648.00,0.2111
3647.00,0.2100
3646.00,0.2086
3645.00,0.2074
3644.00,0.2061
3643.00,0.2049
3642.00,0.2036
3641.00,0.2024
3640.00,0.2016
3639.00,0.2008
3638.00,0.2000
3637.00,0.1992
3636.00,0.1984
3635.00,0.1976
3634.00,0.1966
3633.00,0.1956
3632.00,0.1948
3631.00,0.1942
3630.00,0.1935
3629.00,0.1926
3628.00,0.1918
3627.00,0.1915
3626.00,0.1914
3625.00,0.1910
3624.00,0.1904
3623.00,0.1900
3622.00,0.1898
3621.00,0.1897
3620.00,0.1894
3619.00,0.1890
3618.00,0.1887
3617.00,0.1886
3616.00,0.1885
3615.00,0.1883
3614.00,0.1879
3613.00,0.1877
3612.00,0.1876
3611.00,0.1877
3610.00,0.1876
3609.00,0.1872
3608.00,0.1864
3607.00,0.1856
3606.00,0.1847
3605.00,0.1839
3604.00,0.1831
3603.00,0.1824
3602.00,0.1818
3601.00,0.1811
3600.00,0.1802
3599.00,0.1791
3598.00,0.1780
3597.00,0.1770
3596.00,0.1761
3595.00,0.1754
3594.00,0.1746
3593.00,0.1737
3592.00,0.1728
3591.00,0.1721
3590.00,0.1717
3589.00,0.1714
3588.00,0.1712
3587.00,0.1708
3586.00,0.1705
3585.00,0.1702
3584.00,0.1698
3583.00,0.1692
3582.00,0.1686
3581.00,0.1680
3580.00,0.1677
3579.00,0.1675
3578.00,0.1675
3577.00,0.1674
3576.00,0.1672
3575.00,0.1671
3574.00,0.1669
3573.00,0.1666
3572.00,0.1664
3571.00,0.1661
3570.00,0.1659
3569.00,0.1658
3568.00,0.1656
3567.00,0.1654
3566.00,0.1651
3565.00,0.1648
3564.00,0.1646
3563.00,0.1644
3562.00,0.1643
3561.00,0.1643
3560.00,0.1641
3559.00,0.1639
3558.00,0.1637
3557.00,0.1636
3556.00,0.1634
3555.00,0.1633
3554.00,0.1631
3553.00,0.1628
3552.00,0.1625
3551.00,0.1622
3550.00,0.1622
3549.00,0.1624
3548.00,0.1627
3547.00,0.1630
3546.00,0.1632
3545.00,0.1632
3544.00,0.1632
3543.00,0.1631
3542.00,0.1630
3541.00,0.1629
3540.00,0.1627
3539.00,0.1625
3538.00,0.1623
3537.00,0.1621
3536.00,0.1621
3535.00,0.1622
3534.00,0.1623
3533.00,0.1623
3532.00,0.1621
3531.00,0.1619
3530.00,0.1618
3529.00,0.1617
3528.00,0.1617
3527.00,0.1618
3526.00,0.1619
3525.00,0.1623
3524.00,0.1627
3523.00,0.1630
3522.00,0.1631
3521.00,0.1631
3520.00,0.1629
3519.00,0.1629
3518.00,0.1629
3517.00,0.1631
3516.00,0.1633
3515.00,0.1635
3514.00,0.1635
3513.00,0.1636
3512.00,0.1637
3511.00,0.1638
3510.00,0.1639
3509.00,0.1638
3508.00,0.1637
3507.00,0.1637
3506.00,0.1638
3505.00,0.1639
3504.00,0.1641
3503.00,0.1642
3502.00,0.1643
3501.00,0.1644
3500.00,0.1645
3499.00,0.1644
3498.00,0.1643
3497.00,0.1643
3496.00,0.1643
3495.00,0.1645
3494.00,0.1647
3493.00,0.1650
3492.00,0.1651
3491.00,0.1652
3490.00,0.1653
3489.00,0.1654
3488.00,0.1657
3487.00,0.1659
3486.00,0.1660
3485.00,0.1661
3484.00,0.1661
3483.00,0.1661
3482.00,0.1663
3481.00,0.1666
3480.00,0.1670
3479.00,0.1673
3478.00,0.1676
3477.00,0.1677
3476.00,0.1677
3475.00,0.1677
3474.00,0.1677
3473.00,0.1678
3472.00,0.1681
3471.00,0.1684
3470.00,0.1688
3469.00,0.1691
3468.00,0.1693
3467.00,0.1695
3466.00,0.1697
3465.00,0.1699
3464.00,0.1701
3463.00,0.1702
3462.00,0.1703
3461.00,0.1703
3460.00,0.1704
3459.00,0.1705
3458.00,0.1707
3457.00,0.1709
3456.00,0.1710
3455.00,0.1710
3454.00,0.1711
3453.00,0.1713
3452.00,0.1717
3451.00,0.1724
3450.00,0.1729
3449.00,0.1732
3448.00,0.1733
3447.00,0.1735
3446.00,0.1739
3445.00,0.1744
3444.00,0.1750
3443.00,0.1754
3442.00,0.1758
3441.00,0.1762
3440.00,0.1766
3439.00,0.1769
3438.00,0.1772
3437.00,0.1774
3436.00,0.1775
3435.00,0.1773
3434.00,0.1771
3433.00,0.1770
3432.00,0.1770
3431.00,0.1773
3430.00,0.1775
3429.00,0.1777
3428.00,0.1778
3427.00,0.1777
3426.00,0.1775
3425.00,0.1773
3424.00,0.1773
3423.00,0.1774
3422.00,0.1775
3421.00,0.1774
3420.00,0.1773
3419.00,0.1772
3418.00,0.1773
3417.00,0.1774
3416.00,0.1775
3415.00,0.1775
3414.00,0.1775
3413.00,0.1776
3412.00,0.1776
3411.00,0.1777
3410.00,0.1778
3409.00,0.1778
3408.00,0.1778
3407.00,0.1779
3406.00,0.1780
3405.00,0.1782
3404.00,0.1783
3403.00,0.1785
3402.00,0.1787
3401.00,0.1789
3400.00,0.1790
3399.00,0.1791
3398.00,0.1791
3397.00,0.1790
3396.00,0.1791
3395.00,0.1792
3394.00,0.1794
3393.00,0.1795
3392.00,0.1795
3391.00,0.1796
3390.00,0.1798
3389.00,0.1801
3388.00,0.1803
3387.00,0.1804
3386.00,0.1803
3385.00,0.1803
3384.00,0.1804
3383.00,0.1807
3382.00,0.1810
3381.00,0.1813
3380.00,0.1814
3379.00,0.1816
3378.00,0.1819
3377.00,0.1823
3376.00,0.1827
3375.00,0.1831
3374.00,0.1835
3373.00,0.1839
3372.00,0.1840
3371.00,0.1840
3370.00,0.1839
3369.00,0.1839
3368.00,0.1841
3367.00,0.1846
3366.00,0.1851
3365.00,0.1854
3364.00,0.1855
3363.00,0.1855
3362.00,0.1855
3361.00,0.1856
3360.00,0.1858
3359.00,0.1860
3358.00,0.1862
3357.00,0.1862
3356.00,0.1862
3355.00,0.1862
3354.00,0.1863
3353.00,0.1863
3352.00,0.1863
3351.00,0.1862
3350.00,0.1861
3349.00,0.1860
3348.00,0.1860
3347.00,0.1859
3346.00,0.1859
3345.00,0.1858
3344.00,0.1856
3343.00,0.1852
3342.00,0.1848
3341.00,0.1843
3340.00,0.1839
3339.00,0.1836
3338.00,0.1835
3337.00,0.1834
3336.00,0.1833
3335.00,0.1831
3334.00,0.1827
3333.00,0.1822
3332.00,0.1819
3331.00,0.1817
3330.00,0.1814
3329.00,0.1812
3328.00,0.1810
3327.00,0.1809
3326.00,0.1810
3325.00,0.1810
3324.00,0.1809
3323.00,0.1808
3322.00,0.1805
3321.00,0.1802
3320.00,0.1799
3319.00,0.1797
3318.00,0.1796
3317.00,0.1796
3316.00,0.1796
3315.00,0.1794
3314.00,0.1792
3313.00,0.1792
3312.00,0.1793
3311.00,0.1795
3310.00,0.1795
3309.00,0.1794
3308.00,0.1791
3307.00,0.1788
3306.00,0.1787
3305.00,0.1788
3304.00,0.1789
3303.00,0.1790
3302.00,0.1790
3301.00,0.1790
3300.00,0.1790
3299.00,0.1790
3298.00,0.1789
3297.00,0.1789
3296.00,0.1789
3295.00,0.1790
3294.00,0.1790
3293.00,0.1788
3292.00,0.1786
3291.00,0.1785
3290.00,0.1784
3289.00,0.1784
3288.00,0.1784
3287.00,0.1784
3286.00,0.1785
3285.00,0.1786
3284.00,0.1787
3283.00,0.1786
3282.00,0.1785
3281.00,0.1785
3280.00,0.1786
3279.00,0.1787
3278.00,0.1789
3277.00,0.1790
3276.00,0.1792
3275.00,0.1794
3274.00,0.1795
3273.00,0.1795
3272.00,0.1796
3271.00,0.1798
3270.00,0.1800
3269.00,0.1802
3268.00,0.1802
3267.00,0.1801
3266.00,0.1800
3265.00,0.1798
3264.00,0.1798
3263.00,0.1800
3262.00,0.1802
3261.00,0.1805
3260.00,0.1807
3259.00,0.1808
3258.00,0.1809
3257.00,0.1811
3256.00,0.1813
3255.00,0.1817
3254.00,0.1821
3253.00,0.1824
3252.00,0.1826
3251.00,0.1827
3250.00,0.1829
3249.00,0.1833
3248.00,0.1839
3247.00,0.1845
3246.00,0.1851
3245.00,0.1855
3244.00,0.1858
3243.00,0.1860
3242.00,0.1862
3241.00,0.1863
3240.00,0.1866
3239.00,0.1870
3238.00,0.1876
3237.00,0.1883
3236.00,0.1890
3235.00,0.1895
3234.00,0.1899
3233.00,0.1902
3232.00,0.1907
3231.00,0.1913
3230.00,0.1919
3229.00,0.1926
3228.00,0.1931
3227.00,0.1937
3226.00,0.1944
3225.00,0.1953
3224.00,0.1964
3223.00,0.1974
3222.00,0.1982
3221.00,0.1990
3220.00,0.1997
3219.00,0.2006
3218.00,0.2015
3217.00,0.2025
3216.00,0.2036
3215.00,0.2047
3214.00,0.2057
3213.00,0.2068
3212.00,0.2078
3211.00,0.2089
3210.00,0.2100
3209.00,0.2112
3208.00,0.2124
3207.00,0.2134
3206.00,0.2143
3205.00,0.2153
3204.00,0.2166
3203.00,0.2178
3202.00,0.2189
3201.00,0.2199
3200.00,0.2209
3199.00,0.2221
3198.00,0.2233
3197.00,0.2244
3196.00,0.2255
3195.00,0.2265
3194.00,0.2273
3193.00,0.2279
3192.00,0.2286
3191.00,0.2293
3190.00,0.2302
3189.00,0.2311
3188.00,0.2320
3187.00,0.2329
3186.00,0.2337
3185.00,0.2343
3184.00,0.2346
3183.00,0.2350
3182.00,0.2355
3181.00,0.2362
3180.00,0.2370
3179.00,0.2375
3178.00,0.2379
3177.00,0.2381
3176.00,0.2382
3175.00,0.2384
3174.00,0.2386
3173.00,0.2388
3172.00,0.2389
3171.00,0.2391
3170.00,0.2393
3169.00,0.2395
3168.00,0.2396
3167.00,0.2396
3166.00,0.2395
3165.00,0.2394
3164.00,0.2393
3163.00,0.2394
3162.00,0.2394
3161.00,0.2394
3160.00,0.2394
3159.00,0.2394
3158.00,0.2394
3157.00,0.2396
3156.00,0.2398
3155.00,0.2400
3154.00,0.2399
3153.00,0.2398
3152.00,0.2397
3151.00,0.2398
3150.00,0.2399
3149.00,0.2400
3148.00,0.2401
3147.00,0.2401
3146.00,0.2402
3145.00,0.2402
3144.00,0.2402
3143.00,0.2402
3142.00,0.2403
3141.00,0.2405
3140.00,0.2408
3139.00,0.2410
3138.00,0.2411
3137.00,0.2413
3136.00,0.2414
3135.00,0.2414
3134.00,0.2414
3133.00,0.2415
3132.00,0.2416
3131.00,0.2417
3130.00,0.2418
3129.00,0.2419
3128.00,0.2421
3127.00,0.2425
3126.00,0.2429
3125.00,0.2434
3124.00,0.2437
3123.00,0.2441
3122.00,0.2447
3121.00,0.2454
3120.00,0.2460
3119.00,0.2465
3118.00,0.2469
3117.00,0.2473
3116.00,0.2478
3115.00,0.2485
3114.00,0.2492
3113.00,0.2499
3112.00,0.2506
3111.00,0.2514
3110.00,0.2522
3109.00,0.2533
3108.00,0.2545
3107.00,0.2558
3106.00,0.2572
3105.00,0.2585
3104.00,0.2598
3103.00,0.2613
3102.00,0.2627
3101.00,0.2641
3100.00,0.2655
3099.00,0.2668
3098.00,0.2680
3097.00,0.2691
3096.00,0.2702
3095.00,0.2713
3094.00,0.2726
3093.00,0.2740
3092.00,0.2756
3091.00,0.2772
3090.00,0.2788
3089.00,0.2805
3088.00,0.2824
3087.00,0.2846
3086.00,0.2870
3085.00,0.2894
3084.00,0.2919
3083.00,0.2946
3082.00,0.2975
3081.00,0.3006
3080.00,0.3036
3079.00,0.3064
3078.00,0.3090
3077.00,0.3116
3076.00,0.3143
3075.00,0.3171
3074.00,0.3201
3073.00,0.3231
3072.00,0.3259
3071.00,0.3287
3070.00,0.3315
3069.00,0.3345
3068.00,0.3379
3067.00,0.3418
3066.00,0.3461
3065.00,0.3506
3064.00,0.3550
3063.00,0.3592
3062.00,0.3632
3061.00,0.3671
3060.00,0.3708
3059.00,0.3742
3058.00,0.3774
3057.00,0.3806
3056.00,0.3836
3055.00,0.3865
3054.00,0.3895
3053.00,0.3926
3052.00,0.3956
3051.00,0.3985
3050.00,0.4013
3049.00,0.4039
3048.00,0.4065
3047.00,0.4089
3046.00,0.4112
3045.00,0.4133
3044.00,0.4152
3043.00,0.4169
3042.00,0.4185
3041.00,0.4200
3040.00,0.4216
3039.00,0.4236
3038.00,0.4261
3037.00,0.4289
3036.00,0.4320
3035.00,0.4354
3034.00,0.4393
3033.00,0.4437
3032.00,0.4486
3031.00,0.4536
3030.00,0.4587
3029.00,0.4640
3028.00,0.4695
3027.00,0.4753
3026.00,0.4813
3025.00,0.4875
3024.00,0.4939
3023.00,0.5005
3022.00,0.5072
3021.00,0.5142
3020.00,0.5216
3019.00,0.5296
3018.00,0.5378
3017.00,0.5465
3016.00,0.5557
3015.00,0.5657
3014.00,0.5762
3013.00,0.5869
3012.00,0.5974
3011.00,0.6082
3010.00,0.6196
3009.00,0.6321
3008.00,0.6455
3007.00,0.6600
3006.00,0.6753
3005.00,0.6915
3004.00,0.7084
3003.00,0.7261
3002.00,0.7446
3001.00,0.7643
3000.00,0.7857
2999.00,0.8089
2998.00,0.8339
2997.00,0.8606
2996.00,0.8891
2995.00,0.9200
2994.00,0.9538
2993.00,0.9905
2992.00,1.0301
2991.00,1.0727
2990.00,1.1196
2989.00,1.1720
2988.00,1.2303
2987.00,1.2947
2986.00,1.3657
2985.00,1.4445
2984.00,1.5320
2983.00,1.6280
2982.00,1.7326
2981.00,1.8470
2980.00,1.9750
2979.00,2.1208
2978.00,2.2837
2977.00,2.4505
2976.00,2.5964
2975.00,2.7036
2974.00,2.7790
2973.00,2.8314
2972.00,2.8642
2971.00,2.8878
2970.00,2.9172
2969.00,2.9493
2968.00,2.9599
2967.00,2.9395
2966.00,2.8976
2965.00,2.8495
2964.00,2.8093
2963.00,2.7949
2962.00,2.8195
2961.00,2.8802
2960.00,2.9572
2959.00,3.0232
2958.00,3.0634
2957.00,3.0745
2956.00,3.0607
2955.00,3.0348
2954.00,3.0043
2953.00,2.9646
2952.00,2.9164
2951.00,2.8842
2950.00,2.8928
2949.00,2.9433
2948.00,3.0185
2947.00,3.0739
2946.00,3.0732
2945.00,3.0312
2944.00,2.9829
2943.00,2.9459
2942.00,2.9108
2941.00,2.8759
2940.00,2.8535
2939.00,2.8629
2938.00,2.9186
2937.00,3.0099
2936.00,3.0825
2935.00,3.0701
2934.00,2.9940
2933.00,2.9254
2932.00,2.9032
2931.00,2.9306
2930.00,2.9904
2929.00,3.0568
2928.00,3.1232
2927.00,3.2019
2926.00,3.2749
2925.00,3.2560
2924.00,3.1309
2923.00,3.0222
2922.00,2.9886
2921.00,3.0096
2920.00,3.0226
2919.00,3.0023
2918.00,2.9903
2917.00,3.0106
2916.00,3.0490
2915.00,3.0889
2914.00,3.1154
2913.00,3.0867
2912.00,2.9948
2911.00,2.9194
2910.00,2.9279
2909.00,3.0177
2908.00,3.1061
2907.00,3.1046
2906.00,3.0616
2905.00,3.0361
2904.00,2.9988
2903.00,2.9277
2902.00,2.8774
2901.00,2.9110
2900.00,3.0586
2899.00,3.2391
2898.00,3.2197
2897.00,3.1079
2896.00,3.0841
2895.00,3.1065
2894.00,3.0637
2893.00,3.0084
2892.00,3.0145
2891.00,3.0359
2890.00,3.0227
2889.00,3.0293
2888.00,3.0870
2887.00,3.0989
2886.00,2.9851
2885.00,2.8524
2884.00,2.7912
2883.00,2.8160
2882.00,2.9142
2881.00,3.0549
2880.00,3.1611
2879.00,3.1530
2878.00,3.0640
2877.00,2.9698
2876.00,2.9082
2875.00,2.8931
2874.00,2.9292
2873.00,3.0080
2872.00,3.1180
2871.00,3.2303
2870.00,3.2512
2869.00,3.1311
2868.00,2.9964
2867.00,2.9493
2866.00,3.0074
2865.00,3.1191
2864.00,3.1710
2863.00,3.1233
2862.00,3.0516
2861.00,2.9895
2860.00,2.9317
2859.00,2.8962
2858.00,2.9067
2857.00,2.9616
2856.00,3.0130
2855.00,3.0037
2854.00,2.9479
2853.00,2.8931
2852.00,2.8622
2851.00,2.8624
2850.00,2.8896
2849.00,2.9162
2848.00,2.9092
2847.00,2.8852
2846.00,2.8961
2845.00,2.9811
2844.00,3.1560
2843.00,3.3606
2842.00,3.3840
2841.00,3.2025
2840.00,3.0153
2839.00,2.8863
2838.00,2.7935
2837.00,2.6947
2836.00,2.5625
2835.00,2.4119
2834.00,2.2647
2833.00,2.1266
2832.00,1.9969
2831.00,1.8774
2830.00,1.7706
2829.00,1.6765
2828.00,1.5940
2827.00,1.5213
2826.00,1.4569
2825.00,1.3989
2824.00,1.3466
2823.00,1.2995
2822.00,1.2569
2821.00,1.2175
2820.00,1.1799
2819.00,1.1439
2818.00,1.1095
2817.00,1.0771
2816.00,1.0466
2815.00,1.0178
2814.00,0.9907
2813.00,0.9653
2812.00,0.9408
2811.00,0.9170
2810.00,0.8935
2809.00,0.8706
2808.00,0.8487
2807.00,0.8283
2806.00,0.8094
2805.00,0.7915
2804.00,0.7743
2803.00,0.7575
2802.00,0.7414
2801.00,0.7259
2800.00,0.7108
2799.00,0.6962
2798.00,0.6821
2797.00,0.6687
2796.00,0.6559
2795.00,0.6438
2794.00,0.6319
2793.00,0.6201
2792.00,0.6084
2791.00,0.5970
2790.00,0.5861
2789.00,0.5757
2788.00,0.5654
2787.00,0.5551
2786.00,0.5447
2785.00,0.5343
2784.00,0.5242
2783.00,0.5145
2782.00,0.5052
2781.00,0.4962
2780.00,0.4874
2779.00,0.4788
2778.00,0.4708
2777.00,0.4634
2776.00,0.4567
2775.00,0.4505
2774.00,0.4447
2773.00,0.4391
2772.00,0.4339
2771.00,0.4291
2770.00,0.4246
2769.00,0.4205
2768.00,0.4168
2767.00,0.4136
2766.00,0.4110
2765.00,0.4087
2764.00,0.4068
2763.00,0.4053
2762.00,0.4040
2761.00,0.4029
2760.00,0.4017
2759.00,0.4006
2758.00,0.3994
2757.00,0.3983
2756.00,0.3972
2755.00,0.3962
2754.00,0.3954
2753.00,0.3949
2752.00,0.3946
2751.00,0.3946
2750.00,0.3947
2749.00,0.3949
2748.00,0.3954
2747.00,0.3961
2746.00,0.3971
2745.00,0.3982
2744.00,0.3995
2743.00,0.4013
2742.00,0.4035
2741.00,0.4061
2740.00,0.4090
2739.00,0.4121
2738.00,0.4157
2737.00,0.4197
2736.00,0.4243
2735.00,0.4293
2734.00,0.4346
2733.00,0.4399
2732.00,0.4448
2731.00,0.4490
2730.00,0.4523
2729.00,0.4545
2728.00,0.4555
2727.00,0.4553
2726.00,0.4544
2725.00,0.4531
2724.00,0.4516
2723.00,0.4497
2722.00,0.4474
2721.00,0.4447
2720.00,0.4418
2719.00,0.4388
2718.00,0.4355
2717.00,0.4318
2716.00,0.4276
2715.00,0.4231
2714.00,0.4185
2713.00,0.4138
2712.00,0.4092
2711.00,0.4050
2710.00,0.4014
2709.00,0.3983
2708.00,0.3956
2707.00,0.3933
2706.00,0.3915
2705.00,0.3903
2704.00,0.3895
2703.00,0.3888
2702.00,0.3884
2701.00,0.3882
2700.00,0.3884
2699.00,0.3892
2698.00,0.3902
2697.00,0.3913
2696.00,0.3923
2695.00,0.3934
2694.00,0.3947
2693.00,0.3962
2692.00,0.3979
2691.00,0.3996
2690.00,0.4012
2689.00,0.4027
2688.00,0.4039
2687.00,0.4048
2686.00,0.4054
2685.00,0.4059
2684.00,0.4062
2683.00,0.4064
2682.00,0.4066
2681.00,0.4069
2680.00,0.4070
2679.00,0.4070
2678.00,0.4068
2677.00,0.4066
2676.00,0.4062
2675.00,0.4056
2674.00,0.4051
2673.00,0.4049
2672.00,0.4048
2671.00,0.4043
2670.00,0.4033
2669.00,0.4018
2668.00,0.4001
2667.00,0.3984
2666.00,0.3963
2665.00,0.3941
2664.00,0.3916
2663.00,0.3890
2662.00,0.3864
2661.00,0.3838
2660.00,0.3814
2659.00,0.3791
2658.00,0.3769
2657.00,0.3747
2656.00,0.3727
2655.00,0.3708
2654.00,0.3691
2653.00,0.3674
2652.00,0.3657
2651.00,0.3640
2650.00,0.3623
2649.00,0.3607
2648.00,0.3592
2647.00,0.3578
2646.00,0.3565
2645.00,0.3553
2644.00,0.3543
2643.00,0.3532
2642.00,0.3522
2641.00,0.3511
2640.00,0.3499
2639.00,0.3487
2638.00,0.3475
2637.00,0.3465
2636.00,0.3456
2635.00,0.3449
2634.00,0.3443
2633.00,0.3436
2632.00,0.3428
2631.00,0.3419
2630.00,0.3410
2629.00,0.3402
2628.00,0.3396
2627.00,0.3390
2626.00,0.3383
2625.00,0.3375
2624.00,0.3365
2623.00,0.3355
2622.00,0.3345
2621.00,0.3337
2620.00,0.3330
2619.00,0.3324
2618.00,0.3318
2617.00,0.3311
2616.00,0.3303
2615.00,0.3295
2614.00,0.3286
2613.00,0.3276
2612.00,0.3267
2611.00,0.3256
2610.00,0.3245
2609.00,0.3234
2608.00,0.3221
2607.00,0.3207
2606.00,0.3193
2605.00,0.3181
2604.00,0.3169
2603.00,0.3158
2602.00,0.3144
2601.00,0.3129
2600.00,0.3113
2599.00,0.3098
2598.00,0.3082
2597.00,0.3066
2596.00,0.3050
2595.00,0.3032
2594.00,0.3014
2593.00,0.2995
2592.00,0.2975
2591.00,0.2957
2590.00,0.2940
2589.00,0.2923
2588.00,0.2905
2587.00,0.2886
2586.00,0.2866
2585.00,0.2846
2584.00,0.2825
2583.00,0.2804
2582.00,0.2784
2581.00,0.2764
2580.00,0.2745
2579.00,0.2727
2578.00,0.2707
2577.00,0.2686
2576.00,0.2663
2575.00,0.2641
2574.00,0.2619
2573.00,0.2599
2572.00,0.2582
2571.00,0.2566
2570.00,0.2550
2569.00,0.2533
2568.00,0.2515
2567.00,0.2498
2566.00,0.2483
2565.00,0.2467
2564.00,0.2451
2563.00,0.2436
2562.00,0.2422
2561.00,0.2408
2560.00,0.2396
2559.00,0.2383
2558.00,0.2370
2557.00,0.2358
2556.00,0.2346
2555.00,0.2336
2554.00,0.2326
2553.00,0.2317
2552.00,0.2307
2551.00,0.2297
2550.00,0.2286
2549.00,0.2276
2548.00,0.2267
2547.00,0.2259
2546.00,0.2252
2545.00,0.2245
2544.00,0.2239
2543.00,0.2233
2542.00,0.2225
2541.00,0.2216
2540.00,0.2206
2539.00,0.2199
2538.00,0.2195
2537.00,0.2191
2536.00,0.2186
2535.00,0.2180
2534.00,0.2173
2533.00,0.2167
2532.00,0.2162
2531.00,0.2157
2530.00,0.2152
2529.00,0.2144
2528.00,0.2133
2527.00,0.2120
2526.00,0.2108
2525.00,0.2097
2524.00,0.2087
2523.00,0.2078
2522.00,0.2069
2521.00,0.2060
2520.00,0.2051
2519.00,0.2043
2518.00,0.2034
2517.00,0.2026
2516.00,0.2017
2515.00,0.2006
2514.00,0.1996
2513.00,0.1987
2512.00,0.1980
2511.00,0.1974
2510.00,0.1968
2509.00,0.1961
2508.00,0.1954
2507.00,0.1946
2506.00,0.1939
2505.00,0.1931
2504.00,0.1925
2503.00,0.1919
2502.00,0.1913
2501.00,0.1907
2500.00,0.1900
2499.00,0.1893
2498.00,0.1886
2497.00,0.1881
2496.00,0.1877
2495.00,0.1872
2494.00,0.1868
2493.00,0.1864
2492.00,0.1861
2491.00,0.1858
2490.00,0.1854
2489.00,0.1849
2488.00,0.1845
2487.00,0.1841
2486.00,0.1838
2485.00,0.1836
2484.00,0.1833
2483.00,0.1831
2482.00,0.1829
2481.00,0.1828
2480.00,0.1826
2479.00,0.1822
2478.00,0.1816
2477.00,0.1811
2476.00,0.1808
2475.00,0.1807
2474.00,0.1806
2473.00,0.1804
2472.00,0.1803
2471.00,0.1801
2470.00,0.1799
2469.00,0.1798
2468.00,0.1797
2467.00,0.1797
2466.00,0.1796
2465.00,0.1796
2464.00,0.1795
2463.00,0.1793
2462.00,0.1792
2461.00,0.1791
2460.00,0.1790
2459.00,0.1791
2458.00,0.1791
2457.00,0.1792
2456.00,0.1792
2455.00,0.1791
2454.00,0.1790
2453.00,0.1790
2452.00,0.1791
2451.00,0.1793
2450.00,0.1794
2449.00,0.1795
2448.00,0.1796
2447.00,0.1798
2446.00,0.1799
2445.00,0.1801
2444.00,0.1802
2443.00,0.1804
2442.00,0.1805
2441.00,0.1806
2440.00,0.1806
2439.00,0.1807
2438.00,0.1808
2437.00,0.1811
2436.00,0.1813
2435.00,0.1814
2434.00,0.1813
2433.00,0.1814
2432.00,0.1817
2431.00,0.1819
2430.00,0.1820
2429.00,0.1820
2428.00,0.1820
2427.00,0.1821
2426.00,0.1823
2425.00,0.1826
2424.00,0.1828
2423.00,0.1831
2422.00,0.1833
2421.00,0.1835
2420.00,0.1838
2419.00,0.1841
2418.00,0.1845
2417.00,0.1848
2416.00,0.1850
2415.00,0.1852
2414.00,0.1855
2413.00,0.1857
2412.00,0.1859
2411.00,0.1860
2410.00,0.1861
2409.00,0.1861
2408.00,0.1860
2407.00,0.1859
2406.00,0.1858
2405.00,0.1858
2404.00,0.1858
2403.00,0.1859
2402.00,0.1858
2401.00,0.1858
2400.00,0.1858
2399.00,0.1858
2398.00,0.1858
2397.00,0.1856
2396.00,0.1855
2395.00,0.1853
2394.00,0.1852
2393.00,0.1851
2392.00,0.1850
2391.00,0.1849
2390.00,0.1848
2389.00,0.1847
2388.00,0.1846
2387.00,0.1846
2386.00,0.1847
2385.00,0.1848
2384.00,0.1849
2383.00,0.1848
2382.00,0.1847
2381.00,0.1847
2380.00,0.1849
2379.00,0.1851
2378.00,0.1852
2377.00,0.1853
2376.00,0.1852
2375.00,0.1852
2374.00,0.1851
2373.00,0.1850
2372.00,0.1850
2371.00,0.1851
2370.00,0.1853
2369.00,0.1854
2368.00,0.1852
2367.00,0.1850
2366.00,0.1850
2365.00,0.1851
2364.00,0.1854
2363.00,0.1855
2362.00,0.1853
2361.00,0.1852
2360.00,0.1852
2359.00,0.1853
2358.00,0.1853
2357.00,0.1853
2356.00,0.1852
2355.00,0.1852
2354.00,0.1852
2353.00,0.1852
2352.00,0.1852
2351.00,0.1852
2350.00,0.1852
2349.00,0.1852
2348.00,0.1851
2347.00,0.1851
2346.00,0.1850
2345.00,0.1850
2344.00,0.1850
2343.00,0.1851
2342.00,0.1851
2341.00,0.1851
2340.00,0.1849
2339.00,0.1848
2338.00,0.1848
2337.00,0.1847
2336.00,0.1846
2335.00,0.1844
2334.00,0.1842
2333.00,0.1841
2332.00,0.1843
2331.00,0.1846
2330.00,0.1848
2329.00,0.1849
2328.00,0.1847
2327.00,0.1844
2326.00,0.1839
2325.00,0.1835
2324.00,0.1831
2323.00,0.1829
2322.00,0.1829
2321.00,0.1829
2320.00,0.1828
2319.00,0.1825
2318.00,0.1822
2317.00,0.1819
2316.00,0.1817
2315.00,0.1815
2314.00,0.1814
2313.00,0.1814
2312.00,0.1814
2311.00,0.1812
2310.00,0.1810
2309.00,0.1806
2308.00,0.1801
2307.00,0.1796
2306.00,0.1790
2305.00,0.1785
2304.00,0.1782
2303.00,0.1779
2302.00,0.1776
2301.00,0.1772
2300.00,0.1769
2299.00,0.1765
2298.00,0.1761
2297.00,0.1757
2296.00,0.1755
2295.00,0.1754
2294.00,0.1752
2293.00,0.1750
2292.00,0.1747
2291.00,0.1744
2290.00,0.1741
2289.00,0.1739
2288.00,0.1737
2287.00,0.1735
2286.00,0.1732
2285.00,0.1729
2284.00,0.1726
2283.00,0.1722
2282.00,0.1718
2281.00,0.1712
2280.00,0.1707
2279.00,0.1703
2278.00,0.1699
2277.00,0.1697
2276.00,0.1694
2275.00,0.1690
2274.00,0.1686
2273.00,0.1683
2272.00,0.1682
2271.00,0.1680
2270.00,0.1678
2269.00,0.1676
2268.00,0.1674
2267.00,0.1671
2266.00,0.1669
2265.00,0.1667
2264.00,0.1664
2263.00,0.1661
2262.00,0.1657
2261.00,0.1654
2260.00,0.1651
2259.00,0.1648
2258.00,0.1645
2257.00,0.1642
2256.00,0.1639
2255.00,0.1638
2254.00,0.1637
2253.00,0.1635
2252.00,0.1633
2251.00,0.1629
2250.00,0.1625
2249.00,0.1622
2248.00,0.1621
2247.00,0.1620
2246.00,0.1619
2245.00,0.1618
2244.00,0.1618
2243.00,0.1617
2242.00,0.1616
2241.00,0.1613
2240.00,0.1611
2239.00,0.1609
2238.00,0.1607
2237.00,0.1606
2236.00,0.1606
2235.00,0.1606
2234.00,0.1604
2233.00,0.1603
2232.00,0.1603
2231.00,0.1602
2230.00,0.1600
2229.00,0.1597
2228.00,0.1595
2227.00,0.1594
2226.00,0.1595
2225.00,0.1595
2224.00,0.1595
2223.00,0.1594
2222.00,0.1593
2221.00,0.1592
2220.00,0.1591
2219.00,0.1591
2218.00,0.1590
2217.00,0.1590
2216.00,0.1591
2215.00,0.1591
2214.00,0.1592
2213.00,0.1592
2212.00,0.1594
2211.00,0.1596
2210.00,0.1596
2209.00,0.1597
2208.00,0.1598
2207.00,0.1599
2206.00,0.1599
2205.00,0.1598
2204.00,0.1597
2203.00,0.1598
2202.00,0.1598
2201.00,0.1599
2200.00,0.1599
2199.00,0.1599
2198.00,0.1599
2197.00,0.1598
2196.00,0.1596
2195.00,0.1595
2194.00,0.1595
2193.00,0.1596
2192.00,0.1598
2191.00,0.1600
2190.00,0.1601
2189.00,0.1602
2188.00,0.1602
2187.00,0.1603
2186.00,0.1603
2185.00,0.1604
2184.00,0.1605
2183.00,0.1604
2182.00,0.1603
2181.00,0.1601
2180.00,0.1600
2179.00,0.1600
2178.00,0.1599
2177.00,0.1598
2176.00,0.1596
2175.00,0.1595
2174.00,0.1594
2173.00,0.1593
2172.00,0.1593
2171.00,0.1593
2170.00,0.1593
2169.00,0.1593
2168.00,0.1592
2167.00,0.1590
2166.00,0.1588
2165.00,0.1587
2164.00,0.1585
2163.00,0.1582
2162.00,0.1579
2161.00,0.1578
2160.00,0.1578
2159.00,0.1579
2158.00,0.1580
2157.00,0.1579
2156.00,0.1577
2155.00,0.1575
2154.00,0.1574
2153.00,0.1573
2152.00,0.1572
2151.00,0.1570
2150.00,0.1568
2149.00,0.1566
2148.00,0.1564
2147.00,0.1562
2146.00,0.1558
2145.00,0.1553
2144.00,0.1546
2143.00,0.1540
2142.00,0.1534
2141.00,0.1529
2140.00,0.1524
2139.00,0.1519
2138.00,0.1516
2137.00,0.1513
2136.00,0.1511
2135.00,0.1509
2134.00,0.1506
2133.00,0.1502
2132.00,0.1500
2131.00,0.1498
2130.00,0.1496
2129.00,0.1495
2128.00,0.1493
2127.00,0.1492
2126.00,0.1490
2125.00,0.1488
2124.00,0.1487
2123.00,0.1485
2122.00,0.1482
2121.00,0.1481
2120.00,0.1481
2119.00,0.1481
2118.00,0.1481
2117.00,0.1481
2116.00,0.1481
2115.00,0.1480
2114.00,0.1479
2113.00,0.1478
2112.00,0.1478
2111.00,0.1478
2110.00,0.1478
2109.00,0.1478
2108.00,0.1477
2107.00,0.1477
2106.00,0.1476
2105.00,0.1476
2104.00,0.1475
2103.00,0.1475
2102.00,0.1475
2101.00,0.1476
2100.00,0.1476
2099.00,0.1475
2098.00,0.1474
2097.00,0.1474
2096.00,0.1474
2095.00,0.1474
2094.00,0.1474
2093.00,0.1474
2092.00,0.1474
2091.00,0.1474
2090.00,0.1473
2089.00,0.1471
2088.00,0.1470
2087.00,0.1470
2086.00,0.1472
2085.00,0.1474
2084.00,0.1475
2083.00,0.1475
2082.00,0.1474
2081.00,0.1474
2080.00,0.1474
2079.00,0.1473
2078.00,0.1474
2077.00,0.1476
2076.00,0.1479
2075.00,0.1482
2074.00,0.1483
2073.00,0.1484
2072.00,0.1484
2071.00,0.1484
2070.00,0.1484
2069.00,0.1486
2068.00,0.1489
2067.00,0.1491
2066.00,0.1493
2065.00,0.1494
2064.00,0.1495
2063.00,0.1496
2062.00,0.1499
2061.00,0.1502
2060.00,0.1505
2059.00,0.1507
2058.00,0.1507
2057.00,0.1506
2056.00,0.1507
2055.00,0.1510
2054.00,0.1513
2053.00,0.1517
2052.00,0.1522
2051.00,0.1524
2050.00,0.1526
2049.00,0.1528
2048.00,0.1531
2047.00,0.1535
2046.00,0.1537
2045.00,0.1539
2044.00,0.1540
2043.00,0.1543
2042.00,0.1546
2041.00,0.1549
2040.00,0.1552
2039.00,0.1552
2038.00,0.1553
2037.00,0.1554
2036.00,0.1558
2035.00,0.1562
2034.00,0.1564
2033.00,0.1565
2032.00,0.1566
2031.00,0.1566
2030.00,0.1567
2029.00,0.1567
2028.00,0.1568
2027.00,0.1568
2026.00,0.1567
2025.00,0.1566
2024.00,0.1563
2023.00,0.1559
2022.00,0.1554
2021.00,0.1549
2020.00,0.1543
2019.00,0.1537
2018.00,0.1530
2017.00,0.1523
2016.00,0.1515
2015.00,0.1506
2014.00,0.1497
2013.00,0.1488
2012.00,0.1479
2011.00,0.1472
2010.00,0.1465
2009.00,0.1460
2008.00,0.1454
2007.00,0.1448
2006.00,0.1442
2005.00,0.1437
2004.00,0.1434
2003.00,0.1432
2002.00,0.1430
2001.00,0.1427
2000.00,0.1424
1999.00,0.1422
1998.00,0.1421
1997.00,0.1420
1996.00,0.1419
1995.00,0.1418
1994.00,0.1415
1993.00,0.1413
1992.00,0.1413
1991.00,0.1414
1990.00,0.1415
1989.00,0.1416
1988.00,0.1416
1987.00,0.1416
1986.00,0.1415
1985.00,0.1413
1984.00,0.1412
1983.00,0.1411
1982.00,0.1409
1981.00,0.1409
1980.00,0.1409
1979.00,0.1409
1978.00,0.1408
1977.00,0.1407
1976.00,0.1406
1975.00,0.1406
1974.00,0.1405
1973.00,0.1405
1972.00,0.1405
1971.00,0.1406
1970.00,0.1406
1969.00,0.1406
1968.00,0.1406
1967.00,0.1406
1966.00,0.1405
1965.00,0.1406
1964.00,0.1406
1963.00,0.1408
1962.00,0.1411
1961.00,0.1414
1960.00,0.1416
1959.00,0.1418
1958.00,0.1420
1957.00,0.1421
1956.00,0.1422
1955.00,0.1423
1954.00,0.1424
1953.00,0.1426
1952.00,0.1429
1951.00,0.1432
1950.00,0.1433
1949.00,0.1432
1948.00,0.1431
1947.00,0.1431
1946.00,0.1433
1945.00,0.1438
1944.00,0.1444
1943.00,0.1452
1942.00,0.1459
1941.00,0.1467
1940.00,0.1473
1939.00,0.1479
1938.00,0.1482
1937.00,0.1485
1936.00,0.1485
1935.00,0.1484
1934.00,0.1481
1933.00,0.1477
1932.00,0.1473
1931.00,0.1469
1930.00,0.1466
1929.00,0.1466
1928.00,0.1465
1927.00,0.1464
1926.00,0.1462
1925.00,0.1460
1924.00,0.1457
1923.00,0.1454
1922.00,0.1452
1921.00,0.1452
1920.00,0.1455
1919.00,0.1459
1918.00,0.1464
1917.00,0.1467
1916.00,0.1471
1915.00,0.1476
1914.00,0.1482
1913.00,0.1487
1912.00,0.1488
1911.00,0.1486
1910.00,0.1482
1909.00,0.1478
1908.00,0.1476
1907.00,0.1475
1906.00,0.1474
1905.00,0.1474
1904.00,0.1474
1903.00,0.1475
1902.00,0.1477
1901.00,0.1478
1900.00,0.1479
1899.00,0.1479
1898.00,0.1477
1897.00,0.1475
1896.00,0.1474
1895.00,0.1474
1894.00,0.1476
1893.00,0.1478
1892.00,0.1479
1891.00,0.1480
1890.00,0.1481
1889.00,0.1481
1888.00,0.1481
1887.00,0.1479
1886.00,0.1477
1885.00,0.1476
1884.00,0.1475
1883.00,0.1474
1882.00,0.1473
1881.00,0.1472
1880.00,0.1471
1879.00,0.1469
1878.00,0.1468
1877.00,0.1467
1876.00,0.1465
1875.00,0.1461
1874.00,0.1458
1873.00,0.1456
1872.00,0.1455
1871.00,0.1453
1870.00,0.1450
1869.00,0.1448
1868.00,0.1446
1867.00,0.1446
1866.00,0.1446
1865.00,0.1448
1864.00,0.1450
1863.00,0.1451
1862.00,0.1452
1861.00,0.1452
1860.00,0.1451
1859.00,0.1449
1858.00,0.1445
1857.00,0.1442
1856.00,0.1438
1855.00,0.1434
1854.00,0.1430
1853.00,0.1427
1852.00,0.1426
1851.00,0.1425
1850.00,0.1424
1849.00,0.1423
1848.00,0.1421
1847.00,0.1417
1846.00,0.1414
1845.00,0.1413
1844.00,0.1413
1843.00,0.1413
1842.00,0.1412
1841.00,0.1412
1840.00,0.1412
1839.00,0.1412
1838.00,0.1412
1837.00,0.1412
1836.00,0.1414
1835.00,0.1416
1834.00,0.1417
1833.00,0.1417
1832.00,0.1417
1831.00,0.1418
1830.00,0.1418
1829.00,0.1418
1828.00,0.1418
1827.00,0.1420
1826.00,0.1422
1825.00,0.1424
1824.00,0.1425
1823.00,0.1425
1822.00,0.1424
1821.00,0.1425
1820.00,0.1425
1819.00,0.1424
1818.00,0.1422
1817.00,0.1421
1816.00,0.1419
1815.00,0.1418
1814.00,0.1418
1813.00,0.1420
1812.00,0.1424
1811.00,0.1428
1810.00,0.1431
1809.00,0.1434
1808.00,0.1437
1807.00,0.1440
1806.00,0.1445
1805.00,0.1451
1804.00,0.1457
1803.00,0.1462
1802.00,0.1467
1801.00,0.1470
1800.00,0.1474
1799.00,0.1476
1798.00,0.1479
1797.00,0.1481
1796.00,0.1482
1795.00,0.1481
1794.00,0.1480
1793.00,0.1478
1792.00,0.1476
1791.00,0.1474
1790.00,0.1472
1789.00,0.1472
1788.00,0.1474
1787.00,0.1476
1786.00,0.1477
1785.00,0.1478
1784.00,0.1478
1783.00,0.1477
1782.00,0.1478
1781.00,0.1482
1780.00,0.1487
1779.00,0.1492
1778.00,0.1498
1777.00,0.1504
1776.00,0.1509
1775.00,0.1511
1774.00,0.1510
1773.00,0.1508
1772.00,0.1508
1771.00,0.1508
1770.00,0.1510
1769.00,0.1513
1768.00,0.1517
1767.00,0.1519
1766.00,0.1520
1765.00,0.1521
1764.00,0.1525
1763.00,0.1530
1762.00,0.1535
1761.00,0.1541
1760.00,0.1547
1759.00,0.1554
1758.00,0.1560
1757.00,0.1566
1756.00,0.1574
1755.00,0.1584
1754.00,0.1596
1753.00,0.1612
1752.00,0.1636
1751.00,0.1665
1750.00,0.1701
1749.00,0.1745
1748.00,0.1800
1747.00,0.1862
1746.00,0.1927
1745.00,0.1991
1744.00,0.2050
1743.00,0.2097
1742.00,0.2129
1741.00,0.2145
1740.00,0.2145
1739.00,0.2128
1738.00,0.2095
1737.00,0.2055
1736.00,0.2010
1735.00,0.1957
1734.00,0.1899
1733.00,0.1848
1732.00,0.1809
1731.00,0.1781
1730.00,0.1758
1729.00,0.1740
1728.00,0.1726
1727.00,0.1717
1726.00,0.1711
1725.00,0.1707
1724.00,0.1703
1723.00,0.1698
1722.00,0.1691
1721.00,0.1683
1720.00,0.1675
1719.00,0.1669
1718.00,0.1665
1717.00,0.1666
1716.00,0.1668
1715.00,0.1671
1714.00,0.1675
1713.00,0.1680
1712.00,0.1685
1711.00,0.1688
1710.00,0.1689
1709.00,0.1689
1708.00,0.1689
1707.00,0.1690
1706.00,0.1693
1705.00,0.1696
1704.00,0.1698
1703.00,0.1698
1702.00,0.1699
1701.00,0.1704
1700.00,0.1711
1699.00,0.1715
1698.00,0.1713
1697.00,0.1709
1696.00,0.1702
1695.00,0.1692
1694.00,0.1683
1693.00,0.1677
1692.00,0.1674
1691.00,0.1671
1690.00,0.1669
1689.00,0.1669
1688.00,0.1667
1687.00,0.1663
1686.00,0.1657
1685.00,0.1652
1684.00,0.1647
1683.00,0.1642
1682.00,0.1639
1681.00,0.1639
1680.00,0.1640
1679.00,0.1640
1678.00,0.1640
1677.00,0.1641
1676.00,0.1644
1675.00,0.1649
1674.00,0.1654
1673.00,0.1658
1672.00,0.1665
1671.00,0.1673
1670.00,0.1685
1669.00,0.1698
1668.00,0.1711
1667.00,0.1718
1666.00,0.1720
1665.00,0.1721
1664.00,0.1724
1663.00,0.1731
1662.00,0.1742
1661.00,0.1754
1660.00,0.1763
1659.00,0.1766
1658.00,0.1760
1657.00,0.1750
1656.00,0.1737
1655.00,0.1724
1654.00,0.1714
1653.00,0.1710
1652.00,0.1710
1651.00,0.1711
1650.00,0.1710
1649.00,0.1710
1648.00,0.1710
1647.00,0.1709
1646.00,0.1708
1645.00,0.1710
1644.00,0.1714
1643.00,0.1718
1642.00,0.1721
1641.00,0.1726
1640.00,0.1732
1639.00,0.1738
1638.00,0.1747
1637.00,0.1762
1636.00,0.1780
1635.00,0.1796
1634.00,0.1804
1633.00,0.1807
1632.00,0.1805
1631.00,0.1800
1630.00,0.1794
1629.00,0.1790
1628.00,0.1787
1627.00,0.1786
1626.00,0.1785
1625.00,0.1789
1624.00,0.1799
1623.00,0.1812
1622.00,0.1828
1621.00,0.1844
1620.00,0.1860
1619.00,0.1877
1618.00,0.1900
1617.00,0.1933
1616.00,0.1972
1615.00,0.2009
1614.00,0.2041
1613.00,0.2073
1612.00,0.2107
1611.00,0.2142
1610.00,0.2176
1609.00,0.2211
1608.00,0.2247
1607.00,0.2286
1606.00,0.2331
1605.00,0.2391
1604.00,0.2470
1603.00,0.2566
1602.00,0.2665
1601.00,0.2749
1600.00,0.2802
1599.00,0.2819
1598.00,0.2809
1597.00,0.2792
1596.00,0.2777
1595.00,0.2759
1594.00,0.2730
1593.00,0.2685
1592.00,0.2622
1591.00,0.2546
1590.00,0.2464
1589.00,0.2389
1588.00,0.2323
1587.00,0.2267
1586.00,0.2219
1585.00,0.2177
1584.00,0.2141
1583.00,0.2109
1582.00,0.2079
1581.00,0.2052
1580.00,0.2027
1579.00,0.2002
1578.00,0.1977
1577.00,0.1952
1576.00,0.1927
1575.00,0.1905
1574.00,0.1888
1573.00,0.1877
1572.00,0.1868
1571.00,0.1859
1570.00,0.1851
1569.00,0.1848
1568.00,0.1847
1567.00,0.1846
1566.00,0.1847
1565.00,0.1850
1564.00,0.1856
1563.00,0.1861
1562.00,0.1863
1561.00,0.1867
1560.00,0.1873
1559.00,0.1882
1558.00,0.1893
1557.00,0.1907
1556.00,0.1920
1555.00,0.1929
1554.00,0.1937
1553.00,0.1945
1552.00,0.1954
1551.00,0.1961
1550.00,0.1966
1549.00,0.1971
1548.00,0.1977
1547.00,0.1984
1546.00,0.1993
1545.00,0.2007
1544.00,0.2022
1543.00,0.2034
1542.00,0.2047
1541.00,0.2067
1540.00,0.2094
1539.00,0.2119
1538.00,0.2139
1537.00,0.2156
1536.00,0.2172
1535.00,0.2187
1534.00,0.2206
1533.00,0.2233
1532.00,0.2267
1531.00,0.2303
1530.00,0.2343
1529.00,0.2391
1528.00,0.2448
1527.00,0.2510
1526.00,0.2581
1525.00,0.2661
1524.00,0.2747
1523.00,0.2845
1522.00,0.2968
1521.00,0.3117
1520.00,0.3272
1519.00,0.3413
1518.00,0.3550
1517.00,0.3696
1516.00,0.3845
1515.00,0.3989
1514.00,0.4134
1513.00,0.4286
1512.00,0.4426
1511.00,0.4521
1510.00,0.4552
1509.00,0.4516
1508.00,0.4403
1507.00,0.4218
1506.00,0.4020
1505.00,0.3876
1504.00,0.3795
1503.00,0.3754
1502.00,0.3741
1501.00,0.3758
1500.00,0.3802
1499.00,0.3873
1498.00,0.3985
1497.00,0.4164
1496.00,0.4419
1495.00,0.4728
1494.00,0.5061
1493.00,0.5389
1492.00,0.5660
1491.00,0.5794
1490.00,0.5760
1489.00,0.5617
1488.00,0.5456
1487.00,0.5340
1486.00,0.5298
1485.00,0.5337
1484.00,0.5444
1483.00,0.5608
1482.00,0.5837
1481.00,0.6147
1480.00,0.6538
1479.00,0.7004
1478.00,0.7577
1477.00,0.8303
1476.00,0.9202
1475.00,1.0281
1474.00,1.1636
1473.00,1.3471
1472.00,1.5927
1471.00,1.8890
1470.00,2.2020
1469.00,2.5012
1468.00,2.7389
1467.00,2.8591
1466.00,2.9368
1465.00,3.0605
1464.00,3.1185
1463.00,3.0267
1462.00,2.9737
1461.00,3.0004
1460.00,3.0000
1459.00,2.9230
1458.00,2.8845
1457.00,2.9556
1456.00,3.0160
1455.00,2.8923
1454.00,2.7281
1453.00,2.6162
1452.00,2.4940
1451.00,2.3567
1450.00,2.2434
1449.00,2.1481
1448.00,2.0446
1447.00,1.9361
1446.00,1.8407
1445.00,1.7573
1444.00,1.6740
1443.00,1.5896
1442.00,1.5105
1441.00,1.4378
1440.00,1.3679
1439.00,1.2978
1438.00,1.2246
1437.00,1.1448
1436.00,1.0611
1435.00,0.9815
1434.00,0.9084
1433.00,0.8382
1432.00,0.7686
1431.00,0.7018
1430.00,0.6413
1429.00,0.5890
1428.00,0.5457
1427.00,0.5112
1426.00,0.4834
1425.00,0.4597
1424.00,0.4394
1423.00,0.4233
1422.00,0.4106
1421.00,0.3995
1420.00,0.3887
1419.00,0.3788
1418.00,0.3705
1417.00,0.3638
1416.00,0.3584
1415.00,0.3543
1414.00,0.3507
1413.00,0.3471
1412.00,0.3437
1411.00,0.3411
1410.00,0.3389
1409.00,0.3368
1408.00,0.3349
1407.00,0.3339
1406.00,0.3338
1405.00,0.3340
1404.00,0.3351
1403.00,0.3374
1402.00,0.3409
1401.00,0.3451
1400.00,0.3505
1399.00,0.3576
1398.00,0.3659
1397.00,0.3748
1396.00,0.3845
1395.00,0.3953
1394.00,0.4066
1393.00,0.4183
1392.00,0.4316
1391.00,0.4488
1390.00,0.4729
1389.00,0.5075
1388.00,0.5584
1387.00,0.6297
1386.00,0.7203
1385.00,0.8263
1384.00,0.9462
1383.00,1.0824
1382.00,1.2380
1381.00,1.4160
1380.00,1.6175
1379.00,1.8282
1378.00,1.9876
1377.00,2.0133
1376.00,1.9029
1375.00,1.7226
1374.00,1.5356
1373.00,1.3785
1372.00,1.2621
1371.00,1.1827
1370.00,1.1335
1369.00,1.1094
1368.00,1.1025
1367.00,1.0995
1366.00,1.0839
1365.00,1.0456
1364.00,0.9861
1363.00,0.9165
1362.00,0.8493
1361.00,0.7924
1360.00,0.7475
1359.00,0.7133
1358.00,0.6874
1357.00,0.6685
1356.00,0.6553
1355.00,0.6464
1354.00,0.6397
1353.00,0.6334
1352.00,0.6262
1351.00,0.6177
1350.00,0.6081
1349.00,0.5981
1348.00,0.5884
1347.00,0.5796
1346.00,0.5723
1345.00,0.5670
1344.00,0.5636
1343.00,0.5612
1342.00,0.5584
1341.00,0.5541
1340.00,0.5474
1339.00,0.5384
1338.00,0.5278
1337.00,0.5165
1336.00,0.5054
1335.00,0.4948
1334.00,0.4847
1333.00,0.4753
1332.00,0.4670
1331.00,0.4604
1330.00,0.4557
1329.00,0.4529
1328.00,0.4522
1327.00,0.4540
1326.00,0.4584
1325.00,0.4655
1324.00,0.4749
1323.00,0.4858
1322.00,0.4971
1321.00,0.5077
1320.00,0.5165
1319.00,0.5235
1318.00,0.5290
1317.00,0.5335
1316.00,0.5375
1315.00,0.5408
1314.00,0.5432
1313.00,0.5446
1312.00,0.5450
1311.00,0.5448
1310.00,0.5441
1309.00,0.5434
1308.00,0.5435
1307.00,0.5448
1306.00,0.5472
1305.00,0.5500
1304.00,0.5528
1303.00,0.5548
1302.00,0.5551
1301.00,0.5530
1300.00,0.5481
1299.00,0.5403
1298.00,0.5301
1297.00,0.5181
1296.00,0.5051
1295.00,0.4920
1294.00,0.4797
1293.00,0.4686
1292.00,0.4589
1291.00,0.4506
1290.00,0.4433
1289.00,0.4367
1288.00,0.4305
1287.00,0.4245
1286.00,0.4187
1285.00,0.4130
1284.00,0.4077
1283.00,0.4030
1282.00,0.3990
1281.00,0.3957
1280.00,0.3932
1279.00,0.3914
1278.00,0.3903
1277.00,0.3900
1276.00,0.3904
1275.00,0.3915
1274.00,0.3931
1273.00,0.3953
1272.00,0.3977
1271.00,0.4000
1270.00,0.4012
1269.00,0.4005
1268.00,0.3971
1267.00,0.3915
1266.00,0.3845
1265.00,0.3775
1264.00,0.3711
1263.00,0.3656
1262.00,0.3609
1261.00,0.3569
1260.00,0.3539
1259.00,0.3517
1258.00,0.3502
1257.00,0.3493
1256.00,0.3489
1255.00,0.3489
1254.00,0.3488
1253.00,0.3485
1252.00,0.3482
1251.00,0.3478
1250.00,0.3476
1249.00,0.3476
1248.00,0.3482
1247.00,0.3490
1246.00,0.3499
1245.00,0.3506
1244.00,0.3513
1243.00,0.3521
1242.00,0.3525
1241.00,0.3522
1240.00,0.3512
1239.00,0.3499
1238.00,0.3486
1237.00,0.3472
1236.00,0.3457
1235.00,0.3443
1234.00,0.3428
1233.00,0.3411
1232.00,0.3392
1231.00,0.3371
1230.00,0.3346
1229.00,0.3321
1228.00,0.3296
1227.00,0.3274
1226.00,0.3252
1225.00,0.3228
1224.00,0.3201
1223.00,0.3176
1222.00,0.3155
1221.00,0.3141
1220.00,0.3137
1219.00,0.3146
1218.00,0.3163
1217.00,0.3188
1216.00,0.3218
1215.00,0.3258
1214.00,0.3308
1213.00,0.3370
1212.00,0.3450
1211.00,0.3553
1210.00,0.3679
1209.00,0.3832
1208.00,0.4013
1207.00,0.4225
1206.00,0.4458
1205.00,0.4698
1204.00,0.4930
1203.00,0.5143
1202.00,0.5325
1201.00,0.5467
1200.00,0.5568
1199.00,0.5634
1198.00,0.5678
1197.00,0.5710
1196.00,0.5733
1195.00,0.5741
1194.00,0.5727
1193.00,0.5684
1192.00,0.5608
1191.00,0.5496
1190.00,0.5342
1189.00,0.5145
1188.00,0.4915
1187.00,0.4671
1186.00,0.4439
1185.00,0.4240
1184.00,0.4087
1183.00,0.3986
1182.00,0.3935
1181.00,0.3927
1180.00,0.3954
1179.00,0.4012
1178.00,0.4098
1177.00,0.4206
1176.00,0.4332
1175.00,0.4471
1174.00,0.4614
1173.00,0.4746
1172.00,0.4848
1171.00,0.4903
1170.00,0.4906
1169.00,0.4866
1168.00,0.4803
1167.00,0.4736
1166.00,0.4681
1165.00,0.4644
1164.00,0.4617
1163.00,0.4582
1162.00,0.4518
1161.00,0.4418
1160.00,0.4296
1159.00,0.4171
1158.00,0.4064
1157.00,0.3982
1156.00,0.3919
1155.00,0.3863
1154.00,0.3801
1153.00,0.3729
1152.00,0.3650
1151.00,0.3572
1150.00,0.3499
1149.00,0.3429
1148.00,0.3365
1147.00,0.3309
1146.00,0.3261
1145.00,0.3215
1144.00,0.3165
1143.00,0.3111
1142.00,0.3051
1141.00,0.2991
1140.00,0.2934
1139.00,0.2885
1138.00,0.2842
1137.00,0.2800
1136.00,0.2757
1135.00,0.2716
1134.00,0.2676
1133.00,0.2639
1132.00,0.2604
1131.00,0.2573
1130.00,0.2547
1129.00,0.2529
1128.00,0.2519
1127.00,0.2515
1126.00,0.2512
1125.00,0.2511
1124.00,0.2510
1123.00,0.2511
1122.00,0.2512
1121.00,0.2508
1120.00,0.2497
1119.00,0.2483
1118.00,0.2468
1117.00,0.2457
1116.00,0.2453
1115.00,0.2459
1114.00,0.2471
1113.00,0.2484
1112.00,0.2490
1111.00,0.2484
1110.00,0.2464
1109.00,0.2434
1108.00,0.2401
1107.00,0.2375
1106.00,0.2359
1105.00,0.2349
1104.00,0.2343
1103.00,0.2340
1102.00,0.2341
1101.00,0.2344
1100.00,0.2347
1099.00,0.2350
1098.00,0.2353
1097.00,0.2357
1096.00,0.2362
1095.00,0.2369
1094.00,0.2376
1093.00,0.2385
1092.00,0.2396
1091.00,0.2409
1090.00,0.2424
1089.00,0.2438
1088.00,0.2453
1087.00,0.2469
1086.00,0.2488
1085.00,0.2505
1084.00,0.2519
1083.00,0.2533
1082.00,0.2550
1081.00,0.2570
1080.00,0.2591
1079.00,0.2609
1078.00,0.2624
1077.00,0.2635
1076.00,0.2646
1075.00,0.2658
1074.00,0.2670
1073.00,0.2679
1072.00,0.2678
1071.00,0.2665
1070.00,0.2641
1069.00,0.2610
1068.00,0.2578
1067.00,0.2551
1066.00,0.2529
1065.00,0.2510
1064.00,0.2492
1063.00,0.2477
1062.00,0.2464
1061.00,0.2452
1060.00,0.2441
1059.00,0.2430
1058.00,0.2422
1057.00,0.2416
1056.00,0.2411
1055.00,0.2407
1054.00,0.2402
1053.00,0.2396
1052.00,0.2391
1051.00,0.2386
1050.00,0.2381
1049.00,0.2375
1048.00,0.2370
1047.00,0.2368
1046.00,0.2371
1045.00,0.2375
1044.00,0.2381
1043.00,0.2385
1042.00,0.2386
1041.00,0.2384
1040.00,0.2383
1039.00,0.2386
1038.00,0.2395
1037.00,0.2408
1036.00,0.2425
1035.00,0.2446
1034.00,0.2470
1033.00,0.2502
1032.00,0.2551
1031.00,0.2624
1030.00,0.2720
1029.00,0.2826
1028.00,0.2920
1027.00,0.2978
1026.00,0.2980
1025.00,0.2929
1024.00,0.2849
1023.00,0.2772
1022.00,0.2722
1021.00,0.2709
1020.00,0.2726
1019.00,0.2759
1018.00,0.2785
1017.00,0.2788
1016.00,0.2767
1015.00,0.2742
1014.00,0.2744
1013.00,0.2800
1012.00,0.2918
1011.00,0.3074
1010.00,0.3207
1009.00,0.3249
1008.00,0.3176
1007.00,0.3027
1006.00,0.2862
1005.00,0.2729
1004.00,0.2643
1003.00,0.2598
1002.00,0.2578
1001.00,0.2574
1000.00,0.2578
999.00,0.2591
998.00,0.2609
997.00,0.2628
996.00,0.2643
995.00,0.2656
994.00,0.2672
993.00,0.2695
992.00,0.2727
991.00,0.2772
990.00,0.2829
989.00,0.2895
988.00,0.2971
987.00,0.3056
986.00,0.3153
985.00,0.3265
984.00,0.3394
983.00,0.3547
982.00,0.3722
981.00,0.3915
980.00,0.4120
979.00,0.4331
978.00,0.4546
977.00,0.4766
976.00,0.4997
975.00,0.5242
974.00,0.5506
973.00,0.5782
972.00,0.6060
971.00,0.6325
970.00,0.6561
969.00,0.6756
968.00,0.6906
967.00,0.7017
966.00,0.7095
965.00,0.7141
964.00,0.7149
963.00,0.7119
962.00,0.7051
961.00,0.6948
960.00,0.6805
959.00,0.6623
958.00,0.6412
957.00,0.6179
956.00,0.5928
955.00,0.5663
954.00,0.5384
953.00,0.5092
952.00,0.4792
951.00,0.4496
950.00,0.4219
949.00,0.3972
948.00,0.3761
947.00,0.3585
946.00,0.3445
945.00,0.3334
944.00,0.3246
943.00,0.3179
942.00,0.3136
941.00,0.3117
940.00,0.3116
939.00,0.3124
938.00,0.3131
937.00,0.3130
936.00,0.3118
935.00,0.3099
934.00,0.3076
933.00,0.3050
932.00,0.3019
931.00,0.2976
930.00,0.2917
929.00,0.2845
928.00,0.2769
927.00,0.2699
926.00,0.2639
925.00,0.2593
924.00,0.2559
923.00,0.2540
922.00,0.2535
921.00,0.2540
920.00,0.2545
919.00,0.2542
918.00,0.2524
917.00,0.2493
916.00,0.2451
915.00,0.2409
914.00,0.2371
913.00,0.2341
912.00,0.2316
911.00,0.2295
910.00,0.2279
909.00,0.2268
908.00,0.2265
907.00,0.2267
906.00,0.2275
905.00,0.2288
904.00,0.2306
903.00,0.2330
902.00,0.2354
901.00,0.2372
900.00,0.2383
899.00,0.2391
898.00,0.2398
897.00,0.2407
896.00,0.2417
895.00,0.2429
894.00,0.2442
893.00,0.2458
892.00,0.2478
891.00,0.2502
890.00,0.2521
889.00,0.2525
888.00,0.2502
887.00,0.2452
886.00,0.2383
885.00,0.2309
884.00,0.2240
883.00,0.2184
882.00,0.2143
881.00,0.2113
880.00,0.2089
879.00,0.2070
878.00,0.2054
877.00,0.2042
876.00,0.2035
875.00,0.2032
874.00,0.2028
873.00,0.2018
872.00,0.2002
871.00,0.1986
870.00,0.1971
869.00,0.1960
868.00,0.1951
867.00,0.1944
866.00,0.1936
865.00,0.1928
864.00,0.1920
863.00,0.1915
862.00,0.1917
861.00,0.1927
860.00,0.1945
859.00,0.1967
858.00,0.1995
857.00,0.2031
856.00,0.2083
855.00,0.2154
854.00,0.2238
853.00,0.2314
852.00,0.2360
851.00,0.2363
850.00,0.2335
849.00,0.2296
848.00,0.2267
847.00,0.2257
846.00,0.2259
845.00,0.2260
844.00,0.2255
843.00,0.2253
842.00,0.2271
841.00,0.2323
840.00,0.2413
839.00,0.2534
838.00,0.2656
837.00,0.2742
836.00,0.2763
835.00,0.2715
834.00,0.2621
833.00,0.2511
832.00,0.2405
831.00,0.2313
830.00,0.2239
829.00,0.2183
828.00,0.2143
827.00,0.2118
826.00,0.2109
825.00,0.2116
824.00,0.2139
823.00,0.2176
822.00,0.2223
821.00,0.2277
820.00,0.2345
819.00,0.2433
818.00,0.2539
817.00,0.2639
816.00,0.2692
815.00,0.2669
814.00,0.2571
813.00,0.2428
812.00,0.2280
811.00,0.2155
810.00,0.2063
809.00,0.2002
808.00,0.1964
807.00,0.1940
806.00,0.1922
805.00,0.1911
804.00,0.1906
803.00,0.1907
802.00,0.1916
801.00,0.1932
800.00,0.1960
799.00,0.2002
798.00,0.2064
797.00,0.2140
796.00,0.2220
795.00,0.2286
794.00,0.2323
793.00,0.2331
792.00,0.2320
791.00,0.2309
790.00,0.2309
789.00,0.2330
788.00,0.2374
787.00,0.2440
786.00,0.2521
785.00,0.2610
784.00,0.2702
783.00,0.2801
782.00,0.2919
781.00,0.3069
780.00,0.3266
779.00,0.3504
778.00,0.3742
777.00,0.3906
776.00,0.3932
775.00,0.3822
774.00,0.3644
773.00,0.3473
772.00,0.3352
771.00,0.3284
770.00,0.3250
769.00,0.3228
768.00,0.3201
767.00,0.3165
766.00,0.3124
765.00,0.3090
764.00,0.3067
763.00,0.3057
762.00,0.3059
761.00,0.3071
760.00,0.3090
759.00,0.3118
758.00,0.3156
757.00,0.3207
756.00,0.3279
755.00,0.3372
754.00,0.3474
753.00,0.3562
752.00,0.3618
751.00,0.3636
750.00,0.3636
749.00,0.3649
748.00,0.3708
747.00,0.3827
746.00,0.3999
745.00,0.4183
744.00,0.4325
743.00,0.4378
742.00,0.4341
741.00,0.4256
740.00,0.4175
739.00,0.4132
738.00,0.4131
737.00,0.4162
736.00,0.4219
735.00,0.4301
734.00,0.4411
733.00,0.4554
732.00,0.4733
731.00,0.4949
730.00,0.5201
729.00,0.5483
728.00,0.5793
727.00,0.6136
726.00,0.6517
725.00,0.6920
724.00,0.7301
723.00,0.7587
722.00,0.7690
721.00,0.7538
720.00,0.7138
719.00,0.6574
718.00,0.5954
717.00,0.5360
716.00,0.4837
715.00,0.4402
714.00,0.4039
713.00,0.3722
712.00,0.3432
711.00,0.3167
710.00,0.2928
709.00,0.2715
708.00,0.2524
707.00,0.2356
706.00,0.2213
705.00,0.2092
704.00,0.1988
703.00,0.1900
702.00,0.1827
701.00,0.1766
700.00,0.1712
699.00,0.1663
698.00,0.1623
697.00,0.1591
696.00,0.1571
695.00,0.1564
694.00,0.1575
693.00,0.1611
692.00,0.1677
691.00,0.1783
690.00,0.1926
689.00,0.2077
688.00,0.2178
687.00,0.2176
686.00,0.2065
685.00,0.1885
684.00,0.1695
683.00,0.1538
682.00,0.1427
681.00,0.1357
680.00,0.1317
679.00,0.1295
678.00,0.1282
677.00,0.1272
676.00,0.1261
675.00,0.1251
674.00,0.1244
673.00,0.1241
672.00,0.1245
671.00,0.1254
670.00,0.1263
669.00,0.1273
668.00,0.1285
667.00,0.1299
666.00,0.1314
665.00,0.1333
664.00,0.1355
663.00,0.1378
662.00,0.1400
661.00,0.1418
660.00,0.1431
659.00,0.1442
658.00,0.1450
657.00,0.1452
656.00,0.1446
655.00,0.1439
654.00,0.1437
653.00,0.1440
652.00,0.1444
651.00,0.1446
650.00,0.1451
649.00,0.1459
648.00,0.1468
647.00,0.1476
646.00,0.1483
645.00,0.1494
644.00,0.1508
643.00,0.1526
642.00,0.1548
641.00,0.1574
640.00,0.1598
639.00,0.1617
638.00,0.1631
637.00,0.1643
636.00,0.1658
635.00,0.1676
634.00,0.1691
633.00,0.1700
632.00,0.1702
631.00,0.1698
630.00,0.1694
629.00,0.1698
628.00,0.1711
627.00,0.1733
626.00,0.1759
625.00,0.1788
624.00,0.1818
623.00,0.1849
622.00,0.1876
621.00,0.1898
620.00,0.1922
619.00,0.1949
618.00,0.1973
617.00,0.1984
616.00,0.1974
615.00,0.1945
614.00,0.1910
613.00,0.1880
612.00,0.1859
611.00,0.1841
610.00,0.1821
609.00,0.1797
608.00,0.1778
607.00,0.1767
606.00,0.1762
605.00,0.1756
604.00,0.1750
603.00,0.1749
602.00,0.1761
601.00,0.1784
600.00,0.1807
599.00,0.1824
598.00,0.1835
597.00,0.1845
596.00,0.1859
595.00,0.1879
594.00,0.1902
593.00,0.1930
592.00,0.1967
591.00,0.2012
590.00,0.2052
589.00,0.2080
588.00,0.2094
587.00,0.2103
586.00,0.2113
585.00,0.2131
584.00,0.2164
583.00,0.2211
582.00,0.2258
581.00,0.2293
580.00,0.2314
579.00,0.2330
578.00,0.2345
577.00,0.2353
576.00,0.2352
575.00,0.2353
574.00,0.2369
573.00,0.2399
572.00,0.2430
571.00,0.2450
570.00,0.2458
569.00,0.2456
568.00,0.2450
567.00,0.2442
566.00,0.2438
565.00,0.2438
564.00,0.2440
563.00,0.2439
562.00,0.2429
561.00,0.2408
560.00,0.2383
559.00,0.2364
558.00,0.2354
557.00,0.2350
556.00,0.2348
555.00,0.2349
554.00,0.2352
553.00,0.2357
552.00,0.2360
551.00,0.2362
550.00,0.2371
