Created as New Dataset,Sample 001 By Dylan Kletzing Tuesday, March 11, 2025
cm-1,A
4000.00,0.3254
3999.00,0.3253
3998.00,0.3248
3997.00,0.3242
3996.00,0.3236
3995.00,0.3230
3994.00,0.3224
3993.00,0.3220
3992.00,0.3215
3991.00,0.3210
3990.00,0.3206
3989.00,0.3200
3988.00,0.3193
3987.00,0.3185
3986.00,0.3178
3985.00,0.3172
3984.00,0.3166
3983.00,0.3160
3982.00,0.3154
3981.00,0.3148
3980.00,0.3142
3979.00,0.3137
3978.00,0.3132
3977.00,0.3127
3976.00,0.3122
3975.00,0.3116
3974.00,0.3111
3973.00,0.3107
3972.00,0.3105
3971.00,0.3102
3970.00,0.3101
3969.00,0.3100
3968.00,0.3099
3967.00,0.3097
3966.00,0.3095
3965.00,0.3093
3964.00,0.3089
3963.00,0.3086
3962.00,0.3084
3961.00,0.3084
3960.00,0.3084
3959.00,0.3083
3958.00,0.3081
3957.00,0.3077
3956.00,0.3074
3955.00,0.3073
3954.00,0.3073
3953.00,0.3073
3952.00,0.3074
3951.00,0.3074
3950.00,0.3073
3949.00,0.3072
3948.00,0.3071
3947.00,0.3069
3946.00,0.3068
3945.00,0.3068
3944.00,0.3068
3943.00,0.3068
3942.00,0.3067
3941.00,0.3066
3940.00,0.3065
3939.00,0.3065
3938.00,0.3065
3937.00,0.3066
3936.00,0.3066
3935.00,0.3067
3934.00,0.3067
3933.00,0.3068
3932.00,0.3069
3931.00,0.3070
3930.00,0.3071
3929.00,0.3070
3928.00,0.3068
3927.00,0.3066
3926.00,0.3065
3925.00,0.3064
3924.00,0.3063
3923.00,0.3062
3922.00,0.3060
3921.00,0.3058
3920.00,0.3057
3919.00,0.3058
3918.00,0.3058
3917.00,0.3058
3916.00,0.3058
3915.00,0.3058
3914.00,0.3058
3913.00,0.3056
3912.00,0.3053
3911.00,0.3050
3910.00,0.3049
3909.00,0.3050
3908.00,0.3052
3907.00,0.3054
3906.00,0.3054
3905.00,0.3053
3904.00,0.3052
3903.00,0.3051
3902.00,0.3052
3901.00,0.3052
3900.00,0.3052
3899.00,0.3052
3898.00,0.3052
3897.00,0.3052
3896.00,0.3051
3895.00,0.3049
3894.00,0.3047
3893.00,0.3047
3892.00,0.3047
3891.00,0.3047
3890.00,0.3047
3889.00,0.3047
3888.00,0.3045
3887.00,0.3041
3886.00,0.3037
3885.00,0.3035
3884.00,0.3036
3883.00,0.3037
3882.00,0.3037
3881.00,0.3034
3880.00,0.3031
3879.00,0.3031
3878.00,0.3032
3877.00,0.3031
3876.00,0.3027
3875.00,0.3021
3874.00,0.3018
3873.00,0.3018
3872.00,0.3021
3871.00,0.3024
3870.00,0.3023
3869.00,0.3021
3868.00,0.3020
3867.00,0.3019
3866.00,0.3016
3865.00,0.3015
3864.00,0.3016
3863.00,0.3019
3862.00,0.3022
3861.00,0.3020
3860.00,0.3017
3859.00,0.3013
3858.00,0.3011
3857.00,0.3009
3856.00,0.3009
3855.00,0.3010
3854.00,0.3011
3853.00,0.3013
3852.00,0.3015
3851.00,0.3018
3850.00,0.3017
3849.00,0.3014
3848.00,0.3009
3847.00,0.3006
3846.00,0.3002
3845.00,0.2999
3844.00,0.2995
3843.00,0.2992
3842.00,0.2991
3841.00,0.2992
3840.00,0.2994
3839.00,0.2996
3838.00,0.2998
3837.00,0.2999
3836.00,0.2998
3835.00,0.2997
3834.00,0.2995
3833.00,0.2995
3832.00,0.2996
3831.00,0.2997
3830.00,0.2998
3829.00,0.2998
3828.00,0.2996
3827.00,0.2993
3826.00,0.2990
3825.00,0.2989
3824.00,0.2989
3823.00,0.2988
3822.00,0.2986
3821.00,0.2985
3820.00,0.2986
3819.00,0.2990
3818.00,0.2993
3817.00,0.2990
3816.00,0.2983
3815.00,0.2977
3814.00,0.2974
3813.00,0.2972
3812.00,0.2968
3811.00,0.2963
3810.00,0.2960
3809.00,0.2959
3808.00,0.2958
3807.00,0.2955
3806.00,0.2952
3805.00,0.2953
3804.00,0.2954
3803.00,0.2954
3802.00,0.2951
3801.00,0.2948
3800.00,0.2949
3799.00,0.2951
3798.00,0.2951
3797.00,0.2948
3796.00,0.2944
3795.00,0.2942
3794.00,0.2942
3793.00,0.2941
3792.00,0.2938
3791.00,0.2935
3790.00,0.2933
3789.00,0.2932
3788.00,0.2933
3787.00,0.2933
3786.00,0.2932
3785.00,0.2930
3784.00,0.2928
3783.00,0.2926
3782.00,0.2925
3781.00,0.2924
3780.00,0.2921
3779.00,0.2917
3778.00,0.2914
3777.00,0.2911
3776.00,0.2908
3775.00,0.2905
3774.00,0.2903
3773.00,0.2901
3772.00,0.2901
3771.00,0.2899
3770.00,0.2896
3769.00,0.2895
3768.00,0.2896
3767.00,0.2898
3766.00,0.2899
3765.00,0.2898
3764.00,0.2896
3763.00,0.2893
3762.00,0.2891
3761.00,0.2888
3760.00,0.2886
3759.00,0.2887
3758.00,0.2888
3757.00,0.2888
3756.00,0.2886
3755.00,0.2884
3754.00,0.2883
3753.00,0.2884
3752.00,0.2886
3751.00,0.2887
3750.00,0.2886
3749.00,0.2884
3748.00,0.2883
3747.00,0.2885
3746.00,0.2887
3745.00,0.2885
3744.00,0.2880
3743.00,0.2878
3742.00,0.2878
3741.00,0.2877
3740.00,0.2874
3739.00,0.2870
3738.00,0.2869
3737.00,0.2867
3736.00,0.2866
3735.00,0.2864
3734.00,0.2863
3733.00,0.2862
3732.00,0.2861
3731.00,0.2861
3730.00,0.2862
3729.00,0.2865
3728.00,0.2865
3727.00,0.2863
3726.00,0.2861
3725.00,0.2860
3724.00,0.2859
3723.00,0.2857
3722.00,0.2855
3721.00,0.2853
3720.00,0.2852
3719.00,0.2852
3718.00,0.2851
3717.00,0.2849
3716.00,0.2848
3715.00,0.2848
3714.00,0.2847
3713.00,0.2846
3712.00,0.2846
3711.00,0.2846
3710.00,0.2847
3709.00,0.2848
3708.00,0.2847
3707.00,0.2846
3706.00,0.2843
3705.00,0.2839
3704.00,0.2837
3703.00,0.2835
3702.00,0.2834
3701.00,0.2833
3700.00,0.2833
3699.00,0.2834
3698.00,0.2836
3697.00,0.2837
3696.00,0.2838
3695.00,0.2838
3694.00,0.2838
3693.00,0.2838
3692.00,0.2838
3691.00,0.2839
3690.00,0.2841
3689.00,0.2843
3688.00,0.2844
3687.00,0.2844
3686.00,0.2845
3685.00,0.2845
3684.00,0.2845
3683.00,0.2845
3682.00,0.2845
3681.00,0.2844
3680.00,0.2843
3679.00,0.2842
3678.00,0.2843
3677.00,0.2844
3676.00,0.2844
3675.00,0.2843
3674.00,0.2844
3673.00,0.2848
3672.00,0.2850
3671.00,0.2849
3670.00,0.2848
3669.00,0.2848
3668.00,0.2850
3667.00,0.2852
3666.00,0.2853
3665.00,0.2854
3664.00,0.2856
3663.00,0.2861
3662.00,0.2867
3661.00,0.2876
3660.00,0.2886
3659.00,0.2899
3658.00,0.2915
3657.00,0.2933
3656.00,0.2954
3655.00,0.2977
3654.00,0.3000
3653.00,0.3022
3652.00,0.3040
3651.00,0.3055
3650.00,0.3064
3649.00,0.3066
3648.00,0.3063
3647.00,0.3056
3646.00,0.3046
3645.00,0.3036
3644.00,0.3025
3643.00,0.3015
3642.00,0.3006
3641.00,0.2997
3640.00,0.2989
3639.00,0.2980
3638.00,0.2972
3637.00,0.2963
3636.00,0.2956
3635.00,0.2947
3634.00,0.2938
3633.00,0.2929
3632.00,0.2921
3631.00,0.2914
3630.00,0.2906
3629.00,0.2898
3628.00,0.2891
3627.00,0.2887
3626.00,0.2884
3625.00,0.2878
3624.00,0.2873
3623.00,0.2871
3622.00,0.2869
3621.00,0.2866
3620.00,0.2861
3619.00,0.2857
3618.00,0.2854
3617.00,0.2854
3616.00,0.2855
3615.00,0.2854
3614.00,0.2852
3613.00,0.2850
3612.00,0.2848
3611.00,0.2846
3610.00,0.2844
3609.00,0.2842
3608.00,0.2838
3607.00,0.2833
3606.00,0.2826
3605.00,0.2820
3604.00,0.2813
3603.00,0.2806
3602.00,0.2798
3601.00,0.2787
3600.00,0.2776
3599.00,0.2765
3598.00,0.2754
3597.00,0.2746
3596.00,0.2738
3595.00,0.2731
3594.00,0.2724
3593.00,0.2717
3592.00,0.2710
3591.00,0.2706
3590.00,0.2703
3589.00,0.2699
3588.00,0.2693
3587.00,0.2686
3586.00,0.2681
3585.00,0.2678
3584.00,0.2676
3583.00,0.2673
3582.00,0.2670
3581.00,0.2667
3580.00,0.2665
3579.00,0.2663
3578.00,0.2661
3577.00,0.2660
3576.00,0.2658
3575.00,0.2655
3574.00,0.2651
3573.00,0.2647
3572.00,0.2645
3571.00,0.2645
3570.00,0.2646
3569.00,0.2646
3568.00,0.2645
3567.00,0.2642
3566.00,0.2640
3565.00,0.2637
3564.00,0.2634
3563.00,0.2632
3562.00,0.2630
3561.00,0.2628
3560.00,0.2628
3559.00,0.2626
3558.00,0.2624
3557.00,0.2620
3556.00,0.2616
3555.00,0.2613
3554.00,0.2612
3553.00,0.2612
3552.00,0.2611
3551.00,0.2611
3550.00,0.2611
3549.00,0.2611
3548.00,0.2612
3547.00,0.2613
3546.00,0.2613
3545.00,0.2613
3544.00,0.2614
3543.00,0.2615
3542.00,0.2616
3541.00,0.2616
3540.00,0.2614
3539.00,0.2612
3538.00,0.2611
3537.00,0.2611
3536.00,0.2612
3535.00,0.2613
3534.00,0.2615
3533.00,0.2615
3532.00,0.2615
3531.00,0.2615
3530.00,0.2615
3529.00,0.2615
3528.00,0.2615
3527.00,0.2615
3526.00,0.2615
3525.00,0.2615
3524.00,0.2616
3523.00,0.2617
3522.00,0.2617
3521.00,0.2616
3520.00,0.2616
3519.00,0.2616
3518.00,0.2616
3517.00,0.2617
3516.00,0.2618
3515.00,0.2619
3514.00,0.2620
3513.00,0.2621
3512.00,0.2622
3511.00,0.2623
3510.00,0.2625
3509.00,0.2627
3508.00,0.2629
3507.00,0.2631
3506.00,0.2631
3505.00,0.2630
3504.00,0.2630
3503.00,0.2630
3502.00,0.2631
3501.00,0.2633
3500.00,0.2635
3499.00,0.2636
3498.00,0.2637
3497.00,0.2637
3496.00,0.2636
3495.00,0.2636
3494.00,0.2636
3493.00,0.2638
3492.00,0.2639
3491.00,0.2640
3490.00,0.2641
3489.00,0.2641
3488.00,0.2642
3487.00,0.2643
3486.00,0.2644
3485.00,0.2647
3484.00,0.2649
3483.00,0.2652
3482.00,0.2654
3481.00,0.2655
3480.00,0.2656
3479.00,0.2658
3478.00,0.2659
3477.00,0.2660
3476.00,0.2661
3475.00,0.2663
3474.00,0.2665
3473.00,0.2667
3472.00,0.2669
3471.00,0.2671
3470.00,0.2673
3469.00,0.2675
3468.00,0.2677
3467.00,0.2679
3466.00,0.2680
3465.00,0.2681
3464.00,0.2683
3463.00,0.2685
3462.00,0.2688
3461.00,0.2690
3460.00,0.2690
3459.00,0.2690
3458.00,0.2690
3457.00,0.2691
3456.00,0.2692
3455.00,0.2694
3454.00,0.2697
3453.00,0.2700
3452.00,0.2703
3451.00,0.2706
3450.00,0.2707
3449.00,0.2709
3448.00,0.2712
3447.00,0.2717
3446.00,0.2723
3445.00,0.2728
3444.00,0.2732
3443.00,0.2735
3442.00,0.2738
3441.00,0.2742
3440.00,0.2745
3439.00,0.2748
3438.00,0.2750
3437.00,0.2753
3436.00,0.2756
3435.00,0.2758
3434.00,0.2759
3433.00,0.2759
3432.00,0.2758
3431.00,0.2756
3430.00,0.2754
3429.00,0.2753
3428.00,0.2753
3427.00,0.2754
3426.00,0.2754
3425.00,0.2753
3424.00,0.2752
3423.00,0.2751
3422.00,0.2751
3421.00,0.2750
3420.00,0.2751
3419.00,0.2751
3418.00,0.2751
3417.00,0.2752
3416.00,0.2752
3415.00,0.2752
3414.00,0.2752
3413.00,0.2752
3412.00,0.2752
3411.00,0.2754
3410.00,0.2754
3409.00,0.2754
3408.00,0.2754
3407.00,0.2755
3406.00,0.2756
3405.00,0.2758
3404.00,0.2760
3403.00,0.2761
3402.00,0.2763
3401.00,0.2765
3400.00,0.2767
3399.00,0.2767
3398.00,0.2768
3397.00,0.2769
3396.00,0.2771
3395.00,0.2772
3394.00,0.2773
3393.00,0.2773
3392.00,0.2773
3391.00,0.2774
3390.00,0.2776
3389.00,0.2777
3388.00,0.2777
3387.00,0.2777
3386.00,0.2779
3385.00,0.2781
3384.00,0.2784
3383.00,0.2787
3382.00,0.2789
3381.00,0.2791
3380.00,0.2793
3379.00,0.2794
3378.00,0.2795
3377.00,0.2795
3376.00,0.2796
3375.00,0.2799
3374.00,0.2802
3373.00,0.2805
3372.00,0.2807
3371.00,0.2809
3370.00,0.2812
3369.00,0.2815
3368.00,0.2818
3367.00,0.2821
3366.00,0.2823
3365.00,0.2826
3364.00,0.2829
3363.00,0.2831
3362.00,0.2832
3361.00,0.2833
3360.00,0.2835
3359.00,0.2838
3358.00,0.2841
3357.00,0.2841
3356.00,0.2840
3355.00,0.2838
3354.00,0.2837
3353.00,0.2838
3352.00,0.2840
3351.00,0.2840
3350.00,0.2839
3349.00,0.2838
3348.00,0.2836
3347.00,0.2834
3346.00,0.2832
3345.00,0.2829
3344.00,0.2825
3343.00,0.2821
3342.00,0.2817
3341.00,0.2814
3340.00,0.2813
3339.00,0.2812
3338.00,0.2812
3337.00,0.2811
3336.00,0.2808
3335.00,0.2805
3334.00,0.2802
3333.00,0.2799
3332.00,0.2795
3331.00,0.2792
3330.00,0.2791
3329.00,0.2791
3328.00,0.2792
3327.00,0.2792
3326.00,0.2790
3325.00,0.2787
3324.00,0.2784
3323.00,0.2782
3322.00,0.2781
3321.00,0.2779
3320.00,0.2778
3319.00,0.2778
3318.00,0.2778
3317.00,0.2777
3316.00,0.2775
3315.00,0.2773
3314.00,0.2773
3313.00,0.2774
3312.00,0.2775
3311.00,0.2775
3310.00,0.2774
3309.00,0.2772
3308.00,0.2772
3307.00,0.2771
3306.00,0.2772
3305.00,0.2773
3304.00,0.2774
3303.00,0.2775
3302.00,0.2774
3301.00,0.2773
3300.00,0.2772
3299.00,0.2771
3298.00,0.2771
3297.00,0.2770
3296.00,0.2769
3295.00,0.2767
3294.00,0.2766
3293.00,0.2765
3292.00,0.2765
3291.00,0.2765
3290.00,0.2765
3289.00,0.2766
3288.00,0.2767
3287.00,0.2767
3286.00,0.2767
3285.00,0.2767
3284.00,0.2768
3283.00,0.2768
3282.00,0.2768
3281.00,0.2768
3280.00,0.2769
3279.00,0.2770
3278.00,0.2771
3277.00,0.2771
3276.00,0.2772
3275.00,0.2773
3274.00,0.2776
3273.00,0.2779
3272.00,0.2781
3271.00,0.2781
3270.00,0.2781
3269.00,0.2781
3268.00,0.2783
3267.00,0.2786
3266.00,0.2787
3265.00,0.2788
3264.00,0.2788
3263.00,0.2788
3262.00,0.2790
3261.00,0.2791
3260.00,0.2791
3259.00,0.2792
3258.00,0.2793
3257.00,0.2796
3256.00,0.2799
3255.00,0.2802
3254.00,0.2804
3253.00,0.2806
3252.00,0.2807
3251.00,0.2808
3250.00,0.2809
3249.00,0.2811
3248.00,0.2814
3247.00,0.2818
3246.00,0.2823
3245.00,0.2827
3244.00,0.2831
3243.00,0.2835
3242.00,0.2840
3241.00,0.2845
3240.00,0.2848
3239.00,0.2851
3238.00,0.2855
3237.00,0.2860
3236.00,0.2866
3235.00,0.2872
3234.00,0.2877
3233.00,0.2882
3232.00,0.2888
3231.00,0.2893
3230.00,0.2899
3229.00,0.2905
3228.00,0.2912
3227.00,0.2920
3226.00,0.2927
3225.00,0.2932
3224.00,0.2937
3223.00,0.2944
3222.00,0.2953
3221.00,0.2963
3220.00,0.2971
3219.00,0.2979
3218.00,0.2987
3217.00,0.2996
3216.00,0.3006
3215.00,0.3016
3214.00,0.3027
3213.00,0.3038
3212.00,0.3048
3211.00,0.3057
3210.00,0.3067
3209.00,0.3079
3208.00,0.3092
3207.00,0.3104
3206.00,0.3115
3205.00,0.3124
3204.00,0.3132
3203.00,0.3142
3202.00,0.3152
3201.00,0.3162
3200.00,0.3172
3199.00,0.3182
3198.00,0.3193
3197.00,0.3205
3196.00,0.3215
3195.00,0.3224
3194.00,0.3232
3193.00,0.3240
3192.00,0.3248
3191.00,0.3257
3190.00,0.3264
3189.00,0.3271
3188.00,0.3278
3187.00,0.3285
3186.00,0.3292
3185.00,0.3298
3184.00,0.3303
3183.00,0.3308
3182.00,0.3314
3181.00,0.3320
3180.00,0.3326
3179.00,0.3331
3178.00,0.3336
3177.00,0.3339
3176.00,0.3341
3175.00,0.3342
3174.00,0.3343
3173.00,0.3344
3172.00,0.3345
3171.00,0.3346
3170.00,0.3348
3169.00,0.3351
3168.00,0.3352
3167.00,0.3352
3166.00,0.3352
3165.00,0.3351
3164.00,0.3351
3163.00,0.3351
3162.00,0.3352
3161.00,0.3353
3160.00,0.3354
3159.00,0.3354
3158.00,0.3354
3157.00,0.3353
3156.00,0.3353
3155.00,0.3353
3154.00,0.3353
3153.00,0.3353
3152.00,0.3352
3151.00,0.3351
3150.00,0.3350
3149.00,0.3351
3148.00,0.3353
3147.00,0.3355
3146.00,0.3355
3145.00,0.3355
3144.00,0.3355
3143.00,0.3356
3142.00,0.3357
3141.00,0.3357
3140.00,0.3358
3139.00,0.3359
3138.00,0.3360
3137.00,0.3362
3136.00,0.3365
3135.00,0.3368
3134.00,0.3371
3133.00,0.3373
3132.00,0.3373
3131.00,0.3374
3130.00,0.3374
3129.00,0.3375
3128.00,0.3376
3127.00,0.3378
3126.00,0.3382
3125.00,0.3387
3124.00,0.3392
3123.00,0.3397
3122.00,0.3400
3121.00,0.3402
3120.00,0.3406
3119.00,0.3412
3118.00,0.3418
3117.00,0.3424
3116.00,0.3431
3115.00,0.3437
3114.00,0.3444
3113.00,0.3449
3112.00,0.3456
3111.00,0.3465
3110.00,0.3476
3109.00,0.3487
3108.00,0.3498
3107.00,0.3509
3106.00,0.3521
3105.00,0.3533
3104.00,0.3545
3103.00,0.3557
3102.00,0.3570
3101.00,0.3583
3100.00,0.3597
3099.00,0.3609
3098.00,0.3621
3097.00,0.3633
3096.00,0.3644
3095.00,0.3654
3094.00,0.3664
3093.00,0.3677
3092.00,0.3692
3091.00,0.3709
3090.00,0.3726
3089.00,0.3742
3088.00,0.3759
3087.00,0.3778
3086.00,0.3800
3085.00,0.3824
3084.00,0.3848
3083.00,0.3873
3082.00,0.3900
3081.00,0.3928
3080.00,0.3956
3079.00,0.3984
3078.00,0.4011
3077.00,0.4037
3076.00,0.4064
3075.00,0.4093
3074.00,0.4121
3073.00,0.4148
3072.00,0.4173
3071.00,0.4199
3070.00,0.4226
3069.00,0.4256
3068.00,0.4288
3067.00,0.4322
3066.00,0.4358
3065.00,0.4396
3064.00,0.4437
3063.00,0.4478
3062.00,0.4518
3061.00,0.4555
3060.00,0.4590
3059.00,0.4621
3058.00,0.4651
3057.00,0.4680
3056.00,0.4709
3055.00,0.4737
3054.00,0.4765
3053.00,0.4793
3052.00,0.4820
3051.00,0.4847
3050.00,0.4875
3049.00,0.4903
3048.00,0.4928
3047.00,0.4952
3046.00,0.4972
3045.00,0.4989
3044.00,0.5003
3043.00,0.5016
3042.00,0.5029
3041.00,0.5044
3040.00,0.5060
3039.00,0.5081
3038.00,0.5105
3037.00,0.5132
3036.00,0.5163
3035.00,0.5197
3034.00,0.5234
3033.00,0.5276
3032.00,0.5320
3031.00,0.5365
3030.00,0.5412
3029.00,0.5460
3028.00,0.5509
3027.00,0.5559
3026.00,0.5611
3025.00,0.5665
3024.00,0.5722
3023.00,0.5782
3022.00,0.5844
3021.00,0.5907
3020.00,0.5974
3019.00,0.6045
3018.00,0.6122
3017.00,0.6203
3016.00,0.6288
3015.00,0.6373
3014.00,0.6460
3013.00,0.6550
3012.00,0.6645
3011.00,0.6747
3010.00,0.6856
3009.00,0.6971
3008.00,0.7092
3007.00,0.7217
3006.00,0.7347
3005.00,0.7483
3004.00,0.7626
3003.00,0.7777
3002.00,0.7935
3001.00,0.8102
3000.00,0.8281
2999.00,0.8473
2998.00,0.8677
2997.00,0.8893
2996.00,0.9119
2995.00,0.9361
2994.00,0.9619
2993.00,0.9896
2992.00,1.0194
2991.00,1.0517
2990.00,1.0865
2989.00,1.1232
2988.00,1.1610
2987.00,1.1999
2986.00,1.2407
2985.00,1.2835
2984.00,1.3268
2983.00,1.3687
2982.00,1.4081
2981.00,1.4450
2980.00,1.4789
2979.00,1.5091
2978.00,1.5347
2977.00,1.5551
2976.00,1.5706
2975.00,1.5823
2974.00,1.5912
2973.00,1.5975
2972.00,1.6007
2971.00,1.6020
2970.00,1.6038
2969.00,1.6071
2968.00,1.6109
2967.00,1.6142
2966.00,1.6176
2965.00,1.6223
2964.00,1.6280
2963.00,1.6330
2962.00,1.6365
2961.00,1.6393
2960.00,1.6424
2959.00,1.6457
2958.00,1.6477
2957.00,1.6470
2956.00,1.6442
2955.00,1.6417
2954.00,1.6417
2953.00,1.6443
2952.00,1.6470
2951.00,1.6474
2950.00,1.6455
2949.00,1.6426
2948.00,1.6406
2947.00,1.6400
2946.00,1.6404
2945.00,1.6408
2944.00,1.6412
2943.00,1.6428
2942.00,1.6468
2941.00,1.6525
2940.00,1.6572
2939.00,1.6598
2938.00,1.6618
2937.00,1.6656
2936.00,1.6723
2935.00,1.6802
2934.00,1.6874
2933.00,1.6935
2932.00,1.6999
2931.00,1.7071
2930.00,1.7135
2929.00,1.7173
2928.00,1.7195
2927.00,1.7232
2926.00,1.7299
2925.00,1.7369
2924.00,1.7409
2923.00,1.7417
2922.00,1.7416
2921.00,1.7411
2920.00,1.7379
2919.00,1.7305
2918.00,1.7202
2917.00,1.7094
2916.00,1.6997
2915.00,1.6918
2914.00,1.6852
2913.00,1.6788
2912.00,1.6721
2911.00,1.6656
2910.00,1.6603
2909.00,1.6562
2908.00,1.6527
2907.00,1.6499
2906.00,1.6479
2905.00,1.6462
2904.00,1.6442
2903.00,1.6415
2902.00,1.6379
2901.00,1.6338
2900.00,1.6297
2899.00,1.6269
2898.00,1.6256
2897.00,1.6247
2896.00,1.6230
2895.00,1.6210
2894.00,1.6197
2893.00,1.6188
2892.00,1.6169
2891.00,1.6145
2890.00,1.6132
2889.00,1.6134
2888.00,1.6130
2887.00,1.6106
2886.00,1.6071
2885.00,1.6039
2884.00,1.6009
2883.00,1.5981
2882.00,1.5961
2881.00,1.5961
2880.00,1.5976
2879.00,1.5989
2878.00,1.5992
2877.00,1.5990
2876.00,1.5996
2875.00,1.6015
2874.00,1.6047
2873.00,1.6083
2872.00,1.6111
2871.00,1.6126
2870.00,1.6131
2869.00,1.6131
2868.00,1.6124
2867.00,1.6115
2866.00,1.6118
2865.00,1.6142
2864.00,1.6181
2863.00,1.6218
2862.00,1.6245
2861.00,1.6272
2860.00,1.6314
2859.00,1.6371
2858.00,1.6426
2857.00,1.6465
2856.00,1.6491
2855.00,1.6508
2854.00,1.6509
2853.00,1.6487
2852.00,1.6456
2851.00,1.6439
2850.00,1.6432
2849.00,1.6409
2848.00,1.6354
2847.00,1.6278
2846.00,1.6197
2845.00,1.6117
2844.00,1.6039
2843.00,1.5978
2842.00,1.5938
2841.00,1.5909
2840.00,1.5873
2839.00,1.5822
2838.00,1.5753
2837.00,1.5659
2836.00,1.5533
2835.00,1.5381
2834.00,1.5208
2833.00,1.5004
2832.00,1.4755
2831.00,1.4461
2830.00,1.4137
2829.00,1.3802
2828.00,1.3469
2827.00,1.3149
2826.00,1.2848
2825.00,1.2559
2824.00,1.2273
2823.00,1.1993
2822.00,1.1724
2821.00,1.1467
2820.00,1.1219
2819.00,1.0974
2818.00,1.0734
2817.00,1.0506
2816.00,1.0292
2815.00,1.0089
2814.00,0.9892
2813.00,0.9696
2812.00,0.9503
2811.00,0.9317
2810.00,0.9137
2809.00,0.8961
2808.00,0.8788
2807.00,0.8621
2806.00,0.8462
2805.00,0.8314
2804.00,0.8172
2803.00,0.8033
2802.00,0.7896
2801.00,0.7761
2800.00,0.7633
2799.00,0.7510
2798.00,0.7393
2797.00,0.7278
2796.00,0.7165
2795.00,0.7055
2794.00,0.6948
2793.00,0.6845
2792.00,0.6744
2791.00,0.6645
2790.00,0.6547
2789.00,0.6450
2788.00,0.6352
2787.00,0.6255
2786.00,0.6161
2785.00,0.6071
2784.00,0.5985
2783.00,0.5899
2782.00,0.5815
2781.00,0.5733
2780.00,0.5655
2779.00,0.5580
2778.00,0.5508
2777.00,0.5439
2776.00,0.5374
2775.00,0.5313
2774.00,0.5256
2773.00,0.5203
2772.00,0.5155
2771.00,0.5113
2770.00,0.5075
2769.00,0.5042
2768.00,0.5010
2767.00,0.4980
2766.00,0.4953
2765.00,0.4930
2764.00,0.4911
2763.00,0.4896
2762.00,0.4881
2761.00,0.4869
2760.00,0.4857
2759.00,0.4847
2758.00,0.4838
2757.00,0.4830
2756.00,0.4822
2755.00,0.4815
2754.00,0.4809
2753.00,0.4805
2752.00,0.4803
2751.00,0.4802
2750.00,0.4802
2749.00,0.4805
2748.00,0.4810
2747.00,0.4818
2746.00,0.4826
2745.00,0.4837
2744.00,0.4850
2743.00,0.4867
2742.00,0.4887
2741.00,0.4911
2740.00,0.4938
2739.00,0.4968
2738.00,0.5002
2737.00,0.5040
2736.00,0.5081
2735.00,0.5126
2734.00,0.5170
2733.00,0.5214
2732.00,0.5257
2731.00,0.5295
2730.00,0.5325
2729.00,0.5345
2728.00,0.5353
2727.00,0.5353
2726.00,0.5348
2725.00,0.5339
2724.00,0.5326
2723.00,0.5309
2722.00,0.5288
2721.00,0.5265
2720.00,0.5240
2719.00,0.5213
2718.00,0.5181
2717.00,0.5144
2716.00,0.5104
2715.00,0.5061
2714.00,0.5019
2713.00,0.4979
2712.00,0.4939
2711.00,0.4902
2710.00,0.4867
2709.00,0.4837
2708.00,0.4811
2707.00,0.4790
2706.00,0.4774
2705.00,0.4760
2704.00,0.4750
2703.00,0.4742
2702.00,0.4738
2701.00,0.4736
2700.00,0.4737
2699.00,0.4741
2698.00,0.4748
2697.00,0.4757
2696.00,0.4768
2695.00,0.4781
2694.00,0.4795
2693.00,0.4810
2692.00,0.4826
2691.00,0.4843
2690.00,0.4858
2689.00,0.4871
2688.00,0.4881
2687.00,0.4891
2686.00,0.4899
2685.00,0.4905
2684.00,0.4908
2683.00,0.4910
2682.00,0.4912
2681.00,0.4914
2680.00,0.4914
2679.00,0.4913
2678.00,0.4911
2677.00,0.4910
2676.00,0.4908
2675.00,0.4905
2674.00,0.4902
2673.00,0.4898
2672.00,0.4893
2671.00,0.4886
2670.00,0.4878
2669.00,0.4866
2668.00,0.4850
2667.00,0.4831
2666.00,0.4810
2665.00,0.4788
2664.00,0.4766
2663.00,0.4743
2662.00,0.4721
2661.00,0.4700
2660.00,0.4679
2659.00,0.4657
2658.00,0.4636
2657.00,0.4616
2656.00,0.4597
2655.00,0.4578
2654.00,0.4559
2653.00,0.4543
2652.00,0.4529
2651.00,0.4515
2650.00,0.4501
2649.00,0.4486
2648.00,0.4471
2647.00,0.4458
2646.00,0.4445
2645.00,0.4433
2644.00,0.4422
2643.00,0.4412
2642.00,0.4401
2641.00,0.4391
2640.00,0.4381
2639.00,0.4371
2638.00,0.4361
2637.00,0.4352
2636.00,0.4344
2635.00,0.4336
2634.00,0.4328
2633.00,0.4319
2632.00,0.4310
2631.00,0.4302
2630.00,0.4296
2629.00,0.4290
2628.00,0.4284
2627.00,0.4278
2626.00,0.4271
2625.00,0.4266
2624.00,0.4261
2623.00,0.4255
2622.00,0.4248
2621.00,0.4239
2620.00,0.4230
2619.00,0.4220
2618.00,0.4212
2617.00,0.4204
2616.00,0.4197
2615.00,0.4189
2614.00,0.4181
2613.00,0.4172
2612.00,0.4163
2611.00,0.4152
2610.00,0.4141
2609.00,0.4130
2608.00,0.4119
2607.00,0.4107
2606.00,0.4096
2605.00,0.4083
2604.00,0.4071
2603.00,0.4059
2602.00,0.4046
2601.00,0.4031
2600.00,0.4015
2599.00,0.3999
2598.00,0.3985
2597.00,0.3972
2596.00,0.3958
2595.00,0.3943
2594.00,0.3926
2593.00,0.3910
2592.00,0.3895
2591.00,0.3880
2590.00,0.3864
2589.00,0.3846
2588.00,0.3826
2587.00,0.3806
2586.00,0.3787
2585.00,0.3768
2584.00,0.3750
2583.00,0.3730
2582.00,0.3711
2581.00,0.3691
2580.00,0.3672
2579.00,0.3653
2578.00,0.3635
2577.00,0.3617
2576.00,0.3599
2575.00,0.3580
2574.00,0.3560
2573.00,0.3540
2572.00,0.3522
2571.00,0.3504
2570.00,0.3488
2569.00,0.3472
2568.00,0.3456
2567.00,0.3441
2566.00,0.3425
2565.00,0.3410
2564.00,0.3396
2563.00,0.3382
2562.00,0.3368
2561.00,0.3355
2560.00,0.3341
2559.00,0.3328
2558.00,0.3315
2557.00,0.3303
2556.00,0.3293
2555.00,0.3285
2554.00,0.3276
2553.00,0.3266
2552.00,0.3255
2551.00,0.3245
2550.00,0.3236
2549.00,0.3229
2548.00,0.3221
2547.00,0.3213
2546.00,0.3205
2545.00,0.3198
2544.00,0.3192
2543.00,0.3186
2542.00,0.3180
2541.00,0.3174
2540.00,0.3169
2539.00,0.3164
2538.00,0.3159
2537.00,0.3152
2536.00,0.3145
2535.00,0.3138
2534.00,0.3133
2533.00,0.3128
2532.00,0.3123
2531.00,0.3117
2530.00,0.3109
2529.00,0.3100
2528.00,0.3090
2527.00,0.3081
2526.00,0.3072
2525.00,0.3063
2524.00,0.3054
2523.00,0.3046
2522.00,0.3036
2521.00,0.3027
2520.00,0.3017
2519.00,0.3008
2518.00,0.2998
2517.00,0.2989
2516.00,0.2980
2515.00,0.2972
2514.00,0.2964
2513.00,0.2957
2512.00,0.2949
2511.00,0.2941
2510.00,0.2934
2509.00,0.2927
2508.00,0.2921
2507.00,0.2915
2506.00,0.2908
2505.00,0.2902
2504.00,0.2895
2503.00,0.2889
2502.00,0.2884
2501.00,0.2879
2500.00,0.2873
2499.00,0.2868
2498.00,0.2862
2497.00,0.2855
2496.00,0.2850
2495.00,0.2845
2494.00,0.2841
2493.00,0.2838
2492.00,0.2834
2491.00,0.2831
2490.00,0.2827
2489.00,0.2824
2488.00,0.2821
2487.00,0.2817
2486.00,0.2813
2485.00,0.2810
2484.00,0.2807
2483.00,0.2805
2482.00,0.2803
2481.00,0.2801
2480.00,0.2800
2479.00,0.2798
2478.00,0.2795
2477.00,0.2792
2476.00,0.2789
2475.00,0.2786
2474.00,0.2784
2473.00,0.2783
2472.00,0.2785
2471.00,0.2786
2470.00,0.2786
2469.00,0.2784
2468.00,0.2780
2467.00,0.2777
2466.00,0.2774
2465.00,0.2773
2464.00,0.2773
2463.00,0.2772
2462.00,0.2771
2461.00,0.2769
2460.00,0.2769
2459.00,0.2769
2458.00,0.2769
2457.00,0.2768
2456.00,0.2768
2455.00,0.2767
2454.00,0.2767
2453.00,0.2767
2452.00,0.2768
2451.00,0.2768
2450.00,0.2769
2449.00,0.2771
2448.00,0.2773
2447.00,0.2775
2446.00,0.2777
2445.00,0.2778
2444.00,0.2779
2443.00,0.2780
2442.00,0.2782
2441.00,0.2783
2440.00,0.2785
2439.00,0.2786
2438.00,0.2786
2437.00,0.2788
2436.00,0.2791
2435.00,0.2794
2434.00,0.2796
2433.00,0.2798
2432.00,0.2800
2431.00,0.2801
2430.00,0.2803
2429.00,0.2804
2428.00,0.2806
2427.00,0.2808
2426.00,0.2809
2425.00,0.2809
2424.00,0.2810
2423.00,0.2812
2422.00,0.2814
2421.00,0.2817
2420.00,0.2820
2419.00,0.2822
2418.00,0.2824
2417.00,0.2825
2416.00,0.2826
2415.00,0.2826
2414.00,0.2826
2413.00,0.2828
2412.00,0.2830
2411.00,0.2832
2410.00,0.2833
2409.00,0.2833
2408.00,0.2835
2407.00,0.2837
2406.00,0.2837
2405.00,0.2837
2404.00,0.2837
2403.00,0.2837
2402.00,0.2838
2401.00,0.2839
2400.00,0.2839
2399.00,0.2838
2398.00,0.2836
2397.00,0.2835
2396.00,0.2835
2395.00,0.2834
2394.00,0.2834
2393.00,0.2832
2392.00,0.2831
2391.00,0.2830
2390.00,0.2830
2389.00,0.2831
2388.00,0.2831
2387.00,0.2831
2386.00,0.2831
2385.00,0.2830
2384.00,0.2831
2383.00,0.2832
2382.00,0.2833
2381.00,0.2833
2380.00,0.2833
2379.00,0.2834
2378.00,0.2835
2377.00,0.2836
2376.00,0.2836
2375.00,0.2837
2374.00,0.2836
2373.00,0.2836
2372.00,0.2836
2371.00,0.2836
2370.00,0.2835
2369.00,0.2834
2368.00,0.2834
2367.00,0.2835
2366.00,0.2836
2365.00,0.2838
2364.00,0.2840
2363.00,0.2841
2362.00,0.2840
2361.00,0.2838
2360.00,0.2836
2359.00,0.2836
2358.00,0.2837
2357.00,0.2838
2356.00,0.2840
2355.00,0.2839
2354.00,0.2837
2353.00,0.2834
2352.00,0.2833
2351.00,0.2833
2350.00,0.2836
2349.00,0.2838
2348.00,0.2838
2347.00,0.2837
2346.00,0.2835
2345.00,0.2835
2344.00,0.2837
2343.00,0.2839
2342.00,0.2838
2341.00,0.2835
2340.00,0.2833
2339.00,0.2832
2338.00,0.2834
2337.00,0.2836
2336.00,0.2837
2335.00,0.2836
2334.00,0.2834
2333.00,0.2832
2332.00,0.2832
2331.00,0.2831
2330.00,0.2830
2329.00,0.2827
2328.00,0.2825
2327.00,0.2823
2326.00,0.2821
2325.00,0.2819
2324.00,0.2818
2323.00,0.2817
2322.00,0.2815
2321.00,0.2813
2320.00,0.2810
2319.00,0.2808
2318.00,0.2806
2317.00,0.2806
2316.00,0.2803
2315.00,0.2800
2314.00,0.2795
2313.00,0.2792
2312.00,0.2790
2311.00,0.2787
2310.00,0.2784
2309.00,0.2781
2308.00,0.2779
2307.00,0.2777
2306.00,0.2775
2305.00,0.2772
2304.00,0.2769
2303.00,0.2766
2302.00,0.2763
2301.00,0.2759
2300.00,0.2754
2299.00,0.2750
2298.00,0.2747
2297.00,0.2745
2296.00,0.2744
2295.00,0.2743
2294.00,0.2742
2293.00,0.2740
2292.00,0.2738
2291.00,0.2735
2290.00,0.2731
2289.00,0.2728
2288.00,0.2725
2287.00,0.2724
2286.00,0.2723
2285.00,0.2721
2284.00,0.2718
2283.00,0.2714
2282.00,0.2712
2281.00,0.2709
2280.00,0.2706
2279.00,0.2702
2278.00,0.2697
2277.00,0.2693
2276.00,0.2691
2275.00,0.2689
2274.00,0.2687
2273.00,0.2686
2272.00,0.2684
2271.00,0.2681
2270.00,0.2677
2269.00,0.2673
2268.00,0.2670
2267.00,0.2667
2266.00,0.2663
2265.00,0.2659
2264.00,0.2657
2263.00,0.2655
2262.00,0.2652
2261.00,0.2649
2260.00,0.2646
2259.00,0.2644
2258.00,0.2643
2257.00,0.2640
2256.00,0.2638
2255.00,0.2635
2254.00,0.2633
2253.00,0.2631
2252.00,0.2629
2251.00,0.2627
2250.00,0.2625
2249.00,0.2623
2248.00,0.2620
2247.00,0.2618
2246.00,0.2615
2245.00,0.2614
2244.00,0.2613
2243.00,0.2612
2242.00,0.2611
2241.00,0.2610
2240.00,0.2609
2239.00,0.2608
2238.00,0.2607
2237.00,0.2607
2236.00,0.2607
2235.00,0.2606
2234.00,0.2605
2233.00,0.2604
2232.00,0.2604
2231.00,0.2604
2230.00,0.2603
2229.00,0.2603
2228.00,0.2602
2227.00,0.2601
2226.00,0.2600
2225.00,0.2600
2224.00,0.2599
2223.00,0.2598
2222.00,0.2596
2221.00,0.2594
2220.00,0.2591
2219.00,0.2589
2218.00,0.2588
2217.00,0.2589
2216.00,0.2591
2215.00,0.2593
2214.00,0.2593
2213.00,0.2592
2212.00,0.2592
2211.00,0.2591
2210.00,0.2591
2209.00,0.2591
2208.00,0.2591
2207.00,0.2592
2206.00,0.2594
2205.00,0.2594
2204.00,0.2595
2203.00,0.2595
2202.00,0.2595
2201.00,0.2596
2200.00,0.2596
2199.00,0.2596
2198.00,0.2596
2197.00,0.2596
2196.00,0.2597
2195.00,0.2597
2194.00,0.2598
2193.00,0.2599
2192.00,0.2599
2191.00,0.2600
2190.00,0.2601
2189.00,0.2601
2188.00,0.2601
2187.00,0.2600
2186.00,0.2599
2185.00,0.2599
2184.00,0.2599
2183.00,0.2599
2182.00,0.2598
2181.00,0.2597
2180.00,0.2596
2179.00,0.2596
2178.00,0.2595
2177.00,0.2596
2176.00,0.2596
2175.00,0.2595
2174.00,0.2594
2173.00,0.2592
2172.00,0.2591
2171.00,0.2590
2170.00,0.2589
2169.00,0.2587
2168.00,0.2586
2167.00,0.2585
2166.00,0.2585
2165.00,0.2584
2164.00,0.2584
2163.00,0.2582
2162.00,0.2581
2161.00,0.2579
2160.00,0.2578
2159.00,0.2578
2158.00,0.2578
2157.00,0.2578
2156.00,0.2577
2155.00,0.2575
2154.00,0.2573
2153.00,0.2571
2152.00,0.2569
2151.00,0.2566
2150.00,0.2563
2149.00,0.2559
2148.00,0.2555
2147.00,0.2550
2146.00,0.2545
2145.00,0.2540
2144.00,0.2535
2143.00,0.2531
2142.00,0.2527
2141.00,0.2523
2140.00,0.2520
2139.00,0.2516
2138.00,0.2512
2137.00,0.2510
2136.00,0.2508
2135.00,0.2506
2134.00,0.2504
2133.00,0.2501
2132.00,0.2500
2131.00,0.2498
2130.00,0.2497
2129.00,0.2496
2128.00,0.2495
2127.00,0.2494
2126.00,0.2493
2125.00,0.2491
2124.00,0.2490
2123.00,0.2488
2122.00,0.2487
2121.00,0.2486
2120.00,0.2485
2119.00,0.2484
2118.00,0.2483
2117.00,0.2482
2116.00,0.2481
2115.00,0.2479
2114.00,0.2476
2113.00,0.2473
2112.00,0.2471
2111.00,0.2471
2110.00,0.2470
2109.00,0.2468
2108.00,0.2467
2107.00,0.2466
2106.00,0.2466
2105.00,0.2465
2104.00,0.2465
2103.00,0.2466
2102.00,0.2467
2101.00,0.2467
2100.00,0.2466
2099.00,0.2465
2098.00,0.2464
2097.00,0.2464
2096.00,0.2465
2095.00,0.2466
2094.00,0.2468
2093.00,0.2468
2092.00,0.2469
2091.00,0.2470
2090.00,0.2470
2089.00,0.2470
2088.00,0.2469
2087.00,0.2469
2086.00,0.2470
2085.00,0.2471
2084.00,0.2471
2083.00,0.2472
2082.00,0.2472
2081.00,0.2473
2080.00,0.2473
2079.00,0.2473
2078.00,0.2474
2077.00,0.2474
2076.00,0.2475
2075.00,0.2474
2074.00,0.2475
2073.00,0.2476
2072.00,0.2478
2071.00,0.2479
2070.00,0.2479
2069.00,0.2479
2068.00,0.2480
2067.00,0.2482
2066.00,0.2483
2065.00,0.2485
2064.00,0.2487
2063.00,0.2489
2062.00,0.2491
2061.00,0.2493
2060.00,0.2495
2059.00,0.2496
2058.00,0.2498
2057.00,0.2500
2056.00,0.2502
2055.00,0.2504
2054.00,0.2505
2053.00,0.2508
2052.00,0.2511
2051.00,0.2515
2050.00,0.2517
2049.00,0.2520
2048.00,0.2523
2047.00,0.2526
2046.00,0.2529
2045.00,0.2532
2044.00,0.2534
2043.00,0.2536
2042.00,0.2538
2041.00,0.2540
2040.00,0.2542
2039.00,0.2542
2038.00,0.2543
2037.00,0.2544
2036.00,0.2545
2035.00,0.2547
2034.00,0.2548
2033.00,0.2549
2032.00,0.2550
2031.00,0.2551
2030.00,0.2551
2029.00,0.2551
2028.00,0.2551
2027.00,0.2551
2026.00,0.2552
2025.00,0.2552
2024.00,0.2550
2023.00,0.2548
2022.00,0.2544
2021.00,0.2540
2020.00,0.2535
2019.00,0.2529
2018.00,0.2522
2017.00,0.2515
2016.00,0.2506
2015.00,0.2498
2014.00,0.2490
2013.00,0.2482
2012.00,0.2474
2011.00,0.2467
2010.00,0.2461
2009.00,0.2457
2008.00,0.2453
2007.00,0.2449
2006.00,0.2444
2005.00,0.2439
2004.00,0.2433
2003.00,0.2429
2002.00,0.2424
2001.00,0.2420
2000.00,0.2417
1999.00,0.2413
1998.00,0.2410
1997.00,0.2408
1996.00,0.2405
1995.00,0.2403
1994.00,0.2402
1993.00,0.2402
1992.00,0.2402
1991.00,0.2401
1990.00,0.2400
1989.00,0.2399
1988.00,0.2398
1987.00,0.2397
1986.00,0.2397
1985.00,0.2397
1984.00,0.2398
1983.00,0.2399
1982.00,0.2399
1981.00,0.2401
1980.00,0.2403
1979.00,0.2405
1978.00,0.2406
1977.00,0.2405
1976.00,0.2404
1975.00,0.2404
1974.00,0.2403
1973.00,0.2404
1972.00,0.2404
1971.00,0.2404
1970.00,0.2403
1969.00,0.2402
1968.00,0.2401
1967.00,0.2400
1966.00,0.2400
1965.00,0.2400
1964.00,0.2401
1963.00,0.2401
1962.00,0.2402
1961.00,0.2402
1960.00,0.2404
1959.00,0.2405
1958.00,0.2407
1957.00,0.2409
1956.00,0.2411
1955.00,0.2412
1954.00,0.2412
1953.00,0.2412
1952.00,0.2413
1951.00,0.2414
1950.00,0.2414
1949.00,0.2414
1948.00,0.2416
1947.00,0.2418
1946.00,0.2422
1945.00,0.2427
1944.00,0.2433
1943.00,0.2440
1942.00,0.2446
1941.00,0.2453
1940.00,0.2458
1939.00,0.2463
1938.00,0.2467
1937.00,0.2469
1936.00,0.2470
1935.00,0.2470
1934.00,0.2469
1933.00,0.2467
1932.00,0.2464
1931.00,0.2462
1930.00,0.2460
1929.00,0.2458
1928.00,0.2455
1927.00,0.2452
1926.00,0.2449
1925.00,0.2448
1924.00,0.2446
1923.00,0.2444
1922.00,0.2441
1921.00,0.2439
1920.00,0.2440
1919.00,0.2442
1918.00,0.2446
1917.00,0.2451
1916.00,0.2456
1915.00,0.2462
1914.00,0.2467
1913.00,0.2469
1912.00,0.2469
1911.00,0.2467
1910.00,0.2464
1909.00,0.2462
1908.00,0.2459
1907.00,0.2457
1906.00,0.2456
1905.00,0.2458
1904.00,0.2460
1903.00,0.2463
1902.00,0.2465
1901.00,0.2466
1900.00,0.2468
1899.00,0.2468
1898.00,0.2467
1897.00,0.2465
1896.00,0.2463
1895.00,0.2461
1894.00,0.2460
1893.00,0.2460
1892.00,0.2461
1891.00,0.2464
1890.00,0.2466
1889.00,0.2466
1888.00,0.2465
1887.00,0.2463
1886.00,0.2459
1885.00,0.2456
1884.00,0.2453
1883.00,0.2452
1882.00,0.2450
1881.00,0.2449
1880.00,0.2448
1879.00,0.2447
1878.00,0.2446
1877.00,0.2444
1876.00,0.2442
1875.00,0.2440
1874.00,0.2438
1873.00,0.2437
1872.00,0.2436
1871.00,0.2435
1870.00,0.2434
1869.00,0.2433
1868.00,0.2433
1867.00,0.2434
1866.00,0.2435
1865.00,0.2436
1864.00,0.2438
1863.00,0.2439
1862.00,0.2440
1861.00,0.2441
1860.00,0.2442
1859.00,0.2441
1858.00,0.2438
1857.00,0.2434
1856.00,0.2430
1855.00,0.2426
1854.00,0.2422
1853.00,0.2420
1852.00,0.2417
1851.00,0.2415
1850.00,0.2413
1849.00,0.2411
1848.00,0.2409
1847.00,0.2407
1846.00,0.2404
1845.00,0.2401
1844.00,0.2398
1843.00,0.2396
1842.00,0.2394
1841.00,0.2394
1840.00,0.2394
1839.00,0.2395
1838.00,0.2395
1837.00,0.2396
1836.00,0.2398
1835.00,0.2399
1834.00,0.2399
1833.00,0.2399
1832.00,0.2400
1831.00,0.2402
1830.00,0.2404
1829.00,0.2406
1828.00,0.2408
1827.00,0.2411
1826.00,0.2414
1825.00,0.2417
1824.00,0.2419
1823.00,0.2420
1822.00,0.2420
1821.00,0.2420
1820.00,0.2419
1819.00,0.2417
1818.00,0.2416
1817.00,0.2415
1816.00,0.2414
1815.00,0.2413
1814.00,0.2412
1813.00,0.2412
1812.00,0.2414
1811.00,0.2417
1810.00,0.2419
1809.00,0.2421
1808.00,0.2424
1807.00,0.2428
1806.00,0.2432
1805.00,0.2438
1804.00,0.2444
1803.00,0.2451
1802.00,0.2457
1801.00,0.2462
1800.00,0.2467
1799.00,0.2470
1798.00,0.2472
1797.00,0.2474
1796.00,0.2475
1795.00,0.2474
1794.00,0.2472
1793.00,0.2470
1792.00,0.2466
1791.00,0.2463
1790.00,0.2461
1789.00,0.2460
1788.00,0.2461
1787.00,0.2462
1786.00,0.2464
1785.00,0.2465
1784.00,0.2466
1783.00,0.2467
1782.00,0.2469
1781.00,0.2472
1780.00,0.2475
1779.00,0.2480
1778.00,0.2484
1777.00,0.2489
1776.00,0.2493
1775.00,0.2494
1774.00,0.2494
1773.00,0.2496
1772.00,0.2499
1771.00,0.2502
1770.00,0.2506
1769.00,0.2510
1768.00,0.2513
1767.00,0.2513
1766.00,0.2512
1765.00,0.2513
1764.00,0.2515
1763.00,0.2519
1762.00,0.2523
1761.00,0.2529
1760.00,0.2537
1759.00,0.2545
1758.00,0.2553
1757.00,0.2561
1756.00,0.2570
1755.00,0.2581
1754.00,0.2595
1753.00,0.2614
1752.00,0.2639
1751.00,0.2670
1750.00,0.2705
1749.00,0.2747
1748.00,0.2797
1747.00,0.2853
1746.00,0.2912
1745.00,0.2970
1744.00,0.3024
1743.00,0.3069
1742.00,0.3099
1741.00,0.3114
1740.00,0.3111
1739.00,0.3090
1738.00,0.3055
1737.00,0.3016
1736.00,0.2973
1735.00,0.2925
1734.00,0.2872
1733.00,0.2826
1732.00,0.2790
1731.00,0.2764
1730.00,0.2741
1729.00,0.2722
1728.00,0.2708
1727.00,0.2697
1726.00,0.2690
1725.00,0.2686
1724.00,0.2682
1723.00,0.2677
1722.00,0.2671
1721.00,0.2664
1720.00,0.2659
1719.00,0.2657
1718.00,0.2656
1717.00,0.2657
1716.00,0.2658
1715.00,0.2660
1714.00,0.2664
1713.00,0.2669
1712.00,0.2674
1711.00,0.2679
1710.00,0.2681
1709.00,0.2683
1708.00,0.2683
1707.00,0.2684
1706.00,0.2685
1705.00,0.2686
1704.00,0.2687
1703.00,0.2686
1702.00,0.2686
1701.00,0.2689
1700.00,0.2693
1699.00,0.2695
1698.00,0.2696
1697.00,0.2695
1696.00,0.2691
1695.00,0.2681
1694.00,0.2671
1693.00,0.2665
1692.00,0.2662
1691.00,0.2662
1690.00,0.2663
1689.00,0.2661
1688.00,0.2658
1687.00,0.2652
1686.00,0.2646
1685.00,0.2641
1684.00,0.2636
1683.00,0.2631
1682.00,0.2629
1681.00,0.2629
1680.00,0.2628
1679.00,0.2626
1678.00,0.2624
1677.00,0.2624
1676.00,0.2628
1675.00,0.2632
1674.00,0.2636
1673.00,0.2641
1672.00,0.2647
1671.00,0.2656
1670.00,0.2667
1669.00,0.2682
1668.00,0.2695
1667.00,0.2702
1666.00,0.2703
1665.00,0.2704
1664.00,0.2707
1663.00,0.2715
1662.00,0.2727
1661.00,0.2739
1660.00,0.2748
1659.00,0.2752
1658.00,0.2749
1657.00,0.2741
1656.00,0.2731
1655.00,0.2720
1654.00,0.2711
1653.00,0.2706
1652.00,0.2705
1651.00,0.2706
1650.00,0.2706
1649.00,0.2706
1648.00,0.2708
1647.00,0.2708
1646.00,0.2708
1645.00,0.2708
1644.00,0.2709
1643.00,0.2709
1642.00,0.2710
1641.00,0.2713
1640.00,0.2718
1639.00,0.2724
1638.00,0.2733
1637.00,0.2746
1636.00,0.2763
1635.00,0.2776
1634.00,0.2783
1633.00,0.2786
1632.00,0.2785
1631.00,0.2780
1630.00,0.2773
1629.00,0.2768
1628.00,0.2766
1627.00,0.2767
1626.00,0.2770
1625.00,0.2775
1624.00,0.2783
1623.00,0.2794
1622.00,0.2807
1621.00,0.2823
1620.00,0.2842
1619.00,0.2863
1618.00,0.2889
1617.00,0.2922
1616.00,0.2958
1615.00,0.2991
1614.00,0.3020
1613.00,0.3050
1612.00,0.3083
1611.00,0.3116
1610.00,0.3150
1609.00,0.3185
1608.00,0.3222
1607.00,0.3258
1606.00,0.3300
1605.00,0.3356
1604.00,0.3431
1603.00,0.3522
1602.00,0.3615
1601.00,0.3694
1600.00,0.3745
1599.00,0.3762
1598.00,0.3753
1597.00,0.3737
1596.00,0.3722
1595.00,0.3704
1594.00,0.3675
1593.00,0.3630
1592.00,0.3570
1591.00,0.3498
1590.00,0.3423
1589.00,0.3352
1588.00,0.3290
1587.00,0.3236
1586.00,0.3189
1585.00,0.3150
1584.00,0.3117
1583.00,0.3087
1582.00,0.3059
1581.00,0.3034
1580.00,0.3012
1579.00,0.2990
1578.00,0.2966
1577.00,0.2941
1576.00,0.2917
1575.00,0.2894
1574.00,0.2876
1573.00,0.2863
1572.00,0.2852
1571.00,0.2842
1570.00,0.2835
1569.00,0.2831
1568.00,0.2830
1567.00,0.2830
1566.00,0.2831
1565.00,0.2834
1564.00,0.2839
1563.00,0.2842
1562.00,0.2844
1561.00,0.2849
1560.00,0.2859
1559.00,0.2871
1558.00,0.2883
1557.00,0.2896
1556.00,0.2910
1555.00,0.2920
1554.00,0.2928
1553.00,0.2936
1552.00,0.2946
1551.00,0.2954
1550.00,0.2960
1549.00,0.2965
1548.00,0.2971
1547.00,0.2978
1546.00,0.2989
1545.00,0.3001
1544.00,0.3014
1543.00,0.3024
1542.00,0.3034
1541.00,0.3053
1540.00,0.3078
1539.00,0.3100
1538.00,0.3118
1537.00,0.3132
1536.00,0.3145
1535.00,0.3158
1534.00,0.3175
1533.00,0.3200
1532.00,0.3229
1531.00,0.3261
1530.00,0.3296
1529.00,0.3339
1528.00,0.3392
1527.00,0.3452
1526.00,0.3520
1525.00,0.3595
1524.00,0.3676
1523.00,0.3770
1522.00,0.3891
1521.00,0.4037
1520.00,0.4186
1519.00,0.4318
1518.00,0.4445
1517.00,0.4578
1516.00,0.4716
1515.00,0.4848
1514.00,0.4981
1513.00,0.5123
1512.00,0.5259
1511.00,0.5355
1510.00,0.5390
1509.00,0.5359
1508.00,0.5256
1507.00,0.5088
1506.00,0.4904
1505.00,0.4767
1504.00,0.4690
1503.00,0.4649
1502.00,0.4636
1501.00,0.4649
1500.00,0.4688
1499.00,0.4753
1498.00,0.4857
1497.00,0.5024
1496.00,0.5261
1495.00,0.5545
1494.00,0.5847
1493.00,0.6138
1492.00,0.6374
1491.00,0.6493
1490.00,0.6470
1489.00,0.6349
1488.00,0.6206
1487.00,0.6098
1486.00,0.6053
1485.00,0.6083
1484.00,0.6175
1483.00,0.6320
1482.00,0.6524
1481.00,0.6798
1480.00,0.7133
1479.00,0.7524
1478.00,0.7994
1477.00,0.8581
1476.00,0.9287
1475.00,1.0096
1474.00,1.1036
1473.00,1.2165
1472.00,1.3405
1471.00,1.4486
1470.00,1.5195
1469.00,1.5559
1468.00,1.5691
1467.00,1.5708
1466.00,1.5733
1465.00,1.5820
1464.00,1.5904
1463.00,1.5912
1462.00,1.5881
1461.00,1.5861
1460.00,1.5839
1459.00,1.5807
1458.00,1.5825
1457.00,1.5941
1456.00,1.6063
1455.00,1.6077
1454.00,1.6008
1453.00,1.5912
1452.00,1.5782
1451.00,1.5611
1450.00,1.5431
1449.00,1.5260
1448.00,1.5066
1447.00,1.4828
1446.00,1.4562
1445.00,1.4270
1444.00,1.3932
1443.00,1.3554
1442.00,1.3168
1441.00,1.2785
1440.00,1.2388
1439.00,1.1965
1438.00,1.1505
1437.00,1.0992
1436.00,1.0429
1435.00,0.9853
1434.00,0.9284
1433.00,0.8709
1432.00,0.8124
1431.00,0.7554
1430.00,0.7028
1429.00,0.6566
1428.00,0.6176
1427.00,0.5862
1426.00,0.5608
1425.00,0.5393
1424.00,0.5208
1423.00,0.5058
1422.00,0.4938
1421.00,0.4832
1420.00,0.4735
1419.00,0.4653
1418.00,0.4585
1417.00,0.4527
1416.00,0.4477
1415.00,0.4436
1414.00,0.4402
1413.00,0.4370
1412.00,0.4340
1411.00,0.4316
1410.00,0.4295
1409.00,0.4275
1408.00,0.4258
1407.00,0.4250
1406.00,0.4249
1405.00,0.4253
1404.00,0.4263
1403.00,0.4285
1402.00,0.4318
1401.00,0.4360
1400.00,0.4414
1399.00,0.4483
1398.00,0.4561
1397.00,0.4641
1396.00,0.4728
1395.00,0.4826
1394.00,0.4932
1393.00,0.5042
1392.00,0.5164
1391.00,0.5320
1390.00,0.5536
1389.00,0.5849
1388.00,0.6307
1387.00,0.6938
1386.00,0.7721
1385.00,0.8600
1384.00,0.9539
1383.00,1.0529
1382.00,1.1552
1381.00,1.2565
1380.00,1.3500
1379.00,1.4241
1378.00,1.4654
1377.00,1.4697
1376.00,1.4416
1375.00,1.3857
1374.00,1.3111
1373.00,1.2337
1372.00,1.1675
1371.00,1.1179
1370.00,1.0853
1369.00,1.0687
1368.00,1.0642
1367.00,1.0628
1366.00,1.0526
1365.00,1.0252
1364.00,0.9813
1363.00,0.9286
1362.00,0.8762
1361.00,0.8305
1360.00,0.7936
1359.00,0.7649
1358.00,0.7431
1357.00,0.7272
1356.00,0.7159
1355.00,0.7082
1354.00,0.7025
1353.00,0.6973
1352.00,0.6915
1351.00,0.6842
1350.00,0.6755
1349.00,0.6661
1348.00,0.6571
1347.00,0.6493
1346.00,0.6430
1345.00,0.6384
1344.00,0.6353
1343.00,0.6330
1342.00,0.6307
1341.00,0.6270
1340.00,0.6211
1339.00,0.6130
1338.00,0.6034
1337.00,0.5930
1336.00,0.5825
1335.00,0.5724
1334.00,0.5630
1333.00,0.5544
1332.00,0.5468
1331.00,0.5402
1330.00,0.5350
1329.00,0.5315
1328.00,0.5301
1327.00,0.5312
1326.00,0.5349
1325.00,0.5411
1324.00,0.5495
1323.00,0.5593
1322.00,0.5695
1321.00,0.5792
1320.00,0.5876
1319.00,0.5942
1318.00,0.5992
1317.00,0.6033
1316.00,0.6069
1315.00,0.6101
1314.00,0.6126
1313.00,0.6140
1312.00,0.6144
1311.00,0.6143
1310.00,0.6138
1309.00,0.6136
1308.00,0.6140
1307.00,0.6155
1306.00,0.6178
1305.00,0.6208
1304.00,0.6238
1303.00,0.6260
1302.00,0.6267
1301.00,0.6251
1300.00,0.6212
1299.00,0.6148
1298.00,0.6059
1297.00,0.5952
1296.00,0.5833
1295.00,0.5713
1294.00,0.5600
1293.00,0.5498
1292.00,0.5408
1291.00,0.5329
1290.00,0.5260
1289.00,0.5195
1288.00,0.5135
1287.00,0.5076
1286.00,0.5019
1285.00,0.4963
1284.00,0.4910
1283.00,0.4862
1282.00,0.4821
1281.00,0.4785
1280.00,0.4756
1279.00,0.4735
1278.00,0.4724
1277.00,0.4721
1276.00,0.4724
1275.00,0.4732
1274.00,0.4743
1273.00,0.4758
1272.00,0.4777
1271.00,0.4795
1270.00,0.4805
1269.00,0.4799
1268.00,0.4771
1267.00,0.4723
1266.00,0.4662
1265.00,0.4599
1264.00,0.4542
1263.00,0.4494
1262.00,0.4454
1261.00,0.4420
1260.00,0.4393
1259.00,0.4374
1258.00,0.4363
1257.00,0.4359
1256.00,0.4358
1255.00,0.4359
1254.00,0.4360
1253.00,0.4361
1252.00,0.4363
1251.00,0.4366
1250.00,0.4368
1249.00,0.4369
1248.00,0.4371
1247.00,0.4375
1246.00,0.4382
1245.00,0.4390
1244.00,0.4398
1243.00,0.4402
1242.00,0.4404
1241.00,0.4402
1240.00,0.4397
1239.00,0.4389
1238.00,0.4378
1237.00,0.4365
1236.00,0.4352
1235.00,0.4339
1234.00,0.4322
1233.00,0.4299
1232.00,0.4271
1231.00,0.4241
1230.00,0.4213
1229.00,0.4186
1228.00,0.4160
1227.00,0.4134
1226.00,0.4111
1225.00,0.4091
1224.00,0.4074
1223.00,0.4057
1222.00,0.4040
1221.00,0.4025
1220.00,0.4016
1219.00,0.4014
1218.00,0.4022
1217.00,0.4040
1216.00,0.4068
1215.00,0.4107
1214.00,0.4157
1213.00,0.4217
1212.00,0.4293
1211.00,0.4390
1210.00,0.4512
1209.00,0.4661
1208.00,0.4835
1207.00,0.5033
1206.00,0.5245
1205.00,0.5460
1204.00,0.5667
1203.00,0.5856
1202.00,0.6018
1201.00,0.6150
1200.00,0.6251
1199.00,0.6323
1198.00,0.6371
1197.00,0.6400
1196.00,0.6416
1195.00,0.6420
1194.00,0.6412
1193.00,0.6384
1192.00,0.6326
1191.00,0.6229
1190.00,0.6086
1189.00,0.5900
1188.00,0.5683
1187.00,0.5454
1186.00,0.5234
1185.00,0.5045
1184.00,0.4900
1183.00,0.4805
1182.00,0.4757
1181.00,0.4749
1180.00,0.4772
1179.00,0.4822
1178.00,0.4893
1177.00,0.4982
1176.00,0.5089
1175.00,0.5209
1174.00,0.5335
1173.00,0.5452
1172.00,0.5544
1171.00,0.5596
1170.00,0.5602
1169.00,0.5570
1168.00,0.5514
1167.00,0.5454
1166.00,0.5405
1165.00,0.5368
1164.00,0.5337
1163.00,0.5296
1162.00,0.5232
1161.00,0.5144
1160.00,0.5040
1159.00,0.4935
1158.00,0.4845
1157.00,0.4776
1156.00,0.4723
1155.00,0.4674
1154.00,0.4618
1153.00,0.4552
1152.00,0.4480
1151.00,0.4409
1150.00,0.4342
1149.00,0.4280
1148.00,0.4223
1147.00,0.4174
1146.00,0.4129
1145.00,0.4086
1144.00,0.4041
1143.00,0.3992
1142.00,0.3940
1141.00,0.3887
1140.00,0.3836
1139.00,0.3788
1138.00,0.3743
1137.00,0.3698
1136.00,0.3652
1135.00,0.3609
1134.00,0.3566
1133.00,0.3523
1132.00,0.3483
1131.00,0.3447
1130.00,0.3417
1129.00,0.3395
1128.00,0.3381
1127.00,0.3373
1126.00,0.3368
1125.00,0.3364
1124.00,0.3360
1123.00,0.3357
1122.00,0.3354
1121.00,0.3348
1120.00,0.3337
1119.00,0.3326
1118.00,0.3317
1117.00,0.3311
1116.00,0.3309
1115.00,0.3312
1114.00,0.3318
1113.00,0.3323
1112.00,0.3323
1111.00,0.3317
1110.00,0.3304
1109.00,0.3284
1108.00,0.3261
1107.00,0.3240
1106.00,0.3224
1105.00,0.3213
1104.00,0.3206
1103.00,0.3205
1102.00,0.3207
1101.00,0.3211
1100.00,0.3214
1099.00,0.3217
1098.00,0.3221
1097.00,0.3226
1096.00,0.3232
1095.00,0.3241
1094.00,0.3252
1093.00,0.3261
1092.00,0.3271
1091.00,0.3282
1090.00,0.3298
1089.00,0.3316
1088.00,0.3332
1087.00,0.3347
1086.00,0.3358
1085.00,0.3367
1084.00,0.3375
1083.00,0.3384
1082.00,0.3397
1081.00,0.3413
1080.00,0.3429
1079.00,0.3443
1078.00,0.3453
1077.00,0.3462
1076.00,0.3471
1075.00,0.3480
1074.00,0.3487
1073.00,0.3488
1072.00,0.3483
1071.00,0.3470
1070.00,0.3449
1069.00,0.3421
1068.00,0.3390
1067.00,0.3361
1066.00,0.3337
1065.00,0.3319
1064.00,0.3305
1063.00,0.3295
1062.00,0.3287
1061.00,0.3277
1060.00,0.3268
1059.00,0.3261
1058.00,0.3256
1057.00,0.3251
1056.00,0.3246
1055.00,0.3242
1054.00,0.3240
1053.00,0.3238
1052.00,0.3235
1051.00,0.3233
1050.00,0.3233
1049.00,0.3234
1048.00,0.3234
1047.00,0.3234
1046.00,0.3234
1045.00,0.3234
1044.00,0.3234
1043.00,0.3234
1042.00,0.3237
1041.00,0.3239
1040.00,0.3243
1039.00,0.3249
1038.00,0.3258
1037.00,0.3267
1036.00,0.3279
1035.00,0.3295
1034.00,0.3318
1033.00,0.3348
1032.00,0.3391
1031.00,0.3456
1030.00,0.3542
1029.00,0.3642
1028.00,0.3733
1027.00,0.3788
1026.00,0.3788
1025.00,0.3736
1024.00,0.3655
1023.00,0.3578
1022.00,0.3529
1021.00,0.3515
1020.00,0.3532
1019.00,0.3563
1018.00,0.3589
1017.00,0.3593
1016.00,0.3573
1015.00,0.3548
1014.00,0.3547
1013.00,0.3599
1012.00,0.3713
1011.00,0.3863
1010.00,0.3994
1009.00,0.4042
1008.00,0.3984
1007.00,0.3852
1006.00,0.3701
1005.00,0.3576
1004.00,0.3493
1003.00,0.3450
1002.00,0.3435
1001.00,0.3439
1000.00,0.3450
999.00,0.3464
998.00,0.3479
997.00,0.3496
996.00,0.3515
995.00,0.3537
994.00,0.3562
993.00,0.3588
992.00,0.3619
991.00,0.3658
990.00,0.3711
989.00,0.3775
988.00,0.3851
987.00,0.3937
986.00,0.4033
985.00,0.4142
984.00,0.4262
983.00,0.4395
982.00,0.4547
981.00,0.4718
980.00,0.4904
979.00,0.5097
978.00,0.5291
977.00,0.5486
976.00,0.5689
975.00,0.5907
974.00,0.6138
973.00,0.6376
972.00,0.6606
971.00,0.6819
970.00,0.7009
969.00,0.7173
968.00,0.7306
967.00,0.7405
966.00,0.7470
965.00,0.7505
964.00,0.7513
963.00,0.7493
962.00,0.7444
961.00,0.7364
960.00,0.7250
959.00,0.7105
958.00,0.6934
957.00,0.6745
956.00,0.6541
955.00,0.6318
954.00,0.6075
953.00,0.5815
952.00,0.5546
951.00,0.5281
950.00,0.5033
949.00,0.4813
948.00,0.4628
947.00,0.4477
946.00,0.4357
945.00,0.4259
944.00,0.4176
943.00,0.4109
942.00,0.4064
941.00,0.4042
940.00,0.4040
939.00,0.4048
938.00,0.4054
937.00,0.4051
936.00,0.4038
935.00,0.4018
934.00,0.3995
933.00,0.3970
932.00,0.3937
931.00,0.3891
930.00,0.3831
929.00,0.3763
928.00,0.3692
927.00,0.3625
926.00,0.3564
925.00,0.3514
924.00,0.3477
923.00,0.3455
922.00,0.3447
921.00,0.3445
920.00,0.3443
919.00,0.3433
918.00,0.3413
917.00,0.3384
916.00,0.3348
915.00,0.3309
914.00,0.3273
913.00,0.3242
912.00,0.3218
911.00,0.3202
910.00,0.3193
909.00,0.3189
908.00,0.3189
907.00,0.3196
906.00,0.3210
905.00,0.3231
904.00,0.3258
903.00,0.3289
902.00,0.3317
901.00,0.3338
900.00,0.3351
899.00,0.3358
898.00,0.3365
897.00,0.3374
896.00,0.3384
895.00,0.3394
894.00,0.3409
893.00,0.3429
892.00,0.3455
891.00,0.3481
890.00,0.3500
889.00,0.3502
888.00,0.3477
887.00,0.3425
886.00,0.3356
885.00,0.3282
884.00,0.3216
883.00,0.3161
882.00,0.3118
881.00,0.3084
880.00,0.3059
879.00,0.3042
878.00,0.3028
877.00,0.3013
876.00,0.2997
875.00,0.2981
874.00,0.2966
873.00,0.2954
872.00,0.2943
871.00,0.2932
870.00,0.2918
869.00,0.2903
868.00,0.2890
867.00,0.2882
866.00,0.2877
865.00,0.2873
864.00,0.2868
863.00,0.2865
862.00,0.2866
861.00,0.2871
860.00,0.2882
859.00,0.2901
858.00,0.2933
857.00,0.2977
856.00,0.3034
855.00,0.3108
854.00,0.3191
853.00,0.3266
852.00,0.3309
851.00,0.3310
850.00,0.3282
849.00,0.3250
848.00,0.3229
847.00,0.3224
846.00,0.3225
845.00,0.3225
844.00,0.3221
843.00,0.3221
842.00,0.3238
841.00,0.3287
840.00,0.3375
839.00,0.3492
838.00,0.3613
837.00,0.3702
836.00,0.3731
835.00,0.3692
834.00,0.3607
833.00,0.3502
832.00,0.3398
831.00,0.3307
830.00,0.3229
829.00,0.3165
828.00,0.3116
827.00,0.3087
826.00,0.3078
825.00,0.3087
824.00,0.3108
823.00,0.3135
822.00,0.3167
821.00,0.3208
820.00,0.3264
819.00,0.3341
818.00,0.3436
817.00,0.3527
816.00,0.3579
815.00,0.3559
814.00,0.3465
813.00,0.3328
812.00,0.3186
811.00,0.3068
810.00,0.2985
809.00,0.2930
808.00,0.2895
807.00,0.2873
806.00,0.2860
805.00,0.2855
804.00,0.2856
803.00,0.2864
802.00,0.2877
801.00,0.2897
800.00,0.2926
799.00,0.2969
798.00,0.3028
797.00,0.3104
796.00,0.3186
795.00,0.3254
794.00,0.3295
793.00,0.3303
792.00,0.3293
791.00,0.3280
790.00,0.3279
789.00,0.3298
788.00,0.3340
787.00,0.3402
786.00,0.3478
785.00,0.3564
784.00,0.3656
783.00,0.3757
782.00,0.3871
781.00,0.4008
780.00,0.4180
779.00,0.4388
778.00,0.4599
777.00,0.4750
776.00,0.4780
775.00,0.4683
774.00,0.4514
773.00,0.4343
772.00,0.4215
771.00,0.4135
770.00,0.4090
769.00,0.4057
768.00,0.4025
767.00,0.3993
766.00,0.3964
765.00,0.3940
764.00,0.3923
763.00,0.3912
762.00,0.3906
761.00,0.3908
760.00,0.3920
759.00,0.3942
758.00,0.3976
757.00,0.4026
756.00,0.4097
755.00,0.4191
754.00,0.4297
753.00,0.4393
752.00,0.4456
751.00,0.4481
750.00,0.4488
749.00,0.4508
748.00,0.4571
747.00,0.4687
746.00,0.4846
745.00,0.5013
744.00,0.5140
743.00,0.5191
742.00,0.5166
741.00,0.5096
740.00,0.5025
739.00,0.4985
738.00,0.4984
737.00,0.5017
736.00,0.5075
735.00,0.5152
734.00,0.5254
733.00,0.5384
732.00,0.5547
731.00,0.5740
730.00,0.5959
729.00,0.6203
728.00,0.6471
727.00,0.6764
726.00,0.7078
725.00,0.7396
724.00,0.7687
723.00,0.7900
722.00,0.7971
721.00,0.7844
720.00,0.7514
719.00,0.7040
718.00,0.6510
717.00,0.5994
716.00,0.5529
715.00,0.5126
714.00,0.4780
713.00,0.4473
712.00,0.4196
711.00,0.3949
710.00,0.3731
709.00,0.3540
708.00,0.3372
707.00,0.3226
706.00,0.3101
705.00,0.2993
704.00,0.2900
703.00,0.2820
702.00,0.2754
701.00,0.2700
700.00,0.2656
699.00,0.2619
698.00,0.2588
697.00,0.2563
696.00,0.2548
695.00,0.2546
694.00,0.2560
693.00,0.2595
692.00,0.2660
691.00,0.2763
690.00,0.2902
689.00,0.3047
688.00,0.3143
687.00,0.3143
686.00,0.3039
685.00,0.2870
684.00,0.2691
683.00,0.2540
682.00,0.2430
681.00,0.2358
680.00,0.2315
679.00,0.2290
678.00,0.2273
677.00,0.2257
676.00,0.2242
675.00,0.2231
674.00,0.2226
673.00,0.2223
672.00,0.2224
671.00,0.2229
670.00,0.2241
669.00,0.2259
668.00,0.2276
667.00,0.2281
666.00,0.2283
665.00,0.2293
664.00,0.2310
663.00,0.2332
662.00,0.2354
661.00,0.2374
660.00,0.2388
659.00,0.2395
658.00,0.2394
657.00,0.2389
656.00,0.2386
655.00,0.2389
654.00,0.2393
653.00,0.2395
652.00,0.2394
651.00,0.2395
650.00,0.2397
649.00,0.2401
648.00,0.2408
647.00,0.2421
646.00,0.2440
645.00,0.2461
644.00,0.2483
643.00,0.2506
642.00,0.2531
641.00,0.2559
640.00,0.2588
639.00,0.2617
638.00,0.2643
637.00,0.2664
636.00,0.2680
635.00,0.2692
634.00,0.2699
633.00,0.2699
632.00,0.2692
631.00,0.2683
630.00,0.2679
629.00,0.2685
628.00,0.2699
627.00,0.2721
626.00,0.2746
625.00,0.2775
624.00,0.2807
623.00,0.2836
622.00,0.2858
621.00,0.2874
620.00,0.2890
619.00,0.2911
618.00,0.2934
617.00,0.2943
616.00,0.2932
615.00,0.2904
614.00,0.2869
613.00,0.2836
612.00,0.2807
611.00,0.2782
610.00,0.2759
609.00,0.2740
608.00,0.2723
607.00,0.2711
606.00,0.2706
605.00,0.2707
604.00,0.2709
603.00,0.2712
602.00,0.2718
601.00,0.2732
600.00,0.2755
599.00,0.2782
598.00,0.2805
597.00,0.2824
596.00,0.2842
595.00,0.2867
594.00,0.2899
593.00,0.2936
592.00,0.2975
591.00,0.3014
590.00,0.3046
589.00,0.3073
588.00,0.3103
587.00,0.3140
586.00,0.3179
585.00,0.3213
584.00,0.3239
583.00,0.3259
582.00,0.3277
581.00,0.3299
580.00,0.3326
579.00,0.3356
578.00,0.3376
577.00,0.3382
576.00,0.3379
575.00,0.3375
574.00,0.3375
573.00,0.3374
572.00,0.3372
571.00,0.3372
570.00,0.3372
569.00,0.3369
568.00,0.3361
567.00,0.3350
566.00,0.3340
565.00,0.3332
564.00,0.3327
563.00,0.3327
562.00,0.3331
561.00,0.3333
560.00,0.3327
559.00,0.3316
558.00,0.3304
557.00,0.3295
556.00,0.3285
555.00,0.3274
554.00,0.3264
553.00,0.3260
552.00,0.3266
551.00,0.3283
550.00,0.3305
