Created as New Dataset,
cm-1,A
4000.00,0.3215
3999.00,0.3213
3998.00,0.3211
3997.00,0.3208
3996.00,0.3204
3995.00,0.3201
3994.00,0.3199
3993.00,0.3196
3992.00,0.3194
3991.00,0.3190
3990.00,0.3185
3989.00,0.3179
3988.00,0.3172
3987.00,0.3164
3986.00,0.3157
3985.00,0.3151
3984.00,0.3148
3983.00,0.3146
3982.00,0.3144
3981.00,0.3140
3980.00,0.3135
3979.00,0.3129
3978.00,0.3125
3977.00,0.3122
3976.00,0.3120
3975.00,0.3117
3974.00,0.3114
3973.00,0.3110
3972.00,0.3106
3971.00,0.3103
3970.00,0.3099
3969.00,0.3096
3968.00,0.3092
3967.00,0.3088
3966.00,0.3086
3965.00,0.3087
3964.00,0.3089
3963.00,0.3091
3962.00,0.3089
3961.00,0.3086
3960.00,0.3082
3959.00,0.3078
3958.00,0.3076
3957.00,0.3074
3956.00,0.3073
3955.00,0.3072
3954.00,0.3071
3953.00,0.3069
3952.00,0.3066
3951.00,0.3062
3950.00,0.3059
3949.00,0.3057
3948.00,0.3056
3947.00,0.3055
3946.00,0.3053
3945.00,0.3053
3944.00,0.3054
3943.00,0.3056
3942.00,0.3058
3941.00,0.3057
3940.00,0.3055
3939.00,0.3051
3938.00,0.3049
3937.00,0.3048
3936.00,0.3049
3935.00,0.3049
3934.00,0.3047
3933.00,0.3044
3932.00,0.3041
3931.00,0.3041
3930.00,0.3044
3929.00,0.3046
3928.00,0.3046
3927.00,0.3044
3926.00,0.3040
3925.00,0.3037
3924.00,0.3036
3923.00,0.3037
3922.00,0.3041
3921.00,0.3044
3920.00,0.3044
3919.00,0.3042
3918.00,0.3039
3917.00,0.3038
3916.00,0.3038
3915.00,0.3040
3914.00,0.3041
3913.00,0.3041
3912.00,0.3039
3911.00,0.3036
3910.00,0.3035
3909.00,0.3035
3908.00,0.3038
3907.00,0.3040
3906.00,0.3041
3905.00,0.3039
3904.00,0.3037
3903.00,0.3036
3902.00,0.3037
3901.00,0.3039
3900.00,0.3040
3899.00,0.3037
3898.00,0.3034
3897.00,0.3030
3896.00,0.3028
3895.00,0.3027
3894.00,0.3028
3893.00,0.3029
3892.00,0.3027
3891.00,0.3022
3890.00,0.3017
3889.00,0.3014
3888.00,0.3016
3887.00,0.3018
3886.00,0.3018
3885.00,0.3017
3884.00,0.3017
3883.00,0.3020
3882.00,0.3024
3881.00,0.3024
3880.00,0.3021
3879.00,0.3017
3878.00,0.3016
3877.00,0.3017
3876.00,0.3018
3875.00,0.3016
3874.00,0.3012
3873.00,0.3009
3872.00,0.3009
3871.00,0.3011
3870.00,0.3009
3869.00,0.3005
3868.00,0.3003
3867.00,0.3004
3866.00,0.3005
3865.00,0.3002
3864.00,0.2999
3863.00,0.2997
3862.00,0.2997
3861.00,0.2996
3860.00,0.2994
3859.00,0.2991
3858.00,0.2989
3857.00,0.2989
3856.00,0.2990
3855.00,0.2993
3854.00,0.2994
3853.00,0.2993
3852.00,0.2993
3851.00,0.2995
3850.00,0.2995
3849.00,0.2993
3848.00,0.2989
3847.00,0.2985
3846.00,0.2982
3845.00,0.2980
3844.00,0.2979
3843.00,0.2977
3842.00,0.2977
3841.00,0.2977
3840.00,0.2979
3839.00,0.2979
3838.00,0.2979
3837.00,0.2978
3836.00,0.2978
3835.00,0.2978
3834.00,0.2978
3833.00,0.2977
3832.00,0.2975
3831.00,0.2973
3830.00,0.2972
3829.00,0.2973
3828.00,0.2973
3827.00,0.2971
3826.00,0.2968
3825.00,0.2966
3824.00,0.2967
3823.00,0.2969
3822.00,0.2970
3821.00,0.2966
3820.00,0.2963
3819.00,0.2965
3818.00,0.2969
3817.00,0.2971
3816.00,0.2965
3815.00,0.2955
3814.00,0.2949
3813.00,0.2946
3812.00,0.2943
3811.00,0.2940
3810.00,0.2937
3809.00,0.2936
3808.00,0.2937
3807.00,0.2935
3806.00,0.2932
3805.00,0.2930
3804.00,0.2931
3803.00,0.2933
3802.00,0.2932
3801.00,0.2928
3800.00,0.2927
3799.00,0.2929
3798.00,0.2930
3797.00,0.2927
3796.00,0.2922
3795.00,0.2918
3794.00,0.2918
3793.00,0.2919
3792.00,0.2917
3791.00,0.2912
3790.00,0.2907
3789.00,0.2904
3788.00,0.2903
3787.00,0.2903
3786.00,0.2903
3785.00,0.2901
3784.00,0.2898
3783.00,0.2895
3782.00,0.2894
3781.00,0.2895
3780.00,0.2896
3779.00,0.2893
3778.00,0.2889
3777.00,0.2883
3776.00,0.2879
3775.00,0.2876
3774.00,0.2873
3773.00,0.2873
3772.00,0.2873
3771.00,0.2873
3770.00,0.2870
3769.00,0.2867
3768.00,0.2866
3767.00,0.2868
3766.00,0.2870
3765.00,0.2869
3764.00,0.2867
3763.00,0.2867
3762.00,0.2867
3761.00,0.2866
3760.00,0.2863
3759.00,0.2860
3758.00,0.2859
3757.00,0.2857
3756.00,0.2854
3755.00,0.2852
3754.00,0.2851
3753.00,0.2850
3752.00,0.2850
3751.00,0.2850
3750.00,0.2850
3749.00,0.2850
3748.00,0.2850
3747.00,0.2852
3746.00,0.2855
3745.00,0.2853
3744.00,0.2846
3743.00,0.2840
3742.00,0.2839
3741.00,0.2838
3740.00,0.2836
3739.00,0.2832
3738.00,0.2830
3737.00,0.2830
3736.00,0.2830
3735.00,0.2830
3734.00,0.2829
3733.00,0.2828
3732.00,0.2827
3731.00,0.2824
3730.00,0.2822
3729.00,0.2820
3728.00,0.2819
3727.00,0.2815
3726.00,0.2811
3725.00,0.2809
3724.00,0.2810
3723.00,0.2811
3722.00,0.2811
3721.00,0.2808
3720.00,0.2806
3719.00,0.2805
3718.00,0.2804
3717.00,0.2804
3716.00,0.2802
3715.00,0.2799
3714.00,0.2796
3713.00,0.2795
3712.00,0.2795
3711.00,0.2798
3710.00,0.2802
3709.00,0.2804
3708.00,0.2803
3707.00,0.2800
3706.00,0.2796
3705.00,0.2794
3704.00,0.2793
3703.00,0.2793
3702.00,0.2792
3701.00,0.2790
3700.00,0.2789
3699.00,0.2788
3698.00,0.2788
3697.00,0.2787
3696.00,0.2785
3695.00,0.2783
3694.00,0.2782
3693.00,0.2783
3692.00,0.2785
3691.00,0.2788
3690.00,0.2791
3689.00,0.2793
3688.00,0.2793
3687.00,0.2790
3686.00,0.2788
3685.00,0.2789
3684.00,0.2790
3683.00,0.2791
3682.00,0.2792
3681.00,0.2791
3680.00,0.2788
3679.00,0.2784
3678.00,0.2783
3677.00,0.2786
3676.00,0.2789
3675.00,0.2789
3674.00,0.2789
3673.00,0.2790
3672.00,0.2793
3671.00,0.2794
3670.00,0.2793
3669.00,0.2791
3668.00,0.2792
3667.00,0.2792
3666.00,0.2792
3665.00,0.2790
3664.00,0.2787
3663.00,0.2787
3662.00,0.2787
3661.00,0.2788
3660.00,0.2789
3659.00,0.2791
3658.00,0.2794
3657.00,0.2798
3656.00,0.2800
3655.00,0.2801
3654.00,0.2803
3653.00,0.2807
3652.00,0.2811
3651.00,0.2813
3650.00,0.2812
3649.00,0.2814
3648.00,0.2818
3647.00,0.2822
3646.00,0.2824
3645.00,0.2825
3644.00,0.2825
3643.00,0.2824
3642.00,0.2823
3641.00,0.2823
3640.00,0.2823
3639.00,0.2824
3638.00,0.2825
3637.00,0.2825
3636.00,0.2826
3635.00,0.2827
3634.00,0.2828
3633.00,0.2828
3632.00,0.2830
3631.00,0.2835
3630.00,0.2842
3629.00,0.2846
3628.00,0.2849
3627.00,0.2851
3626.00,0.2853
3625.00,0.2854
3624.00,0.2852
3623.00,0.2849
3622.00,0.2848
3621.00,0.2849
3620.00,0.2851
3619.00,0.2851
3618.00,0.2852
3617.00,0.2852
3616.00,0.2854
3615.00,0.2855
3614.00,0.2855
3613.00,0.2854
3612.00,0.2853
3611.00,0.2853
3610.00,0.2852
3609.00,0.2850
3608.00,0.2847
3607.00,0.2845
3606.00,0.2843
3605.00,0.2840
3604.00,0.2835
3603.00,0.2830
3602.00,0.2825
3601.00,0.2821
3600.00,0.2818
3599.00,0.2815
3598.00,0.2810
3597.00,0.2802
3596.00,0.2793
3595.00,0.2785
3594.00,0.2779
3593.00,0.2775
3592.00,0.2773
3591.00,0.2771
3590.00,0.2769
3589.00,0.2766
3588.00,0.2764
3587.00,0.2762
3586.00,0.2761
3585.00,0.2760
3584.00,0.2758
3583.00,0.2755
3582.00,0.2752
3581.00,0.2750
3580.00,0.2750
3579.00,0.2750
3578.00,0.2749
3577.00,0.2747
3576.00,0.2745
3575.00,0.2743
3574.00,0.2743
3573.00,0.2743
3572.00,0.2743
3571.00,0.2743
3570.00,0.2743
3569.00,0.2743
3568.00,0.2743
3567.00,0.2743
3566.00,0.2742
3565.00,0.2742
3564.00,0.2741
3563.00,0.2741
3562.00,0.2741
3561.00,0.2742
3560.00,0.2743
3559.00,0.2743
3558.00,0.2743
3557.00,0.2742
3556.00,0.2740
3555.00,0.2738
3554.00,0.2738
3553.00,0.2740
3552.00,0.2743
3551.00,0.2745
3550.00,0.2746
3549.00,0.2745
3548.00,0.2745
3547.00,0.2746
3546.00,0.2748
3545.00,0.2751
3544.00,0.2752
3543.00,0.2753
3542.00,0.2754
3541.00,0.2756
3540.00,0.2758
3539.00,0.2759
3538.00,0.2758
3537.00,0.2758
3536.00,0.2758
3535.00,0.2759
3534.00,0.2761
3533.00,0.2763
3532.00,0.2764
3531.00,0.2765
3530.00,0.2765
3529.00,0.2765
3528.00,0.2766
3527.00,0.2768
3526.00,0.2769
3525.00,0.2771
3524.00,0.2772
3523.00,0.2772
3522.00,0.2771
3521.00,0.2771
3520.00,0.2772
3519.00,0.2774
3518.00,0.2777
3517.00,0.2780
3516.00,0.2782
3515.00,0.2784
3514.00,0.2785
3513.00,0.2785
3512.00,0.2785
3511.00,0.2787
3510.00,0.2789
3509.00,0.2791
3508.00,0.2793
3507.00,0.2794
3506.00,0.2796
3505.00,0.2799
3504.00,0.2801
3503.00,0.2802
3502.00,0.2802
3501.00,0.2802
3500.00,0.2804
3499.00,0.2806
3498.00,0.2810
3497.00,0.2812
3496.00,0.2813
3495.00,0.2812
3494.00,0.2811
3493.00,0.2811
3492.00,0.2812
3491.00,0.2815
3490.00,0.2819
3489.00,0.2823
3488.00,0.2826
3487.00,0.2828
3486.00,0.2828
3485.00,0.2830
3484.00,0.2832
3483.00,0.2833
3482.00,0.2835
3481.00,0.2835
3480.00,0.2837
3479.00,0.2839
3478.00,0.2842
3477.00,0.2846
3476.00,0.2847
3475.00,0.2847
3474.00,0.2846
3473.00,0.2845
3472.00,0.2844
3471.00,0.2846
3470.00,0.2848
3469.00,0.2851
3468.00,0.2854
3467.00,0.2856
3466.00,0.2859
3465.00,0.2861
3464.00,0.2863
3463.00,0.2863
3462.00,0.2862
3461.00,0.2861
3460.00,0.2861
3459.00,0.2862
3458.00,0.2865
3457.00,0.2868
3456.00,0.2870
3455.00,0.2872
3454.00,0.2873
3453.00,0.2873
3452.00,0.2874
3451.00,0.2877
3450.00,0.2880
3449.00,0.2882
3448.00,0.2882
3447.00,0.2881
3446.00,0.2880
3445.00,0.2882
3444.00,0.2885
3443.00,0.2886
3442.00,0.2886
3441.00,0.2885
3440.00,0.2884
3439.00,0.2885
3438.00,0.2886
3437.00,0.2887
3436.00,0.2887
3435.00,0.2888
3434.00,0.2889
3433.00,0.2891
3432.00,0.2894
3431.00,0.2896
3430.00,0.2897
3429.00,0.2897
3428.00,0.2896
3427.00,0.2895
3426.00,0.2895
3425.00,0.2895
3424.00,0.2896
3423.00,0.2897
3422.00,0.2898
3421.00,0.2899
3420.00,0.2900
3419.00,0.2901
3418.00,0.2902
3417.00,0.2903
3416.00,0.2903
3415.00,0.2903
3414.00,0.2904
3413.00,0.2905
3412.00,0.2908
3411.00,0.2910
3410.00,0.2912
3409.00,0.2911
3408.00,0.2910
3407.00,0.2910
3406.00,0.2911
3405.00,0.2914
3404.00,0.2917
3403.00,0.2918
3402.00,0.2919
3401.00,0.2919
3400.00,0.2918
3399.00,0.2917
3398.00,0.2918
3397.00,0.2920
3396.00,0.2921
3395.00,0.2920
3394.00,0.2919
3393.00,0.2919
3392.00,0.2920
3391.00,0.2923
3390.00,0.2925
3389.00,0.2928
3388.00,0.2930
3387.00,0.2932
3386.00,0.2935
3385.00,0.2936
3384.00,0.2938
3383.00,0.2939
3382.00,0.2939
3381.00,0.2939
3380.00,0.2937
3379.00,0.2935
3378.00,0.2936
3377.00,0.2937
3376.00,0.2938
3375.00,0.2939
3374.00,0.2939
3373.00,0.2939
3372.00,0.2940
3371.00,0.2941
3370.00,0.2942
3369.00,0.2942
3368.00,0.2941
3367.00,0.2941
3366.00,0.2942
3365.00,0.2944
3364.00,0.2946
3363.00,0.2948
3362.00,0.2947
3361.00,0.2945
3360.00,0.2942
3359.00,0.2940
3358.00,0.2940
3357.00,0.2941
3356.00,0.2943
3355.00,0.2944
3354.00,0.2944
3353.00,0.2943
3352.00,0.2941
3351.00,0.2940
3350.00,0.2940
3349.00,0.2940
3348.00,0.2942
3347.00,0.2942
3346.00,0.2941
3345.00,0.2940
3344.00,0.2939
3343.00,0.2939
3342.00,0.2941
3341.00,0.2943
3340.00,0.2943
3339.00,0.2942
3338.00,0.2939
3337.00,0.2937
3336.00,0.2936
3335.00,0.2935
3334.00,0.2935
3333.00,0.2935
3332.00,0.2934
3331.00,0.2932
3330.00,0.2930
3329.00,0.2928
3328.00,0.2927
3327.00,0.2927
3326.00,0.2928
3325.00,0.2927
3324.00,0.2926
3323.00,0.2923
3322.00,0.2920
3321.00,0.2918
3320.00,0.2917
3319.00,0.2917
3318.00,0.2916
3317.00,0.2915
3316.00,0.2914
3315.00,0.2916
3314.00,0.2919
3313.00,0.2922
3312.00,0.2924
3311.00,0.2924
3310.00,0.2922
3309.00,0.2920
3308.00,0.2918
3307.00,0.2917
3306.00,0.2917
3305.00,0.2918
3304.00,0.2918
3303.00,0.2917
3302.00,0.2915
3301.00,0.2913
3300.00,0.2912
3299.00,0.2913
3298.00,0.2914
3297.00,0.2915
3296.00,0.2915
3295.00,0.2914
3294.00,0.2913
3293.00,0.2911
3292.00,0.2911
3291.00,0.2912
3290.00,0.2912
3289.00,0.2911
3288.00,0.2910
3287.00,0.2910
3286.00,0.2912
3285.00,0.2914
3284.00,0.2917
3283.00,0.2919
3282.00,0.2920
3281.00,0.2920
3280.00,0.2920
3279.00,0.2920
3278.00,0.2919
3277.00,0.2919
3276.00,0.2918
3275.00,0.2918
3274.00,0.2921
3273.00,0.2924
3272.00,0.2927
3271.00,0.2929
3270.00,0.2929
3269.00,0.2928
3268.00,0.2928
3267.00,0.2930
3266.00,0.2933
3265.00,0.2936
3264.00,0.2937
3263.00,0.2937
3262.00,0.2937
3261.00,0.2937
3260.00,0.2939
3259.00,0.2941
3258.00,0.2942
3257.00,0.2944
3256.00,0.2949
3255.00,0.2954
3254.00,0.2958
3253.00,0.2958
3252.00,0.2956
3251.00,0.2955
3250.00,0.2960
3249.00,0.2966
3248.00,0.2971
3247.00,0.2974
3246.00,0.2976
3245.00,0.2979
3244.00,0.2982
3243.00,0.2984
3242.00,0.2987
3241.00,0.2990
3240.00,0.2995
3239.00,0.3001
3238.00,0.3005
3237.00,0.3008
3236.00,0.3011
3235.00,0.3015
3234.00,0.3021
3233.00,0.3028
3232.00,0.3034
3231.00,0.3039
3230.00,0.3042
3229.00,0.3046
3228.00,0.3050
3227.00,0.3055
3226.00,0.3061
3225.00,0.3068
3224.00,0.3077
3223.00,0.3086
3222.00,0.3094
3221.00,0.3102
3220.00,0.3108
3219.00,0.3116
3218.00,0.3124
3217.00,0.3134
3216.00,0.3144
3215.00,0.3153
3214.00,0.3163
3213.00,0.3174
3212.00,0.3185
3211.00,0.3196
3210.00,0.3207
3209.00,0.3217
3208.00,0.3228
3207.00,0.3238
3206.00,0.3248
3205.00,0.3257
3204.00,0.3266
3203.00,0.3275
3202.00,0.3284
3201.00,0.3293
3200.00,0.3302
3199.00,0.3311
3198.00,0.3321
3197.00,0.3332
3196.00,0.3344
3195.00,0.3354
3194.00,0.3362
3193.00,0.3369
3192.00,0.3375
3191.00,0.3381
3190.00,0.3387
3189.00,0.3394
3188.00,0.3402
3187.00,0.3409
3186.00,0.3416
3185.00,0.3421
3184.00,0.3426
3183.00,0.3432
3182.00,0.3437
3181.00,0.3441
3180.00,0.3444
3179.00,0.3448
3178.00,0.3451
3177.00,0.3456
3176.00,0.3460
3175.00,0.3462
3174.00,0.3464
3173.00,0.3466
3172.00,0.3469
3171.00,0.3472
3170.00,0.3473
3169.00,0.3473
3168.00,0.3470
3167.00,0.3468
3166.00,0.3467
3165.00,0.3468
3164.00,0.3469
3163.00,0.3469
3162.00,0.3469
3161.00,0.3469
3160.00,0.3470
3159.00,0.3471
3158.00,0.3471
3157.00,0.3471
3156.00,0.3472
3155.00,0.3472
3154.00,0.3471
3153.00,0.3470
3152.00,0.3468
3151.00,0.3467
3150.00,0.3466
3149.00,0.3465
3148.00,0.3465
3147.00,0.3466
3146.00,0.3468
3145.00,0.3469
3144.00,0.3467
3143.00,0.3464
3142.00,0.3461
3141.00,0.3461
3140.00,0.3464
3139.00,0.3467
3138.00,0.3470
3137.00,0.3470
3136.00,0.3470
3135.00,0.3470
3134.00,0.3472
3133.00,0.3474
3132.00,0.3476
3131.00,0.3478
3130.00,0.3480
3129.00,0.3482
3128.00,0.3486
3127.00,0.3491
3126.00,0.3497
3125.00,0.3503
3124.00,0.3509
3123.00,0.3513
3122.00,0.3516
3121.00,0.3520
3120.00,0.3525
3119.00,0.3529
3118.00,0.3535
3117.00,0.3541
3116.00,0.3547
3115.00,0.3555
3114.00,0.3562
3113.00,0.3569
3112.00,0.3577
3111.00,0.3586
3110.00,0.3595
3109.00,0.3605
3108.00,0.3614
3107.00,0.3623
3106.00,0.3634
3105.00,0.3645
3104.00,0.3658
3103.00,0.3670
3102.00,0.3681
3101.00,0.3690
3100.00,0.3700
3099.00,0.3710
3098.00,0.3721
3097.00,0.3734
3096.00,0.3747
3095.00,0.3762
3094.00,0.3779
3093.00,0.3796
3092.00,0.3814
3091.00,0.3832
3090.00,0.3852
3089.00,0.3874
3088.00,0.3900
3087.00,0.3926
3086.00,0.3953
3085.00,0.3982
3084.00,0.4012
3083.00,0.4044
3082.00,0.4079
3081.00,0.4115
3080.00,0.4155
3079.00,0.4198
3078.00,0.4242
3077.00,0.4287
3076.00,0.4333
3075.00,0.4379
3074.00,0.4423
3073.00,0.4466
3072.00,0.4509
3071.00,0.4551
3070.00,0.4594
3069.00,0.4639
3068.00,0.4686
3067.00,0.4732
3066.00,0.4775
3065.00,0.4816
3064.00,0.4856
3063.00,0.4893
3062.00,0.4928
3061.00,0.4961
3060.00,0.4993
3059.00,0.5023
3058.00,0.5052
3057.00,0.5080
3056.00,0.5109
3055.00,0.5138
3054.00,0.5167
3053.00,0.5198
3052.00,0.5235
3051.00,0.5276
3050.00,0.5320
3049.00,0.5364
3048.00,0.5407
3047.00,0.5451
3046.00,0.5495
3045.00,0.5539
3044.00,0.5586
3043.00,0.5633
3042.00,0.5680
3041.00,0.5726
3040.00,0.5771
3039.00,0.5818
3038.00,0.5868
3037.00,0.5920
3036.00,0.5975
3035.00,0.6031
3034.00,0.6091
3033.00,0.6155
3032.00,0.6224
3031.00,0.6299
3030.00,0.6381
3029.00,0.6469
3028.00,0.6559
3027.00,0.6652
3026.00,0.6747
3025.00,0.6845
3024.00,0.6949
3023.00,0.7061
3022.00,0.7180
3021.00,0.7306
3020.00,0.7436
3019.00,0.7567
3018.00,0.7699
3017.00,0.7832
3016.00,0.7968
3015.00,0.8105
3014.00,0.8241
3013.00,0.8379
3012.00,0.8522
3011.00,0.8677
3010.00,0.8844
3009.00,0.9023
3008.00,0.9210
3007.00,0.9406
3006.00,0.9614
3005.00,0.9835
3004.00,1.0072
3003.00,1.0324
3002.00,1.0588
3001.00,1.0861
3000.00,1.1148
2999.00,1.1456
2998.00,1.1786
2997.00,1.2135
2996.00,1.2502
2995.00,1.2894
2994.00,1.3318
2993.00,1.3775
2992.00,1.4261
2991.00,1.4783
2990.00,1.5354
2989.00,1.5979
2988.00,1.6656
2987.00,1.7395
2986.00,1.8214
2985.00,1.9121
2984.00,2.0108
2983.00,2.1187
2982.00,2.2433
2981.00,2.3919
2980.00,2.5593
2979.00,2.7260
2978.00,2.8769
2977.00,3.0223
2976.00,3.1743
2975.00,3.3099
2974.00,3.4159
2973.00,3.5705
2972.00,3.7192
2971.00,3.6874
2970.00,3.5530
2969.00,3.5694
2968.00,3.9772
2967.00,4.2246
2966.00,3.7263
2965.00,3.4246
2964.00,3.3754
2963.00,3.4332
2962.00,3.4368
2961.00,3.4577
2960.00,3.4989
2959.00,3.5307
2958.00,3.4897
2957.00,3.4584
2956.00,3.4552
2955.00,3.4669
2954.00,3.5322
2953.00,3.7460
2952.00,4.4947
2951.00,8.0000
2950.00,3.9824
2949.00,3.5332
2948.00,3.3895
2947.00,3.4502
2946.00,3.7161
2945.00,4.6524
2944.00,5.1065
2943.00,4.0071
2942.00,3.6925
2941.00,3.7062
2940.00,3.9608
2939.00,4.5389
2938.00,4.1645
2937.00,3.7767
2936.00,3.5971
2935.00,3.6514
2934.00,3.6507
2933.00,3.6699
2932.00,3.9733
2931.00,4.2821
2930.00,3.8875
2929.00,3.5897
2928.00,3.7303
2927.00,4.3295
2926.00,3.8535
2925.00,3.4602
2924.00,3.3676
2923.00,3.5672
2922.00,3.8434
2921.00,4.0101
2920.00,3.9070
2919.00,3.8082
2918.00,3.7061
2917.00,3.7441
2916.00,3.9728
2915.00,4.0239
2914.00,3.8018
2913.00,3.6795
2912.00,3.7177
2911.00,3.6336
2910.00,3.4672
2909.00,3.4479
2908.00,3.6062
2907.00,3.6608
2906.00,3.5109
2905.00,3.5162
2904.00,3.8657
2903.00,3.9433
2902.00,3.6142
2901.00,3.4709
2900.00,3.7659
2899.00,5.0624
2898.00,4.1143
2897.00,3.6108
2896.00,3.5631
2895.00,4.2275
2894.00,8.0000
2893.00,4.2231
2892.00,3.6566
2891.00,3.6337
2890.00,3.7102
2889.00,3.7127
2888.00,3.5642
2887.00,3.5361
2886.00,3.8669
2885.00,4.7277
2884.00,4.0970
2883.00,3.5751
2882.00,3.4625
2881.00,3.5128
2880.00,3.5411
2879.00,3.4406
2878.00,3.3240
2877.00,3.3229
2876.00,3.4392
2875.00,3.6176
2874.00,3.7040
2873.00,3.7464
2872.00,3.8451
2871.00,3.7823
2870.00,3.5651
2869.00,3.4368
2868.00,3.4808
2867.00,3.6521
2866.00,3.8095
2865.00,3.6751
2864.00,3.4438
2863.00,3.3082
2862.00,3.2916
2861.00,3.3715
2860.00,3.5303
2859.00,3.8479
2858.00,4.3900
2857.00,4.0932
2856.00,3.7320
2855.00,3.6397
2854.00,3.7479
2853.00,3.7373
2852.00,3.6031
2851.00,3.5537
2850.00,3.6048
2849.00,3.6070
2848.00,3.5156
2847.00,3.4471
2846.00,3.4581
2845.00,3.5058
2844.00,3.5760
2843.00,3.6933
2842.00,3.6806
2841.00,3.5197
2840.00,3.4063
2839.00,3.3763
2838.00,3.2604
2837.00,3.0221
2836.00,2.7837
2835.00,2.5813
2834.00,2.4050
2833.00,2.2465
2832.00,2.1033
2831.00,1.9750
2830.00,1.8617
2829.00,1.7626
2828.00,1.6763
2827.00,1.6008
2826.00,1.5338
2825.00,1.4726
2824.00,1.4156
2823.00,1.3625
2822.00,1.3138
2821.00,1.2697
2820.00,1.2297
2819.00,1.1928
2818.00,1.1579
2817.00,1.1244
2816.00,1.0923
2815.00,1.0623
2814.00,1.0348
2813.00,1.0094
2812.00,0.9855
2811.00,0.9625
2810.00,0.9401
2809.00,0.9185
2808.00,0.8975
2807.00,0.8774
2806.00,0.8583
2805.00,0.8403
2804.00,0.8233
2803.00,0.8072
2802.00,0.7918
2801.00,0.7767
2800.00,0.7621
2799.00,0.7483
2798.00,0.7355
2797.00,0.7235
2796.00,0.7120
2795.00,0.7007
2794.00,0.6896
2793.00,0.6788
2792.00,0.6682
2791.00,0.6580
2790.00,0.6481
2789.00,0.6385
2788.00,0.6291
2787.00,0.6199
2786.00,0.6110
2785.00,0.6022
2784.00,0.5934
2783.00,0.5847
2782.00,0.5763
2781.00,0.5685
2780.00,0.5612
2779.00,0.5542
2778.00,0.5475
2777.00,0.5411
2776.00,0.5349
2775.00,0.5291
2774.00,0.5236
2773.00,0.5186
2772.00,0.5140
2771.00,0.5099
2770.00,0.5062
2769.00,0.5026
2768.00,0.4993
2767.00,0.4962
2766.00,0.4934
2765.00,0.4908
2764.00,0.4883
2763.00,0.4860
2762.00,0.4841
2761.00,0.4828
2760.00,0.4818
2759.00,0.4808
2758.00,0.4797
2757.00,0.4786
2756.00,0.4776
2755.00,0.4768
2754.00,0.4760
2753.00,0.4752
2752.00,0.4745
2751.00,0.4740
2750.00,0.4738
2749.00,0.4740
2748.00,0.4748
2747.00,0.4758
2746.00,0.4768
2745.00,0.4780
2744.00,0.4794
2743.00,0.4812
2742.00,0.4837
2741.00,0.4866
2740.00,0.4898
2739.00,0.4934
2738.00,0.4975
2737.00,0.5021
2736.00,0.5072
2735.00,0.5127
2734.00,0.5184
2733.00,0.5240
2732.00,0.5290
2731.00,0.5332
2730.00,0.5365
2729.00,0.5386
2728.00,0.5394
2727.00,0.5389
2726.00,0.5375
2725.00,0.5357
2724.00,0.5336
2723.00,0.5310
2722.00,0.5279
2721.00,0.5245
2720.00,0.5210
2719.00,0.5173
2718.00,0.5132
2717.00,0.5088
2716.00,0.5043
2715.00,0.4997
2714.00,0.4950
2713.00,0.4905
2712.00,0.4862
2711.00,0.4821
2710.00,0.4782
2709.00,0.4748
2708.00,0.4720
2707.00,0.4697
2706.00,0.4678
2705.00,0.4664
2704.00,0.4654
2703.00,0.4646
2702.00,0.4640
2701.00,0.4635
2700.00,0.4632
2699.00,0.4633
2698.00,0.4636
2697.00,0.4641
2696.00,0.4647
2695.00,0.4657
2694.00,0.4669
2693.00,0.4681
2692.00,0.4693
2691.00,0.4704
2690.00,0.4714
2689.00,0.4725
2688.00,0.4737
2687.00,0.4749
2686.00,0.4757
2685.00,0.4760
2684.00,0.4760
2683.00,0.4760
2682.00,0.4761
2681.00,0.4762
2680.00,0.4763
2679.00,0.4765
2678.00,0.4768
2677.00,0.4769
2676.00,0.4769
2675.00,0.4767
2674.00,0.4765
2673.00,0.4763
2672.00,0.4760
2671.00,0.4754
2670.00,0.4745
2669.00,0.4734
2668.00,0.4720
2667.00,0.4703
2666.00,0.4686
2665.00,0.4666
2664.00,0.4645
2663.00,0.4622
2662.00,0.4600
2661.00,0.4578
2660.00,0.4558
2659.00,0.4537
2658.00,0.4517
2657.00,0.4497
2656.00,0.4478
2655.00,0.4461
2654.00,0.4445
2653.00,0.4428
2652.00,0.4411
2651.00,0.4394
2650.00,0.4380
2649.00,0.4367
2648.00,0.4354
2647.00,0.4342
2646.00,0.4331
2645.00,0.4320
2644.00,0.4311
2643.00,0.4302
2642.00,0.4292
2641.00,0.4282
2640.00,0.4272
2639.00,0.4262
2638.00,0.4252
2637.00,0.4242
2636.00,0.4232
2635.00,0.4224
2634.00,0.4218
2633.00,0.4212
2632.00,0.4206
2631.00,0.4198
2630.00,0.4190
2629.00,0.4181
2628.00,0.4174
2627.00,0.4168
2626.00,0.4162
2625.00,0.4155
2624.00,0.4147
2623.00,0.4139
2622.00,0.4129
2621.00,0.4120
2620.00,0.4111
2619.00,0.4103
2618.00,0.4095
2617.00,0.4088
2616.00,0.4079
2615.00,0.4071
2614.00,0.4062
2613.00,0.4053
2612.00,0.4043
2611.00,0.4033
2610.00,0.4024
2609.00,0.4016
2608.00,0.4006
2607.00,0.3995
2606.00,0.3983
2605.00,0.3971
2604.00,0.3960
2603.00,0.3950
2602.00,0.3939
2601.00,0.3929
2600.00,0.3916
2599.00,0.3902
2598.00,0.3887
2597.00,0.3872
2596.00,0.3858
2595.00,0.3845
2594.00,0.3831
2593.00,0.3818
2592.00,0.3804
2591.00,0.3789
2590.00,0.3774
2589.00,0.3758
2588.00,0.3741
2587.00,0.3724
2586.00,0.3707
2585.00,0.3689
2584.00,0.3671
2583.00,0.3652
2582.00,0.3633
2581.00,0.3615
2580.00,0.3597
2579.00,0.3580
2578.00,0.3563
2577.00,0.3546
2576.00,0.3529
2575.00,0.3510
2574.00,0.3492
2573.00,0.3473
2572.00,0.3456
2571.00,0.3439
2570.00,0.3423
2569.00,0.3406
2568.00,0.3391
2567.00,0.3376
2566.00,0.3361
2565.00,0.3346
2564.00,0.3331
2563.00,0.3318
2562.00,0.3304
2561.00,0.3291
2560.00,0.3278
2559.00,0.3266
2558.00,0.3255
2557.00,0.3244
2556.00,0.3234
2555.00,0.3222
2554.00,0.3210
2553.00,0.3198
2552.00,0.3188
2551.00,0.3179
2550.00,0.3171
2549.00,0.3164
2548.00,0.3156
2547.00,0.3149
2546.00,0.3142
2545.00,0.3134
2544.00,0.3126
2543.00,0.3116
2542.00,0.3107
2541.00,0.3100
2540.00,0.3093
2539.00,0.3086
2538.00,0.3078
2537.00,0.3072
2536.00,0.3066
2535.00,0.3062
2534.00,0.3057
2533.00,0.3051
2532.00,0.3044
2531.00,0.3036
2530.00,0.3028
2529.00,0.3019
2528.00,0.3011
2527.00,0.3002
2526.00,0.2993
2525.00,0.2984
2524.00,0.2976
2523.00,0.2968
2522.00,0.2959
2521.00,0.2951
2520.00,0.2943
2519.00,0.2935
2518.00,0.2927
2517.00,0.2919
2516.00,0.2910
2515.00,0.2902
2514.00,0.2894
2513.00,0.2886
2512.00,0.2878
2511.00,0.2870
2510.00,0.2863
2509.00,0.2856
2508.00,0.2850
2507.00,0.2844
2506.00,0.2838
2505.00,0.2831
2504.00,0.2824
2503.00,0.2817
2502.00,0.2811
2501.00,0.2807
2500.00,0.2804
2499.00,0.2801
2498.00,0.2796
2497.00,0.2792
2496.00,0.2788
2495.00,0.2784
2494.00,0.2781
2493.00,0.2778
2492.00,0.2775
2491.00,0.2771
2490.00,0.2768
2489.00,0.2763
2488.00,0.2759
2487.00,0.2755
2486.00,0.2752
2485.00,0.2748
2484.00,0.2744
2483.00,0.2741
2482.00,0.2738
2481.00,0.2737
2480.00,0.2735
2479.00,0.2734
2478.00,0.2732
2477.00,0.2730
2476.00,0.2729
2475.00,0.2726
2474.00,0.2722
2473.00,0.2719
2472.00,0.2718
2471.00,0.2718
2470.00,0.2717
2469.00,0.2716
2468.00,0.2713
2467.00,0.2710
2466.00,0.2707
2465.00,0.2706
2464.00,0.2706
2463.00,0.2707
2462.00,0.2706
2461.00,0.2705
2460.00,0.2704
2459.00,0.2703
2458.00,0.2703
2457.00,0.2703
2456.00,0.2703
2455.00,0.2703
2454.00,0.2703
2453.00,0.2703
2452.00,0.2702
2451.00,0.2700
2450.00,0.2699
2449.00,0.2700
2448.00,0.2700
2447.00,0.2699
2446.00,0.2699
2445.00,0.2698
2444.00,0.2699
2443.00,0.2700
2442.00,0.2701
2441.00,0.2701
2440.00,0.2700
2439.00,0.2699
2438.00,0.2698
2437.00,0.2698
2436.00,0.2698
2435.00,0.2698
2434.00,0.2699
2433.00,0.2700
2432.00,0.2703
2431.00,0.2707
2430.00,0.2710
2429.00,0.2711
2428.00,0.2712
2427.00,0.2712
2426.00,0.2712
2425.00,0.2714
2424.00,0.2718
2423.00,0.2722
2422.00,0.2724
2421.00,0.2723
2420.00,0.2722
2419.00,0.2722
2418.00,0.2722
2417.00,0.2724
2416.00,0.2726
2415.00,0.2728
2414.00,0.2730
2413.00,0.2731
2412.00,0.2732
2411.00,0.2732
2410.00,0.2732
2409.00,0.2731
2408.00,0.2732
2407.00,0.2732
2406.00,0.2732
2405.00,0.2732
2404.00,0.2731
2403.00,0.2729
2402.00,0.2727
2401.00,0.2726
2400.00,0.2727
2399.00,0.2727
2398.00,0.2726
2397.00,0.2725
2396.00,0.2724
2395.00,0.2722
2394.00,0.2721
2393.00,0.2720
2392.00,0.2719
2391.00,0.2719
2390.00,0.2717
2389.00,0.2715
2388.00,0.2714
2387.00,0.2714
2386.00,0.2713
2385.00,0.2712
2384.00,0.2712
2383.00,0.2711
2382.00,0.2711
2381.00,0.2711
2380.00,0.2712
2379.00,0.2712
2378.00,0.2713
2377.00,0.2714
2376.00,0.2714
2375.00,0.2714
2374.00,0.2713
2373.00,0.2712
2372.00,0.2713
2371.00,0.2714
2370.00,0.2715
2369.00,0.2713
2368.00,0.2709
2367.00,0.2704
2366.00,0.2702
2365.00,0.2702
2364.00,0.2703
2363.00,0.2704
2362.00,0.2706
2361.00,0.2708
2360.00,0.2711
2359.00,0.2713
2358.00,0.2716
2357.00,0.2720
2356.00,0.2725
2355.00,0.2730
2354.00,0.2733
2353.00,0.2735
2352.00,0.2737
2351.00,0.2738
2350.00,0.2737
2349.00,0.2733
2348.00,0.2726
2347.00,0.2720
2346.00,0.2716
2345.00,0.2714
2344.00,0.2714
2343.00,0.2714
2342.00,0.2713
2341.00,0.2713
2340.00,0.2713
2339.00,0.2713
2338.00,0.2712
2337.00,0.2712
2336.00,0.2714
2335.00,0.2715
2334.00,0.2714
2333.00,0.2710
2332.00,0.2706
2331.00,0.2703
2330.00,0.2702
2329.00,0.2700
2328.00,0.2699
2327.00,0.2699
2326.00,0.2699
2325.00,0.2700
2324.00,0.2701
2323.00,0.2700
2322.00,0.2698
2321.00,0.2695
2320.00,0.2693
2319.00,0.2692
2318.00,0.2691
2317.00,0.2688
2316.00,0.2684
2315.00,0.2679
2314.00,0.2676
2313.00,0.2674
2312.00,0.2672
2311.00,0.2669
2310.00,0.2666
2309.00,0.2662
2308.00,0.2659
2307.00,0.2656
2306.00,0.2652
2305.00,0.2647
2304.00,0.2642
2303.00,0.2637
2302.00,0.2632
2301.00,0.2627
2300.00,0.2623
2299.00,0.2621
2298.00,0.2618
2297.00,0.2616
2296.00,0.2613
2295.00,0.2610
2294.00,0.2608
2293.00,0.2605
2292.00,0.2601
2291.00,0.2599
2290.00,0.2597
2289.00,0.2594
2288.00,0.2592
2287.00,0.2590
2286.00,0.2588
2285.00,0.2586
2284.00,0.2583
2283.00,0.2581
2282.00,0.2579
2281.00,0.2577
2280.00,0.2574
2279.00,0.2571
2278.00,0.2567
2277.00,0.2564
2276.00,0.2561
2275.00,0.2559
2274.00,0.2557
2273.00,0.2555
2272.00,0.2553
2271.00,0.2550
2270.00,0.2547
2269.00,0.2543
2268.00,0.2539
2267.00,0.2536
2266.00,0.2533
2265.00,0.2531
2264.00,0.2530
2263.00,0.2529
2262.00,0.2527
2261.00,0.2526
2260.00,0.2524
2259.00,0.2522
2258.00,0.2520
2257.00,0.2518
2256.00,0.2516
2255.00,0.2514
2254.00,0.2511
2253.00,0.2509
2252.00,0.2507
2251.00,0.2505
2250.00,0.2503
2249.00,0.2501
2248.00,0.2500
2247.00,0.2498
2246.00,0.2495
2245.00,0.2492
2244.00,0.2491
2243.00,0.2491
2242.00,0.2490
2241.00,0.2488
2240.00,0.2485
2239.00,0.2483
2238.00,0.2481
2237.00,0.2480
2236.00,0.2479
2235.00,0.2478
2234.00,0.2477
2233.00,0.2476
2232.00,0.2476
2231.00,0.2476
2230.00,0.2476
2229.00,0.2475
2228.00,0.2473
2227.00,0.2471
2226.00,0.2470
2225.00,0.2469
2224.00,0.2468
2223.00,0.2468
2222.00,0.2467
2221.00,0.2468
2220.00,0.2468
2219.00,0.2468
2218.00,0.2467
2217.00,0.2466
2216.00,0.2465
2215.00,0.2464
2214.00,0.2463
2213.00,0.2463
2212.00,0.2463
2211.00,0.2463
2210.00,0.2461
2209.00,0.2461
2208.00,0.2460
2207.00,0.2459
2206.00,0.2458
2205.00,0.2459
2204.00,0.2459
2203.00,0.2460
2202.00,0.2460
2201.00,0.2462
2200.00,0.2463
2199.00,0.2463
2198.00,0.2463
2197.00,0.2463
2196.00,0.2464
2195.00,0.2465
2194.00,0.2464
2193.00,0.2464
2192.00,0.2464
2191.00,0.2465
2190.00,0.2465
2189.00,0.2466
2188.00,0.2466
2187.00,0.2466
2186.00,0.2466
2185.00,0.2465
2184.00,0.2465
2183.00,0.2463
2182.00,0.2461
2181.00,0.2459
2180.00,0.2458
2179.00,0.2457
2178.00,0.2456
2177.00,0.2455
2176.00,0.2454
2175.00,0.2452
2174.00,0.2450
2173.00,0.2449
2172.00,0.2448
2171.00,0.2447
2170.00,0.2446
2169.00,0.2444
2168.00,0.2442
2167.00,0.2440
2166.00,0.2439
2165.00,0.2437
2164.00,0.2436
2163.00,0.2435
2162.00,0.2434
2161.00,0.2433
2160.00,0.2432
2159.00,0.2431
2158.00,0.2430
2157.00,0.2430
2156.00,0.2429
2155.00,0.2429
2154.00,0.2427
2153.00,0.2427
2152.00,0.2426
2151.00,0.2424
2150.00,0.2420
2149.00,0.2415
2148.00,0.2412
2147.00,0.2409
2146.00,0.2405
2145.00,0.2400
2144.00,0.2395
2143.00,0.2390
2142.00,0.2385
2141.00,0.2380
2140.00,0.2377
2139.00,0.2373
2138.00,0.2370
2137.00,0.2367
2136.00,0.2363
2135.00,0.2359
2134.00,0.2355
2133.00,0.2352
2132.00,0.2349
2131.00,0.2346
2130.00,0.2344
2129.00,0.2342
2128.00,0.2341
2127.00,0.2340
2126.00,0.2338
2125.00,0.2337
2124.00,0.2335
2123.00,0.2334
2122.00,0.2334
2121.00,0.2333
2120.00,0.2333
2119.00,0.2332
2118.00,0.2332
2117.00,0.2331
2116.00,0.2330
2115.00,0.2328
2114.00,0.2327
2113.00,0.2326
2112.00,0.2327
2111.00,0.2326
2110.00,0.2324
2109.00,0.2322
2108.00,0.2322
2107.00,0.2323
2106.00,0.2324
2105.00,0.2324
2104.00,0.2323
2103.00,0.2322
2102.00,0.2321
2101.00,0.2320
2100.00,0.2318
2099.00,0.2316
2098.00,0.2313
2097.00,0.2312
2096.00,0.2312
2095.00,0.2311
2094.00,0.2311
2093.00,0.2311
2092.00,0.2311
2091.00,0.2311
2090.00,0.2311
2089.00,0.2310
2088.00,0.2310
2087.00,0.2310
2086.00,0.2310
2085.00,0.2311
2084.00,0.2312
2083.00,0.2314
2082.00,0.2315
2081.00,0.2315
2080.00,0.2315
2079.00,0.2314
2078.00,0.2314
2077.00,0.2314
2076.00,0.2314
2075.00,0.2316
2074.00,0.2317
2073.00,0.2319
2072.00,0.2319
2071.00,0.2319
2070.00,0.2319
2069.00,0.2319
2068.00,0.2320
2067.00,0.2320
2066.00,0.2319
2065.00,0.2318
2064.00,0.2319
2063.00,0.2320
2062.00,0.2322
2061.00,0.2323
2060.00,0.2324
2059.00,0.2324
2058.00,0.2325
2057.00,0.2326
2056.00,0.2329
2055.00,0.2331
2054.00,0.2333
2053.00,0.2334
2052.00,0.2336
2051.00,0.2337
2050.00,0.2339
2049.00,0.2341
2048.00,0.2343
2047.00,0.2345
2046.00,0.2347
2045.00,0.2349
2044.00,0.2352
2043.00,0.2356
2042.00,0.2360
2041.00,0.2363
2040.00,0.2365
2039.00,0.2366
2038.00,0.2366
2037.00,0.2367
2036.00,0.2368
2035.00,0.2370
2034.00,0.2370
2033.00,0.2371
2032.00,0.2371
2031.00,0.2370
2030.00,0.2368
2029.00,0.2366
2028.00,0.2364
2027.00,0.2362
2026.00,0.2360
2025.00,0.2357
2024.00,0.2353
2023.00,0.2348
2022.00,0.2343
2021.00,0.2338
2020.00,0.2332
2019.00,0.2325
2018.00,0.2319
2017.00,0.2313
2016.00,0.2308
2015.00,0.2302
2014.00,0.2295
2013.00,0.2288
2012.00,0.2282
2011.00,0.2278
2010.00,0.2274
2009.00,0.2270
2008.00,0.2266
2007.00,0.2262
2006.00,0.2258
2005.00,0.2255
2004.00,0.2254
2003.00,0.2252
2002.00,0.2250
2001.00,0.2248
2000.00,0.2247
1999.00,0.2245
1998.00,0.2243
1997.00,0.2240
1996.00,0.2238
1995.00,0.2237
1994.00,0.2235
1993.00,0.2234
1992.00,0.2233
1991.00,0.2232
1990.00,0.2232
1989.00,0.2232
1988.00,0.2231
1987.00,0.2229
1986.00,0.2227
1985.00,0.2226
1984.00,0.2225
1983.00,0.2224
1982.00,0.2224
1981.00,0.2223
1980.00,0.2222
1979.00,0.2220
1978.00,0.2218
1977.00,0.2217
1976.00,0.2217
1975.00,0.2217
1974.00,0.2216
1973.00,0.2216
1972.00,0.2215
1971.00,0.2215
1970.00,0.2215
1969.00,0.2216
1968.00,0.2217
1967.00,0.2219
1966.00,0.2220
1965.00,0.2221
1964.00,0.2221
1963.00,0.2221
1962.00,0.2221
1961.00,0.2222
1960.00,0.2222
1959.00,0.2223
1958.00,0.2223
1957.00,0.2224
1956.00,0.2225
1955.00,0.2225
1954.00,0.2225
1953.00,0.2226
1952.00,0.2226
1951.00,0.2226
1950.00,0.2226
1949.00,0.2225
1948.00,0.2226
1947.00,0.2227
1946.00,0.2228
1945.00,0.2231
1944.00,0.2234
1943.00,0.2238
1942.00,0.2242
1941.00,0.2248
1940.00,0.2253
1939.00,0.2257
1938.00,0.2258
1937.00,0.2257
1936.00,0.2256
1935.00,0.2255
1934.00,0.2254
1933.00,0.2254
1932.00,0.2254
1931.00,0.2255
1930.00,0.2256
1929.00,0.2257
1928.00,0.2258
1927.00,0.2258
1926.00,0.2260
1925.00,0.2262
1924.00,0.2264
1923.00,0.2267
1922.00,0.2272
1921.00,0.2279
1920.00,0.2285
1919.00,0.2287
1918.00,0.2288
1917.00,0.2290
1916.00,0.2293
1915.00,0.2295
1914.00,0.2295
1913.00,0.2294
1912.00,0.2294
1911.00,0.2294
1910.00,0.2294
1909.00,0.2296
1908.00,0.2299
1907.00,0.2302
1906.00,0.2303
1905.00,0.2303
1904.00,0.2303
1903.00,0.2302
1902.00,0.2302
1901.00,0.2300
1900.00,0.2298
1899.00,0.2296
1898.00,0.2295
1897.00,0.2296
1896.00,0.2297
1895.00,0.2298
1894.00,0.2299
1893.00,0.2302
1892.00,0.2305
1891.00,0.2307
1890.00,0.2309
1889.00,0.2310
1888.00,0.2313
1887.00,0.2315
1886.00,0.2316
1885.00,0.2316
1884.00,0.2317
1883.00,0.2316
1882.00,0.2315
1881.00,0.2313
1880.00,0.2313
1879.00,0.2312
1878.00,0.2311
1877.00,0.2309
1876.00,0.2306
1875.00,0.2302
1874.00,0.2300
1873.00,0.2299
1872.00,0.2297
1871.00,0.2293
1870.00,0.2287
1869.00,0.2284
1868.00,0.2283
1867.00,0.2285
1866.00,0.2286
1865.00,0.2287
1864.00,0.2288
1863.00,0.2288
1862.00,0.2288
1861.00,0.2287
1860.00,0.2287
1859.00,0.2288
1858.00,0.2288
1857.00,0.2288
1856.00,0.2288
1855.00,0.2288
1854.00,0.2289
1853.00,0.2291
1852.00,0.2292
1851.00,0.2291
1850.00,0.2288
1849.00,0.2287
1848.00,0.2290
1847.00,0.2296
1846.00,0.2300
1845.00,0.2297
1844.00,0.2292
1843.00,0.2288
1842.00,0.2285
1841.00,0.2282
1840.00,0.2279
1839.00,0.2276
1838.00,0.2276
1837.00,0.2277
1836.00,0.2278
1835.00,0.2277
1834.00,0.2275
1833.00,0.2274
1832.00,0.2271
1831.00,0.2266
1830.00,0.2264
1829.00,0.2268
1828.00,0.2275
1827.00,0.2281
1826.00,0.2282
1825.00,0.2281
1824.00,0.2282
1823.00,0.2283
1822.00,0.2284
1821.00,0.2286
1820.00,0.2288
1819.00,0.2290
1818.00,0.2291
1817.00,0.2293
1816.00,0.2295
1815.00,0.2297
1814.00,0.2298
1813.00,0.2300
1812.00,0.2304
1811.00,0.2308
1810.00,0.2313
1809.00,0.2319
1808.00,0.2325
1807.00,0.2331
1806.00,0.2337
1805.00,0.2343
1804.00,0.2350
1803.00,0.2356
1802.00,0.2360
1801.00,0.2364
1800.00,0.2371
1799.00,0.2378
1798.00,0.2386
1797.00,0.2398
1796.00,0.2413
1795.00,0.2428
1794.00,0.2441
1793.00,0.2452
1792.00,0.2463
1791.00,0.2474
1790.00,0.2484
1789.00,0.2498
1788.00,0.2513
1787.00,0.2525
1786.00,0.2535
1785.00,0.2542
1784.00,0.2550
1783.00,0.2560
1782.00,0.2569
1781.00,0.2580
1780.00,0.2591
1779.00,0.2601
1778.00,0.2608
1777.00,0.2615
1776.00,0.2623
1775.00,0.2631
1774.00,0.2635
1773.00,0.2641
1772.00,0.2651
1771.00,0.2665
1770.00,0.2676
1769.00,0.2680
1768.00,0.2678
1767.00,0.2674
1766.00,0.2675
1765.00,0.2680
1764.00,0.2686
1763.00,0.2690
1762.00,0.2695
1761.00,0.2705
1760.00,0.2723
1759.00,0.2745
1758.00,0.2769
1757.00,0.2795
1756.00,0.2827
1755.00,0.2865
1754.00,0.2906
1753.00,0.2943
1752.00,0.2974
1751.00,0.3001
1750.00,0.3026
1749.00,0.3050
1748.00,0.3070
1747.00,0.3086
1746.00,0.3098
1745.00,0.3108
1744.00,0.3116
1743.00,0.3125
1742.00,0.3135
1741.00,0.3144
1740.00,0.3153
1739.00,0.3166
1738.00,0.3187
1737.00,0.3216
1736.00,0.3238
1735.00,0.3250
1734.00,0.3259
1733.00,0.3273
1732.00,0.3290
1731.00,0.3303
1730.00,0.3310
1729.00,0.3314
1728.00,0.3319
1727.00,0.3326
1726.00,0.3335
1725.00,0.3344
1724.00,0.3353
1723.00,0.3361
1722.00,0.3369
1721.00,0.3380
1720.00,0.3386
1719.00,0.3391
1718.00,0.3401
1717.00,0.3423
1716.00,0.3448
1715.00,0.3473
1714.00,0.3496
1713.00,0.3521
1712.00,0.3546
1711.00,0.3569
1710.00,0.3588
1709.00,0.3604
1708.00,0.3617
1707.00,0.3624
1706.00,0.3624
1705.00,0.3624
1704.00,0.3629
1703.00,0.3633
1702.00,0.3619
1701.00,0.3569
1700.00,0.3519
1699.00,0.3488
1698.00,0.3453
1697.00,0.3418
1696.00,0.3382
1695.00,0.3344
1694.00,0.3309
1693.00,0.3284
1692.00,0.3259
1691.00,0.3232
1690.00,0.3206
1689.00,0.3186
1688.00,0.3175
1687.00,0.3165
1686.00,0.3150
1685.00,0.3135
1684.00,0.3125
1683.00,0.3117
1682.00,0.3111
1681.00,0.3106
1680.00,0.3102
1679.00,0.3103
1678.00,0.3107
1677.00,0.3109
1676.00,0.3102
1675.00,0.3091
1674.00,0.3083
1673.00,0.3083
1672.00,0.3087
1671.00,0.3091
1670.00,0.3097
1669.00,0.3104
1668.00,0.3108
1667.00,0.3113
1666.00,0.3117
1665.00,0.3122
1664.00,0.3126
1663.00,0.3133
1662.00,0.3140
1661.00,0.3149
1660.00,0.3156
1659.00,0.3161
1658.00,0.3170
1657.00,0.3187
1656.00,0.3205
1655.00,0.3215
1654.00,0.3224
1653.00,0.3234
1652.00,0.3241
1651.00,0.3248
1650.00,0.3252
1649.00,0.3259
1648.00,0.3272
1647.00,0.3293
1646.00,0.3312
1645.00,0.3326
1644.00,0.3341
1643.00,0.3356
1642.00,0.3371
1641.00,0.3385
1640.00,0.3400
1639.00,0.3417
1638.00,0.3435
1637.00,0.3460
1636.00,0.3494
1635.00,0.3525
1634.00,0.3549
1633.00,0.3570
1632.00,0.3588
1631.00,0.3602
1630.00,0.3612
1629.00,0.3623
1628.00,0.3634
1627.00,0.3644
1626.00,0.3654
1625.00,0.3666
1624.00,0.3682
1623.00,0.3701
1622.00,0.3723
1621.00,0.3752
1620.00,0.3787
1619.00,0.3826
1618.00,0.3869
1617.00,0.3922
1616.00,0.3981
1615.00,0.4036
1614.00,0.4083
1613.00,0.4126
1612.00,0.4169
1611.00,0.4214
1610.00,0.4261
1609.00,0.4307
1608.00,0.4348
1607.00,0.4382
1606.00,0.4404
1605.00,0.4417
1604.00,0.4423
1603.00,0.4420
1602.00,0.4408
1601.00,0.4389
1600.00,0.4365
1599.00,0.4335
1598.00,0.4302
1597.00,0.4270
1596.00,0.4243
1595.00,0.4218
1594.00,0.4197
1593.00,0.4182
1592.00,0.4174
1591.00,0.4169
1590.00,0.4165
1589.00,0.4161
1588.00,0.4156
1587.00,0.4147
1586.00,0.4135
1585.00,0.4123
1584.00,0.4115
1583.00,0.4108
1582.00,0.4100
1581.00,0.4092
1580.00,0.4085
1579.00,0.4078
1578.00,0.4068
1577.00,0.4058
1576.00,0.4048
1575.00,0.4036
1574.00,0.4024
1573.00,0.4012
1572.00,0.3996
1571.00,0.3975
1570.00,0.3954
1569.00,0.3937
1568.00,0.3924
1567.00,0.3911
1566.00,0.3899
1565.00,0.3889
1564.00,0.3887
1563.00,0.3892
1562.00,0.3898
1561.00,0.3884
1560.00,0.3869
1559.00,0.3872
1558.00,0.3875
1557.00,0.3879
1556.00,0.3884
1555.00,0.3884
1554.00,0.3879
1553.00,0.3878
1552.00,0.3881
1551.00,0.3885
1550.00,0.3889
1549.00,0.3896
1548.00,0.3907
1547.00,0.3916
1546.00,0.3921
1545.00,0.3927
1544.00,0.3938
1543.00,0.3948
1542.00,0.3960
1541.00,0.3987
1540.00,0.4023
1539.00,0.4046
1538.00,0.4057
1537.00,0.4066
1536.00,0.4074
1535.00,0.4076
1534.00,0.4077
1533.00,0.4083
1532.00,0.4090
1531.00,0.4097
1530.00,0.4105
1529.00,0.4118
1528.00,0.4134
1527.00,0.4151
1526.00,0.4168
1525.00,0.4190
1524.00,0.4218
1523.00,0.4249
1522.00,0.4285
1521.00,0.4326
1520.00,0.4371
1519.00,0.4417
1518.00,0.4467
1517.00,0.4528
1516.00,0.4592
1515.00,0.4648
1514.00,0.4693
1513.00,0.4732
1512.00,0.4771
1511.00,0.4813
1510.00,0.4859
1509.00,0.4915
1508.00,0.5001
1507.00,0.5120
1506.00,0.5245
1505.00,0.5359
1504.00,0.5457
1503.00,0.5541
1502.00,0.5615
1501.00,0.5683
1500.00,0.5747
1499.00,0.5808
1498.00,0.5877
1497.00,0.5969
1496.00,0.6082
1495.00,0.6202
1494.00,0.6327
1493.00,0.6464
1492.00,0.6612
1491.00,0.6771
1490.00,0.6947
1489.00,0.7140
1488.00,0.7338
1487.00,0.7539
1486.00,0.7755
1485.00,0.8004
1484.00,0.8289
1483.00,0.8612
1482.00,0.8991
1481.00,0.9443
1480.00,0.9958
1479.00,1.0530
1478.00,1.1190
1477.00,1.1987
1476.00,1.2933
1475.00,1.4025
1474.00,1.5346
1473.00,1.7075
1472.00,1.9302
1471.00,2.1879
1470.00,2.4608
1469.00,2.7529
1468.00,3.0371
1467.00,3.1904
1466.00,3.2094
1465.00,3.2448
1464.00,3.2923
1463.00,3.2699
1462.00,3.2976
1461.00,3.5502
1460.00,3.9652
1459.00,3.8492
1458.00,3.5486
1457.00,3.2979
1456.00,3.2042
1455.00,3.3936
1454.00,3.6916
1453.00,3.3895
1452.00,3.0993
1451.00,2.8903
1450.00,2.7552
1449.00,2.6698
1448.00,2.5644
1447.00,2.4393
1446.00,2.3249
1445.00,2.2215
1444.00,2.1153
1443.00,2.0107
1442.00,1.9202
1441.00,1.8426
1440.00,1.7674
1439.00,1.6884
1438.00,1.6039
1437.00,1.5113
1436.00,1.4140
1435.00,1.3217
1434.00,1.2378
1433.00,1.1583
1432.00,1.0802
1431.00,1.0059
1430.00,0.9392
1429.00,0.8812
1428.00,0.8321
1427.00,0.7918
1426.00,0.7587
1425.00,0.7304
1424.00,0.7062
1423.00,0.6869
1422.00,0.6720
1421.00,0.6588
1420.00,0.6458
1419.00,0.6335
1418.00,0.6226
1417.00,0.6131
1416.00,0.6048
1415.00,0.5976
1414.00,0.5913
1413.00,0.5858
1412.00,0.5809
1411.00,0.5767
1410.00,0.5726
1409.00,0.5684
1408.00,0.5645
1407.00,0.5613
1406.00,0.5587
1405.00,0.5562
1404.00,0.5540
1403.00,0.5528
1402.00,0.5528
1401.00,0.5534
1400.00,0.5550
1399.00,0.5586
1398.00,0.5643
1397.00,0.5721
1396.00,0.5828
1395.00,0.5977
1394.00,0.6170
1393.00,0.6405
1392.00,0.6693
1391.00,0.7054
1390.00,0.7501
1389.00,0.8049
1388.00,0.8718
1387.00,0.9519
1386.00,1.0430
1385.00,1.1423
1384.00,1.2514
1383.00,1.3754
1382.00,1.5191
1381.00,1.6853
1380.00,1.8733
1379.00,2.0665
1378.00,2.2113
1377.00,2.2445
1376.00,2.1640
1375.00,2.0110
1374.00,1.8323
1373.00,1.6661
1372.00,1.5314
1371.00,1.4317
1370.00,1.3650
1369.00,1.3277
1368.00,1.3109
1367.00,1.2981
1366.00,1.2699
1365.00,1.2155
1364.00,1.1402
1363.00,1.0590
1362.00,0.9860
1361.00,0.9277
1360.00,0.8842
1359.00,0.8523
1358.00,0.8291
1357.00,0.8128
1356.00,0.8018
1355.00,0.7947
1354.00,0.7896
1353.00,0.7846
1352.00,0.7784
1351.00,0.7704
1350.00,0.7610
1349.00,0.7508
1348.00,0.7405
1347.00,0.7312
1346.00,0.7234
1345.00,0.7175
1344.00,0.7133
1343.00,0.7100
1342.00,0.7067
1341.00,0.7018
1340.00,0.6943
1339.00,0.6840
1338.00,0.6721
1337.00,0.6597
1336.00,0.6479
1335.00,0.6370
1334.00,0.6269
1333.00,0.6176
1332.00,0.6094
1331.00,0.6023
1330.00,0.5961
1329.00,0.5906
1328.00,0.5858
1327.00,0.5818
1326.00,0.5788
1325.00,0.5767
1324.00,0.5755
1323.00,0.5751
1322.00,0.5759
1321.00,0.5777
1320.00,0.5804
1319.00,0.5839
1318.00,0.5877
1317.00,0.5915
1316.00,0.5952
1315.00,0.5986
1314.00,0.6019
1313.00,0.6051
1312.00,0.6084
1311.00,0.6117
1310.00,0.6149
1309.00,0.6177
1308.00,0.6201
1307.00,0.6220
1306.00,0.6233
1305.00,0.6238
1304.00,0.6235
1303.00,0.6224
1302.00,0.6206
1301.00,0.6179
1300.00,0.6143
1299.00,0.6099
1298.00,0.6048
1297.00,0.5992
1296.00,0.5932
1295.00,0.5870
1294.00,0.5810
1293.00,0.5752
1292.00,0.5698
1291.00,0.5649
1290.00,0.5604
1289.00,0.5562
1288.00,0.5520
1287.00,0.5478
1286.00,0.5440
1285.00,0.5407
1284.00,0.5380
1283.00,0.5358
1282.00,0.5342
1281.00,0.5330
1280.00,0.5323
1279.00,0.5317
1278.00,0.5309
1277.00,0.5299
1276.00,0.5287
1275.00,0.5277
1274.00,0.5266
1273.00,0.5253
1272.00,0.5238
1271.00,0.5220
1270.00,0.5201
1269.00,0.5179
1268.00,0.5157
1267.00,0.5137
1266.00,0.5120
1265.00,0.5107
1264.00,0.5095
1263.00,0.5082
1262.00,0.5068
1261.00,0.5051
1260.00,0.5031
1259.00,0.5011
1258.00,0.4994
1257.00,0.4980
1256.00,0.4969
1255.00,0.4960
1254.00,0.4951
1253.00,0.4944
1252.00,0.4938
1251.00,0.4934
1250.00,0.4932
1249.00,0.4931
1248.00,0.4928
1247.00,0.4924
1246.00,0.4916
1245.00,0.4905
1244.00,0.4892
1243.00,0.4882
1242.00,0.4876
1241.00,0.4875
1240.00,0.4878
1239.00,0.4885
1238.00,0.4899
1237.00,0.4919
1236.00,0.4941
1235.00,0.4962
1234.00,0.4977
1233.00,0.4984
1232.00,0.4983
1231.00,0.4974
1230.00,0.4958
1229.00,0.4937
1228.00,0.4913
1227.00,0.4888
1226.00,0.4862
1225.00,0.4838
1224.00,0.4817
1223.00,0.4799
1222.00,0.4783
1221.00,0.4766
1220.00,0.4748
1219.00,0.4732
1218.00,0.4722
1217.00,0.4716
1216.00,0.4713
1215.00,0.4709
1214.00,0.4707
1213.00,0.4706
1212.00,0.4708
1211.00,0.4710
1210.00,0.4711
1209.00,0.4709
1208.00,0.4704
1207.00,0.4696
1206.00,0.4686
1205.00,0.4675
1204.00,0.4665
1203.00,0.4657
1202.00,0.4650
1201.00,0.4643
1200.00,0.4635
1199.00,0.4628
1198.00,0.4623
1197.00,0.4619
1196.00,0.4618
1195.00,0.4618
1194.00,0.4618
1193.00,0.4616
1192.00,0.4615
1191.00,0.4615
1190.00,0.4617
1189.00,0.4621
1188.00,0.4627
1187.00,0.4637
1186.00,0.4650
1185.00,0.4666
1184.00,0.4687
1183.00,0.4713
1182.00,0.4743
1181.00,0.4775
1180.00,0.4809
1179.00,0.4846
1178.00,0.4887
1177.00,0.4935
1176.00,0.4990
1175.00,0.5052
1174.00,0.5115
1173.00,0.5173
1172.00,0.5222
1171.00,0.5263
1170.00,0.5295
1169.00,0.5312
1168.00,0.5316
1167.00,0.5309
1166.00,0.5297
1165.00,0.5286
1164.00,0.5280
1163.00,0.5283
1162.00,0.5296
1161.00,0.5319
1160.00,0.5348
1159.00,0.5377
1158.00,0.5399
1157.00,0.5409
1156.00,0.5409
1155.00,0.5400
1154.00,0.5383
1153.00,0.5358
1152.00,0.5327
1151.00,0.5292
1150.00,0.5254
1149.00,0.5212
1148.00,0.5168
1147.00,0.5120
1146.00,0.5072
1145.00,0.5025
1144.00,0.4983
1143.00,0.4947
1142.00,0.4917
1141.00,0.4888
1140.00,0.4861
1139.00,0.4838
1138.00,0.4818
1137.00,0.4801
1136.00,0.4786
1135.00,0.4770
1134.00,0.4756
1133.00,0.4745
1132.00,0.4738
1131.00,0.4737
1130.00,0.4739
1129.00,0.4739
1128.00,0.4736
1127.00,0.4731
1126.00,0.4729
1125.00,0.4727
1124.00,0.4722
1123.00,0.4714
1122.00,0.4700
1121.00,0.4684
1120.00,0.4670
1119.00,0.4659
1118.00,0.4651
1117.00,0.4644
1116.00,0.4635
1115.00,0.4627
1114.00,0.4622
1113.00,0.4619
1112.00,0.4615
1111.00,0.4611
1110.00,0.4605
1109.00,0.4596
1108.00,0.4583
1107.00,0.4566
1106.00,0.4544
1105.00,0.4518
1104.00,0.4491
1103.00,0.4469
1102.00,0.4453
1101.00,0.4440
1100.00,0.4428
1099.00,0.4419
1098.00,0.4415
1097.00,0.4418
1096.00,0.4426
1095.00,0.4437
1094.00,0.4447
1093.00,0.4455
1092.00,0.4460
1091.00,0.4464
1090.00,0.4462
1089.00,0.4453
1088.00,0.4440
1087.00,0.4425
1086.00,0.4414
1085.00,0.4405
1084.00,0.4399
1083.00,0.4394
1082.00,0.4393
1081.00,0.4395
1080.00,0.4399
1079.00,0.4405
1078.00,0.4409
1077.00,0.4408
1076.00,0.4400
1075.00,0.4386
1074.00,0.4371
1073.00,0.4356
1072.00,0.4338
1071.00,0.4320
1070.00,0.4303
1069.00,0.4293
1068.00,0.4289
1067.00,0.4289
1066.00,0.4289
1065.00,0.4288
1064.00,0.4287
1063.00,0.4288
1062.00,0.4292
1061.00,0.4296
1060.00,0.4297
1059.00,0.4294
1058.00,0.4286
1057.00,0.4276
1056.00,0.4267
1055.00,0.4260
1054.00,0.4258
1053.00,0.4259
1052.00,0.4262
1051.00,0.4266
1050.00,0.4272
1049.00,0.4281
1048.00,0.4291
1047.00,0.4305
1046.00,0.4321
1045.00,0.4337
1044.00,0.4352
1043.00,0.4367
1042.00,0.4384
1041.00,0.4403
1040.00,0.4424
1039.00,0.4446
1038.00,0.4469
1037.00,0.4494
1036.00,0.4524
1035.00,0.4559
1034.00,0.4596
1033.00,0.4626
1032.00,0.4644
1031.00,0.4649
1030.00,0.4643
1029.00,0.4630
1028.00,0.4610
1027.00,0.4583
1026.00,0.4548
1025.00,0.4505
1024.00,0.4461
1023.00,0.4423
1022.00,0.4394
1021.00,0.4376
1020.00,0.4368
1019.00,0.4371
1018.00,0.4388
1017.00,0.4419
1016.00,0.4462
1015.00,0.4511
1014.00,0.4559
1013.00,0.4604
1012.00,0.4644
1011.00,0.4678
1010.00,0.4708
1009.00,0.4735
1008.00,0.4764
1007.00,0.4796
1006.00,0.4832
1005.00,0.4870
1004.00,0.4911
1003.00,0.4954
1002.00,0.4997
1001.00,0.5039
1000.00,0.5079
999.00,0.5115
998.00,0.5145
997.00,0.5167
996.00,0.5181
995.00,0.5189
994.00,0.5195
993.00,0.5199
992.00,0.5201
991.00,0.5203
990.00,0.5206
989.00,0.5215
988.00,0.5233
987.00,0.5262
986.00,0.5301
985.00,0.5349
984.00,0.5404
983.00,0.5464
982.00,0.5529
981.00,0.5595
980.00,0.5660
979.00,0.5722
978.00,0.5776
977.00,0.5822
976.00,0.5859
975.00,0.5886
974.00,0.5900
973.00,0.5897
972.00,0.5876
971.00,0.5837
970.00,0.5784
969.00,0.5722
968.00,0.5652
967.00,0.5575
966.00,0.5492
965.00,0.5408
964.00,0.5325
963.00,0.5247
962.00,0.5176
961.00,0.5113
960.00,0.5060
959.00,0.5018
958.00,0.4981
957.00,0.4942
956.00,0.4895
955.00,0.4838
954.00,0.4775
953.00,0.4705
952.00,0.4631
951.00,0.4554
950.00,0.4480
949.00,0.4412
948.00,0.4349
947.00,0.4290
946.00,0.4234
945.00,0.4183
944.00,0.4137
943.00,0.4097
942.00,0.4065
941.00,0.4037
940.00,0.4012
939.00,0.3989
938.00,0.3966
937.00,0.3944
936.00,0.3923
935.00,0.3902
934.00,0.3879
933.00,0.3852
932.00,0.3823
931.00,0.3793
930.00,0.3766
929.00,0.3742
928.00,0.3720
927.00,0.3700
926.00,0.3684
925.00,0.3673
924.00,0.3668
923.00,0.3667
922.00,0.3670
921.00,0.3675
920.00,0.3677
919.00,0.3670
918.00,0.3654
917.00,0.3632
916.00,0.3609
915.00,0.3585
914.00,0.3560
913.00,0.3536
912.00,0.3516
911.00,0.3501
910.00,0.3488
909.00,0.3476
908.00,0.3467
907.00,0.3461
906.00,0.3458
905.00,0.3457
904.00,0.3458
903.00,0.3461
902.00,0.3469
901.00,0.3483
900.00,0.3503
899.00,0.3527
898.00,0.3552
897.00,0.3578
896.00,0.3606
895.00,0.3636
894.00,0.3665
893.00,0.3688
892.00,0.3706
891.00,0.3719
890.00,0.3726
889.00,0.3724
888.00,0.3712
887.00,0.3694
886.00,0.3671
885.00,0.3649
884.00,0.3632
883.00,0.3623
882.00,0.3618
881.00,0.3615
880.00,0.3614
879.00,0.3616
878.00,0.3622
877.00,0.3628
876.00,0.3633
875.00,0.3638
874.00,0.3645
873.00,0.3651
872.00,0.3653
871.00,0.3654
870.00,0.3656
869.00,0.3662
868.00,0.3674
867.00,0.3687
866.00,0.3699
865.00,0.3708
864.00,0.3716
863.00,0.3725
862.00,0.3735
861.00,0.3747
860.00,0.3761
859.00,0.3773
858.00,0.3782
857.00,0.3790
856.00,0.3801
855.00,0.3813
854.00,0.3822
853.00,0.3821
852.00,0.3811
851.00,0.3797
850.00,0.3783
849.00,0.3768
848.00,0.3752
847.00,0.3732
846.00,0.3705
845.00,0.3672
844.00,0.3634
843.00,0.3594
842.00,0.3556
841.00,0.3517
840.00,0.3481
839.00,0.3451
838.00,0.3430
837.00,0.3420
836.00,0.3418
835.00,0.3425
834.00,0.3438
833.00,0.3456
832.00,0.3479
831.00,0.3509
830.00,0.3549
829.00,0.3595
828.00,0.3647
827.00,0.3704
826.00,0.3764
825.00,0.3827
824.00,0.3891
823.00,0.3957
822.00,0.4025
821.00,0.4094
820.00,0.4164
819.00,0.4235
818.00,0.4304
817.00,0.4359
816.00,0.4393
815.00,0.4401
814.00,0.4388
813.00,0.4356
812.00,0.4311
811.00,0.4258
810.00,0.4205
809.00,0.4155
808.00,0.4108
807.00,0.4063
806.00,0.4019
805.00,0.3972
804.00,0.3918
803.00,0.3850
802.00,0.3772
801.00,0.3689
800.00,0.3613
799.00,0.3551
798.00,0.3504
797.00,0.3468
796.00,0.3438
795.00,0.3415
794.00,0.3401
793.00,0.3393
792.00,0.3390
791.00,0.3393
790.00,0.3405
789.00,0.3426
788.00,0.3456
787.00,0.3491
786.00,0.3533
785.00,0.3582
784.00,0.3639
783.00,0.3700
782.00,0.3759
781.00,0.3810
780.00,0.3855
779.00,0.3900
778.00,0.3945
777.00,0.3990
776.00,0.4031
775.00,0.4069
774.00,0.4105
773.00,0.4138
772.00,0.4167
771.00,0.4188
770.00,0.4196
769.00,0.4193
768.00,0.4187
767.00,0.4187
766.00,0.4192
765.00,0.4199
764.00,0.4200
763.00,0.4198
762.00,0.4199
761.00,0.4209
760.00,0.4229
759.00,0.4259
758.00,0.4302
757.00,0.4356
756.00,0.4423
755.00,0.4500
754.00,0.4581
753.00,0.4659
752.00,0.4729
751.00,0.4784
750.00,0.4822
749.00,0.4841
748.00,0.4847
747.00,0.4853
746.00,0.4871
745.00,0.4909
744.00,0.4965
743.00,0.5033
742.00,0.5103
741.00,0.5168
740.00,0.5218
739.00,0.5252
738.00,0.5277
737.00,0.5303
736.00,0.5339
735.00,0.5388
734.00,0.5454
733.00,0.5539
732.00,0.5644
731.00,0.5768
730.00,0.5908
729.00,0.6069
728.00,0.6258
727.00,0.6478
726.00,0.6722
725.00,0.6966
724.00,0.7178
723.00,0.7323
722.00,0.7353
721.00,0.7221
720.00,0.6923
719.00,0.6506
718.00,0.6044
717.00,0.5594
716.00,0.5188
715.00,0.4840
714.00,0.4546
713.00,0.4298
712.00,0.4086
711.00,0.3905
710.00,0.3750
709.00,0.3615
708.00,0.3496
707.00,0.3395
706.00,0.3310
705.00,0.3237
704.00,0.3170
703.00,0.3108
702.00,0.3055
701.00,0.3008
700.00,0.2961
699.00,0.2908
698.00,0.2843
697.00,0.2765
696.00,0.2682
695.00,0.2602
694.00,0.2534
693.00,0.2481
692.00,0.2441
691.00,0.2410
690.00,0.2384
689.00,0.2365
688.00,0.2356
687.00,0.2354
686.00,0.2354
685.00,0.2350
684.00,0.2344
683.00,0.2343
682.00,0.2346
681.00,0.2349
680.00,0.2351
679.00,0.2356
678.00,0.2368
677.00,0.2384
676.00,0.2401
675.00,0.2420
674.00,0.2440
673.00,0.2461
672.00,0.2479
671.00,0.2495
670.00,0.2515
669.00,0.2548
668.00,0.2594
667.00,0.2634
666.00,0.2659
665.00,0.2676
664.00,0.2691
663.00,0.2709
662.00,0.2732
661.00,0.2763
660.00,0.2800
659.00,0.2836
658.00,0.2867
657.00,0.2891
656.00,0.2912
655.00,0.2930
654.00,0.2941
653.00,0.2944
652.00,0.2939
651.00,0.2930
650.00,0.2915
649.00,0.2894
648.00,0.2870
647.00,0.2850
646.00,0.2839
645.00,0.2840
644.00,0.2847
643.00,0.2853
642.00,0.2854
641.00,0.2853
640.00,0.2856
639.00,0.2863
638.00,0.2868
637.00,0.2867
636.00,0.2863
635.00,0.2862
634.00,0.2861
633.00,0.2856
632.00,0.2845
631.00,0.2832
630.00,0.2829
629.00,0.2839
628.00,0.2860
627.00,0.2884
626.00,0.2907
625.00,0.2931
624.00,0.2959
623.00,0.2992
622.00,0.3021
621.00,0.3040
620.00,0.3054
619.00,0.3067
618.00,0.3081
617.00,0.3088
616.00,0.3085
615.00,0.3076
614.00,0.3066
613.00,0.3057
612.00,0.3047
611.00,0.3041
610.00,0.3037
609.00,0.3033
608.00,0.3024
607.00,0.3012
606.00,0.3000
605.00,0.2992
604.00,0.2986
603.00,0.2979
602.00,0.2971
601.00,0.2961
600.00,0.2947
599.00,0.2937
598.00,0.2938
597.00,0.2952
596.00,0.2975
595.00,0.2998
594.00,0.3017
593.00,0.3032
592.00,0.3044
591.00,0.3052
590.00,0.3057
589.00,0.3064
588.00,0.3080
587.00,0.3110
586.00,0.3145
585.00,0.3174
584.00,0.3193
583.00,0.3208
582.00,0.3225
581.00,0.3248
580.00,0.3274
579.00,0.3296
578.00,0.3311
577.00,0.3319
576.00,0.3324
575.00,0.3328
574.00,0.3327
573.00,0.3322
572.00,0.3315
571.00,0.3313
570.00,0.3315
569.00,0.3319
568.00,0.3323
567.00,0.3327
566.00,0.3332
565.00,0.3332
564.00,0.3328
563.00,0.3319
562.00,0.3311
561.00,0.3303
560.00,0.3298
559.00,0.3300
558.00,0.3310
557.00,0.3323
556.00,0.3329
555.00,0.3328
554.00,0.3324
553.00,0.3320
552.00,0.3314
551.00,0.3307
550.00,0.3302
