Created as New Dataset,
cm-1,A
4000.00,0.3438
3999.00,0.3434
3998.00,0.3430
3997.00,0.3425
3996.00,0.3421
3995.00,0.3417
3994.00,0.3413
3993.00,0.3409
3992.00,0.3406
3991.00,0.3401
3990.00,0.3397
3989.00,0.3393
3988.00,0.3388
3987.00,0.3384
3986.00,0.3380
3985.00,0.3375
3984.00,0.3371
3983.00,0.3366
3982.00,0.3362
3981.00,0.3358
3980.00,0.3354
3979.00,0.3351
3978.00,0.3347
3977.00,0.3343
3976.00,0.3339
3975.00,0.3335
3974.00,0.3332
3973.00,0.3329
3972.00,0.3326
3971.00,0.3323
3970.00,0.3320
3969.00,0.3317
3968.00,0.3314
3967.00,0.3311
3966.00,0.3309
3965.00,0.3306
3964.00,0.3304
3963.00,0.3301
3962.00,0.3299
3961.00,0.3297
3960.00,0.3295
3959.00,0.3294
3958.00,0.3292
3957.00,0.3290
3956.00,0.3289
3955.00,0.3287
3954.00,0.3286
3953.00,0.3285
3952.00,0.3285
3951.00,0.3285
3950.00,0.3284
3949.00,0.3284
3948.00,0.3283
3947.00,0.3283
3946.00,0.3282
3945.00,0.3282
3944.00,0.3281
3943.00,0.3280
3942.00,0.3279
3941.00,0.3278
3940.00,0.3276
3939.00,0.3275
3938.00,0.3274
3937.00,0.3274
3936.00,0.3273
3935.00,0.3272
3934.00,0.3271
3933.00,0.3271
3932.00,0.3271
3931.00,0.3272
3930.00,0.3272
3929.00,0.3272
3928.00,0.3271
3927.00,0.3271
3926.00,0.3271
3925.00,0.3271
3924.00,0.3272
3923.00,0.3272
3922.00,0.3272
3921.00,0.3272
3920.00,0.3272
3919.00,0.3271
3918.00,0.3271
3917.00,0.3271
3916.00,0.3272
3915.00,0.3272
3914.00,0.3273
3913.00,0.3273
3912.00,0.3272
3911.00,0.3271
3910.00,0.3270
3909.00,0.3270
3908.00,0.3270
3907.00,0.3270
3906.00,0.3270
3905.00,0.3269
3904.00,0.3269
3903.00,0.3268
3902.00,0.3268
3901.00,0.3267
3900.00,0.3265
3899.00,0.3263
3898.00,0.3262
3897.00,0.3260
3896.00,0.3259
3895.00,0.3258
3894.00,0.3256
3893.00,0.3255
3892.00,0.3253
3891.00,0.3251
3890.00,0.3250
3889.00,0.3249
3888.00,0.3249
3887.00,0.3249
3886.00,0.3249
3885.00,0.3249
3884.00,0.3249
3883.00,0.3249
3882.00,0.3248
3881.00,0.3247
3880.00,0.3247
3879.00,0.3246
3878.00,0.3246
3877.00,0.3245
3876.00,0.3244
3875.00,0.3243
3874.00,0.3242
3873.00,0.3241
3872.00,0.3239
3871.00,0.3237
3870.00,0.3236
3869.00,0.3236
3868.00,0.3235
3867.00,0.3234
3866.00,0.3233
3865.00,0.3232
3864.00,0.3230
3863.00,0.3229
3862.00,0.3227
3861.00,0.3225
3860.00,0.3224
3859.00,0.3223
3858.00,0.3223
3857.00,0.3222
3856.00,0.3222
3855.00,0.3223
3854.00,0.3224
3853.00,0.3225
3852.00,0.3225
3851.00,0.3225
3850.00,0.3225
3849.00,0.3225
3848.00,0.3225
3847.00,0.3225
3846.00,0.3224
3845.00,0.3224
3844.00,0.3224
3843.00,0.3224
3842.00,0.3223
3841.00,0.3223
3840.00,0.3222
3839.00,0.3221
3838.00,0.3220
3837.00,0.3220
3836.00,0.3219
3835.00,0.3218
3834.00,0.3218
3833.00,0.3217
3832.00,0.3215
3831.00,0.3212
3830.00,0.3210
3829.00,0.3209
3828.00,0.3208
3827.00,0.3207
3826.00,0.3207
3825.00,0.3206
3824.00,0.3204
3823.00,0.3204
3822.00,0.3203
3821.00,0.3202
3820.00,0.3201
3819.00,0.3198
3818.00,0.3196
3817.00,0.3194
3816.00,0.3192
3815.00,0.3190
3814.00,0.3187
3813.00,0.3184
3812.00,0.3182
3811.00,0.3180
3810.00,0.3179
3809.00,0.3177
3808.00,0.3175
3807.00,0.3173
3806.00,0.3171
3805.00,0.3169
3804.00,0.3167
3803.00,0.3165
3802.00,0.3163
3801.00,0.3161
3800.00,0.3158
3799.00,0.3155
3798.00,0.3152
3797.00,0.3149
3796.00,0.3146
3795.00,0.3143
3794.00,0.3140
3793.00,0.3138
3792.00,0.3136
3791.00,0.3133
3790.00,0.3131
3789.00,0.3129
3788.00,0.3127
3787.00,0.3125
3786.00,0.3124
3785.00,0.3123
3784.00,0.3122
3783.00,0.3121
3782.00,0.3119
3781.00,0.3118
3780.00,0.3116
3779.00,0.3115
3778.00,0.3113
3777.00,0.3111
3776.00,0.3110
3775.00,0.3108
3774.00,0.3106
3773.00,0.3105
3772.00,0.3103
3771.00,0.3102
3770.00,0.3100
3769.00,0.3099
3768.00,0.3098
3767.00,0.3096
3766.00,0.3094
3765.00,0.3092
3764.00,0.3090
3763.00,0.3087
3762.00,0.3085
3761.00,0.3083
3760.00,0.3082
3759.00,0.3080
3758.00,0.3079
3757.00,0.3077
3756.00,0.3075
3755.00,0.3073
3754.00,0.3071
3753.00,0.3070
3752.00,0.3069
3751.00,0.3068
3750.00,0.3067
3749.00,0.3066
3748.00,0.3066
3747.00,0.3065
3746.00,0.3065
3745.00,0.3064
3744.00,0.3064
3743.00,0.3063
3742.00,0.3062
3741.00,0.3061
3740.00,0.3060
3739.00,0.3060
3738.00,0.3060
3737.00,0.3059
3736.00,0.3057
3735.00,0.3056
3734.00,0.3055
3733.00,0.3053
3732.00,0.3052
3731.00,0.3050
3730.00,0.3048
3729.00,0.3045
3728.00,0.3043
3727.00,0.3041
3726.00,0.3039
3725.00,0.3038
3724.00,0.3036
3723.00,0.3034
3722.00,0.3033
3721.00,0.3031
3720.00,0.3029
3719.00,0.3028
3718.00,0.3026
3717.00,0.3025
3716.00,0.3024
3715.00,0.3023
3714.00,0.3023
3713.00,0.3023
3712.00,0.3023
3711.00,0.3024
3710.00,0.3024
3709.00,0.3023
3708.00,0.3023
3707.00,0.3022
3706.00,0.3021
3705.00,0.3020
3704.00,0.3020
3703.00,0.3020
3702.00,0.3020
3701.00,0.3020
3700.00,0.3020
3699.00,0.3020
3698.00,0.3020
3697.00,0.3019
3696.00,0.3019
3695.00,0.3018
3694.00,0.3017
3693.00,0.3017
3692.00,0.3016
3691.00,0.3016
3690.00,0.3015
3689.00,0.3014
3688.00,0.3014
3687.00,0.3013
3686.00,0.3013
3685.00,0.3011
3684.00,0.3010
3683.00,0.3008
3682.00,0.3007
3681.00,0.3006
3680.00,0.3006
3679.00,0.3006
3678.00,0.3007
3677.00,0.3008
3676.00,0.3009
3675.00,0.3010
3674.00,0.3011
3673.00,0.3012
3672.00,0.3013
3671.00,0.3015
3670.00,0.3016
3669.00,0.3017
3668.00,0.3017
3667.00,0.3016
3666.00,0.3015
3665.00,0.3014
3664.00,0.3014
3663.00,0.3013
3662.00,0.3012
3661.00,0.3011
3660.00,0.3011
3659.00,0.3010
3658.00,0.3009
3657.00,0.3009
3656.00,0.3009
3655.00,0.3009
3654.00,0.3009
3653.00,0.3010
3652.00,0.3010
3651.00,0.3010
3650.00,0.3010
3649.00,0.3009
3648.00,0.3008
3647.00,0.3008
3646.00,0.3009
3645.00,0.3009
3644.00,0.3009
3643.00,0.3008
3642.00,0.3007
3641.00,0.3007
3640.00,0.3007
3639.00,0.3007
3638.00,0.3008
3637.00,0.3008
3636.00,0.3009
3635.00,0.3010
3634.00,0.3011
3633.00,0.3011
3632.00,0.3011
3631.00,0.3011
3630.00,0.3011
3629.00,0.3012
3628.00,0.3013
3627.00,0.3014
3626.00,0.3014
3625.00,0.3013
3624.00,0.3013
3623.00,0.3012
3622.00,0.3011
3621.00,0.3010
3620.00,0.3008
3619.00,0.3007
3618.00,0.3005
3617.00,0.3004
3616.00,0.3003
3615.00,0.3001
3614.00,0.3000
3613.00,0.2999
3612.00,0.2997
3611.00,0.2994
3610.00,0.2992
3609.00,0.2990
3608.00,0.2988
3607.00,0.2985
3606.00,0.2982
3605.00,0.2979
3604.00,0.2974
3603.00,0.2969
3602.00,0.2964
3601.00,0.2958
3600.00,0.2951
3599.00,0.2943
3598.00,0.2936
3597.00,0.2929
3596.00,0.2921
3595.00,0.2915
3594.00,0.2908
3593.00,0.2902
3592.00,0.2897
3591.00,0.2892
3590.00,0.2888
3589.00,0.2884
3588.00,0.2880
3587.00,0.2876
3586.00,0.2873
3585.00,0.2870
3584.00,0.2868
3583.00,0.2865
3582.00,0.2863
3581.00,0.2861
3580.00,0.2859
3579.00,0.2857
3578.00,0.2855
3577.00,0.2853
3576.00,0.2852
3575.00,0.2850
3574.00,0.2848
3573.00,0.2847
3572.00,0.2846
3571.00,0.2846
3570.00,0.2846
3569.00,0.2845
3568.00,0.2845
3567.00,0.2844
3566.00,0.2843
3565.00,0.2842
3564.00,0.2841
3563.00,0.2840
3562.00,0.2839
3561.00,0.2838
3560.00,0.2837
3559.00,0.2836
3558.00,0.2836
3557.00,0.2835
3556.00,0.2835
3555.00,0.2835
3554.00,0.2835
3553.00,0.2835
3552.00,0.2834
3551.00,0.2834
3550.00,0.2834
3549.00,0.2834
3548.00,0.2833
3547.00,0.2834
3546.00,0.2834
3545.00,0.2834
3544.00,0.2835
3543.00,0.2835
3542.00,0.2836
3541.00,0.2836
3540.00,0.2837
3539.00,0.2837
3538.00,0.2838
3537.00,0.2838
3536.00,0.2838
3535.00,0.2839
3534.00,0.2839
3533.00,0.2840
3532.00,0.2841
3531.00,0.2842
3530.00,0.2843
3529.00,0.2844
3528.00,0.2845
3527.00,0.2846
3526.00,0.2846
3525.00,0.2847
3524.00,0.2848
3523.00,0.2849
3522.00,0.2850
3521.00,0.2851
3520.00,0.2851
3519.00,0.2851
3518.00,0.2852
3517.00,0.2853
3516.00,0.2855
3515.00,0.2856
3514.00,0.2858
3513.00,0.2859
3512.00,0.2860
3511.00,0.2861
3510.00,0.2862
3509.00,0.2864
3508.00,0.2866
3507.00,0.2868
3506.00,0.2869
3505.00,0.2871
3504.00,0.2872
3503.00,0.2874
3502.00,0.2875
3501.00,0.2877
3500.00,0.2879
3499.00,0.2881
3498.00,0.2883
3497.00,0.2884
3496.00,0.2886
3495.00,0.2888
3494.00,0.2890
3493.00,0.2891
3492.00,0.2893
3491.00,0.2894
3490.00,0.2896
3489.00,0.2899
3488.00,0.2901
3487.00,0.2903
3486.00,0.2905
3485.00,0.2908
3484.00,0.2909
3483.00,0.2911
3482.00,0.2912
3481.00,0.2913
3480.00,0.2915
3479.00,0.2917
3478.00,0.2919
3477.00,0.2922
3476.00,0.2924
3475.00,0.2926
3474.00,0.2928
3473.00,0.2931
3472.00,0.2934
3471.00,0.2936
3470.00,0.2939
3469.00,0.2942
3468.00,0.2944
3467.00,0.2947
3466.00,0.2950
3465.00,0.2952
3464.00,0.2955
3463.00,0.2958
3462.00,0.2961
3461.00,0.2965
3460.00,0.2968
3459.00,0.2971
3458.00,0.2974
3457.00,0.2977
3456.00,0.2979
3455.00,0.2982
3454.00,0.2985
3453.00,0.2990
3452.00,0.2994
3451.00,0.2998
3450.00,0.3002
3449.00,0.3007
3448.00,0.3012
3447.00,0.3018
3446.00,0.3025
3445.00,0.3033
3444.00,0.3040
3443.00,0.3048
3442.00,0.3055
3441.00,0.3062
3440.00,0.3070
3439.00,0.3077
3438.00,0.3083
3437.00,0.3090
3436.00,0.3096
3435.00,0.3101
3434.00,0.3106
3433.00,0.3111
3432.00,0.3115
3431.00,0.3120
3430.00,0.3124
3429.00,0.3130
3428.00,0.3135
3427.00,0.3140
3426.00,0.3146
3425.00,0.3151
3424.00,0.3157
3423.00,0.3163
3422.00,0.3171
3421.00,0.3179
3420.00,0.3188
3419.00,0.3198
3418.00,0.3208
3417.00,0.3219
3416.00,0.3231
3415.00,0.3244
3414.00,0.3257
3413.00,0.3272
3412.00,0.3289
3411.00,0.3306
3410.00,0.3324
3409.00,0.3344
3408.00,0.3365
3407.00,0.3388
3406.00,0.3412
3405.00,0.3437
3404.00,0.3463
3403.00,0.3490
3402.00,0.3519
3401.00,0.3549
3400.00,0.3581
3399.00,0.3614
3398.00,0.3649
3397.00,0.3686
3396.00,0.3724
3395.00,0.3764
3394.00,0.3805
3393.00,0.3848
3392.00,0.3893
3391.00,0.3939
3390.00,0.3986
3389.00,0.4035
3388.00,0.4087
3387.00,0.4140
3386.00,0.4194
3385.00,0.4251
3384.00,0.4310
3383.00,0.4371
3382.00,0.4434
3381.00,0.4499
3380.00,0.4566
3379.00,0.4636
3378.00,0.4709
3377.00,0.4784
3376.00,0.4861
3375.00,0.4942
3374.00,0.5024
3373.00,0.5110
3372.00,0.5198
3371.00,0.5290
3370.00,0.5384
3369.00,0.5480
3368.00,0.5578
3367.00,0.5678
3366.00,0.5778
3365.00,0.5879
3364.00,0.5981
3363.00,0.6084
3362.00,0.6187
3361.00,0.6289
3360.00,0.6389
3359.00,0.6488
3358.00,0.6586
3357.00,0.6683
3356.00,0.6779
3355.00,0.6871
3354.00,0.6962
3353.00,0.7050
3352.00,0.7138
3351.00,0.7224
3350.00,0.7311
3349.00,0.7397
3348.00,0.7482
3347.00,0.7567
3346.00,0.7650
3345.00,0.7731
3344.00,0.7810
3343.00,0.7885
3342.00,0.7955
3341.00,0.8023
3340.00,0.8090
3339.00,0.8157
3338.00,0.8224
3337.00,0.8291
3336.00,0.8356
3335.00,0.8419
3334.00,0.8479
3333.00,0.8535
3332.00,0.8588
3331.00,0.8633
3330.00,0.8671
3329.00,0.8702
3328.00,0.8725
3327.00,0.8743
3326.00,0.8758
3325.00,0.8771
3324.00,0.8785
3323.00,0.8803
3322.00,0.8825
3321.00,0.8853
3320.00,0.8887
3319.00,0.8927
3318.00,0.8974
3317.00,0.9031
3316.00,0.9096
3315.00,0.9171
3314.00,0.9253
3313.00,0.9345
3312.00,0.9446
3311.00,0.9555
3310.00,0.9674
3309.00,0.9799
3308.00,0.9930
3307.00,1.0066
3306.00,1.0208
3305.00,1.0356
3304.00,1.0507
3303.00,1.0659
3302.00,1.0808
3301.00,1.0953
3300.00,1.1092
3299.00,1.1222
3298.00,1.1342
3297.00,1.1447
3296.00,1.1531
3295.00,1.1592
3294.00,1.1629
3293.00,1.1638
3292.00,1.1617
3291.00,1.1562
3290.00,1.1474
3289.00,1.1354
3288.00,1.1204
3287.00,1.1024
3286.00,1.0819
3285.00,1.0592
3284.00,1.0346
3283.00,1.0086
3282.00,0.9816
3281.00,0.9541
3280.00,0.9264
3279.00,0.8990
3278.00,0.8722
3277.00,0.8462
3276.00,0.8211
3275.00,0.7972
3274.00,0.7745
3273.00,0.7531
3272.00,0.7332
3271.00,0.7146
3270.00,0.6973
3269.00,0.6812
3268.00,0.6662
3267.00,0.6523
3266.00,0.6394
3265.00,0.6273
3264.00,0.6160
3263.00,0.6054
3262.00,0.5955
3261.00,0.5863
3260.00,0.5778
3259.00,0.5697
3258.00,0.5621
3257.00,0.5550
3256.00,0.5482
3255.00,0.5418
3254.00,0.5359
3253.00,0.5303
3252.00,0.5250
3251.00,0.5201
3250.00,0.5156
3249.00,0.5114
3248.00,0.5075
3247.00,0.5039
3246.00,0.5006
3245.00,0.4974
3244.00,0.4944
3243.00,0.4916
3242.00,0.4889
3241.00,0.4864
3240.00,0.4842
3239.00,0.4822
3238.00,0.4803
3237.00,0.4784
3236.00,0.4766
3235.00,0.4749
3234.00,0.4732
3233.00,0.4716
3232.00,0.4700
3231.00,0.4685
3230.00,0.4669
3229.00,0.4655
3228.00,0.4641
3227.00,0.4628
3226.00,0.4615
3225.00,0.4602
3224.00,0.4589
3223.00,0.4577
3222.00,0.4565
3221.00,0.4554
3220.00,0.4543
3219.00,0.4533
3218.00,0.4524
3217.00,0.4515
3216.00,0.4508
3215.00,0.4500
3214.00,0.4493
3213.00,0.4486
3212.00,0.4480
3211.00,0.4475
3210.00,0.4471
3209.00,0.4467
3208.00,0.4464
3207.00,0.4461
3206.00,0.4458
3205.00,0.4455
3204.00,0.4453
3203.00,0.4451
3202.00,0.4450
3201.00,0.4450
3200.00,0.4449
3199.00,0.4447
3198.00,0.4444
3197.00,0.4442
3196.00,0.4440
3195.00,0.4438
3194.00,0.4435
3193.00,0.4433
3192.00,0.4431
3191.00,0.4429
3190.00,0.4427
3189.00,0.4424
3188.00,0.4422
3187.00,0.4420
3186.00,0.4418
3185.00,0.4417
3184.00,0.4416
3183.00,0.4414
3182.00,0.4414
3181.00,0.4414
3180.00,0.4414
3179.00,0.4414
3178.00,0.4414
3177.00,0.4414
3176.00,0.4414
3175.00,0.4413
3174.00,0.4413
3173.00,0.4413
3172.00,0.4414
3171.00,0.4414
3170.00,0.4414
3169.00,0.4415
3168.00,0.4415
3167.00,0.4415
3166.00,0.4415
3165.00,0.4416
3164.00,0.4417
3163.00,0.4419
3162.00,0.4420
3161.00,0.4422
3160.00,0.4424
3159.00,0.4426
3158.00,0.4429
3157.00,0.4432
3156.00,0.4435
3155.00,0.4439
3154.00,0.4443
3153.00,0.4448
3152.00,0.4453
3151.00,0.4459
3150.00,0.4465
3149.00,0.4473
3148.00,0.4481
3147.00,0.4491
3146.00,0.4501
3145.00,0.4512
3144.00,0.4524
3143.00,0.4537
3142.00,0.4551
3141.00,0.4567
3140.00,0.4585
3139.00,0.4603
3138.00,0.4622
3137.00,0.4643
3136.00,0.4665
3135.00,0.4688
3134.00,0.4713
3133.00,0.4738
3132.00,0.4764
3131.00,0.4790
3130.00,0.4816
3129.00,0.4842
3128.00,0.4868
3127.00,0.4893
3126.00,0.4918
3125.00,0.4943
3124.00,0.4966
3123.00,0.4989
3122.00,0.5011
3121.00,0.5031
3120.00,0.5051
3119.00,0.5069
3118.00,0.5086
3117.00,0.5103
3116.00,0.5121
3115.00,0.5138
3114.00,0.5156
3113.00,0.5175
3112.00,0.5194
3111.00,0.5212
3110.00,0.5231
3109.00,0.5251
3108.00,0.5271
3107.00,0.5291
3106.00,0.5310
3105.00,0.5327
3104.00,0.5341
3103.00,0.5352
3102.00,0.5360
3101.00,0.5365
3100.00,0.5367
3099.00,0.5364
3098.00,0.5357
3097.00,0.5348
3096.00,0.5335
3095.00,0.5321
3094.00,0.5306
3093.00,0.5290
3092.00,0.5275
3091.00,0.5261
3090.00,0.5249
3089.00,0.5238
3088.00,0.5229
3087.00,0.5222
3086.00,0.5218
3085.00,0.5217
3084.00,0.5219
3083.00,0.5223
3082.00,0.5231
3081.00,0.5243
3080.00,0.5257
3079.00,0.5275
3078.00,0.5296
3077.00,0.5319
3076.00,0.5346
3075.00,0.5375
3074.00,0.5405
3073.00,0.5437
3072.00,0.5469
3071.00,0.5501
3070.00,0.5533
3069.00,0.5566
3068.00,0.5599
3067.00,0.5632
3066.00,0.5665
3065.00,0.5697
3064.00,0.5728
3063.00,0.5757
3062.00,0.5786
3061.00,0.5814
3060.00,0.5843
3059.00,0.5874
3058.00,0.5907
3057.00,0.5942
3056.00,0.5979
3055.00,0.6017
3054.00,0.6057
3053.00,0.6097
3052.00,0.6138
3051.00,0.6177
3050.00,0.6216
3049.00,0.6254
3048.00,0.6292
3047.00,0.6333
3046.00,0.6377
3045.00,0.6424
3044.00,0.6474
3043.00,0.6527
3042.00,0.6583
3041.00,0.6639
3040.00,0.6695
3039.00,0.6750
3038.00,0.6804
3037.00,0.6859
3036.00,0.6917
3035.00,0.6979
3034.00,0.7048
3033.00,0.7123
3032.00,0.7203
3031.00,0.7284
3030.00,0.7365
3029.00,0.7440
3028.00,0.7509
3027.00,0.7568
3026.00,0.7619
3025.00,0.7664
3024.00,0.7708
3023.00,0.7756
3022.00,0.7810
3021.00,0.7873
3020.00,0.7943
3019.00,0.8022
3018.00,0.8108
3017.00,0.8201
3016.00,0.8300
3015.00,0.8406
3014.00,0.8518
3013.00,0.8639
3012.00,0.8767
3011.00,0.8901
3010.00,0.9041
3009.00,0.9189
3008.00,0.9344
3007.00,0.9508
3006.00,0.9679
3005.00,0.9857
3004.00,1.0042
3003.00,1.0236
3002.00,1.0438
3001.00,1.0650
3000.00,1.0872
2999.00,1.1108
2998.00,1.1363
2997.00,1.1639
2996.00,1.1944
2995.00,1.2281
2994.00,1.2652
2993.00,1.3056
2992.00,1.3496
2991.00,1.3978
2990.00,1.4510
2989.00,1.5098
2988.00,1.5749
2987.00,1.6473
2986.00,1.7278
2985.00,1.8172
2984.00,1.9160
2983.00,2.0255
2982.00,2.1472
2981.00,2.2814
2980.00,2.4276
2979.00,2.5873
2978.00,2.7655
2977.00,2.9625
2976.00,3.1637
2975.00,3.3410
2974.00,3.4818
2973.00,3.6024
2972.00,3.7113
2971.00,3.8111
2970.00,3.9167
2969.00,4.0269
2968.00,4.1075
2967.00,4.0872
2966.00,3.9764
2965.00,3.8868
2964.00,3.8755
2963.00,3.9354
2962.00,3.9821
2961.00,3.9600
2960.00,3.9686
2959.00,4.0576
2958.00,4.1701
2957.00,4.2736
2956.00,4.2135
2955.00,4.0374
2954.00,3.9191
2953.00,3.9097
2952.00,3.9614
2951.00,3.9707
2950.00,3.9723
2949.00,3.9808
2948.00,3.9853
2947.00,3.9968
2946.00,4.0385
2945.00,4.0705
2944.00,4.1101
2943.00,4.2875
2942.00,4.4499
2941.00,4.3400
2940.00,4.1948
2939.00,4.1329
2938.00,4.0758
2937.00,3.9619
2936.00,3.8968
2935.00,3.9601
2934.00,4.1945
2933.00,4.3346
2932.00,4.1864
2931.00,4.0735
2930.00,4.1541
2929.00,4.3101
2928.00,4.2565
2927.00,4.1350
2926.00,4.0533
2925.00,4.0695
2924.00,4.0973
2923.00,3.9955
2922.00,3.8996
2921.00,3.9212
2920.00,4.1038
2919.00,4.3479
2918.00,4.4621
2917.00,4.4864
2916.00,4.4359
2915.00,4.3642
2914.00,4.1844
2913.00,3.9724
2912.00,3.8269
2911.00,3.7584
2910.00,3.7541
2909.00,3.7752
2908.00,3.8209
2907.00,3.8995
2906.00,3.9786
2905.00,4.0218
2904.00,4.0336
2903.00,4.0531
2902.00,4.1376
2901.00,4.2635
2900.00,4.2396
2899.00,4.1293
2898.00,4.0967
2897.00,4.2329
2896.00,4.4117
2895.00,4.2988
2894.00,4.2654
2893.00,4.2833
2892.00,4.1416
2891.00,3.9874
2890.00,3.8871
2889.00,3.8623
2888.00,3.8484
2887.00,3.9024
2886.00,4.0742
2885.00,4.2391
2884.00,4.3050
2883.00,4.3442
2882.00,4.5241
2881.00,4.9254
2880.00,4.8319
2879.00,4.4823
2878.00,4.2705
2877.00,4.1790
2876.00,4.1552
2875.00,4.1426
2874.00,3.9973
2873.00,3.7839
2872.00,3.6659
2871.00,3.6749
2870.00,3.8096
2869.00,4.0185
2868.00,4.0647
2867.00,4.0001
2866.00,4.0171
2865.00,4.2391
2864.00,4.5759
2863.00,4.3291
2862.00,4.0842
2861.00,4.0249
2860.00,4.2289
2859.00,4.6562
2858.00,4.6161
2857.00,4.2762
2856.00,4.0419
2855.00,3.9214
2854.00,3.8397
2853.00,3.7854
2852.00,3.7524
2851.00,3.7343
2850.00,3.7160
2849.00,3.6881
2848.00,3.6811
2847.00,3.7194
2846.00,3.7985
2845.00,3.8950
2844.00,3.9601
2843.00,3.9554
2842.00,3.9223
2841.00,3.8765
2840.00,3.7779
2839.00,3.6231
2838.00,3.4245
2837.00,3.1818
2836.00,2.9289
2835.00,2.7022
2834.00,2.5100
2833.00,2.3452
2832.00,2.2010
2831.00,2.0738
2830.00,1.9617
2829.00,1.8625
2828.00,1.7747
2827.00,1.6968
2826.00,1.6276
2825.00,1.5656
2824.00,1.5096
2823.00,1.4587
2822.00,1.4122
2821.00,1.3694
2820.00,1.3298
2819.00,1.2930
2818.00,1.2586
2817.00,1.2263
2816.00,1.1958
2815.00,1.1669
2814.00,1.1397
2813.00,1.1138
2812.00,1.0892
2811.00,1.0657
2810.00,1.0430
2809.00,1.0214
2808.00,1.0006
2807.00,0.9809
2806.00,0.9622
2805.00,0.9444
2804.00,0.9274
2803.00,0.9114
2802.00,0.8961
2801.00,0.8817
2800.00,0.8679
2799.00,0.8548
2798.00,0.8423
2797.00,0.8304
2796.00,0.8188
2795.00,0.8076
2794.00,0.7967
2793.00,0.7861
2792.00,0.7757
2791.00,0.7653
2790.00,0.7550
2789.00,0.7447
2788.00,0.7343
2787.00,0.7240
2786.00,0.7137
2785.00,0.7036
2784.00,0.6937
2783.00,0.6841
2782.00,0.6748
2781.00,0.6658
2780.00,0.6572
2779.00,0.6489
2778.00,0.6411
2777.00,0.6337
2776.00,0.6267
2775.00,0.6201
2774.00,0.6140
2773.00,0.6081
2772.00,0.6027
2771.00,0.5976
2770.00,0.5929
2769.00,0.5886
2768.00,0.5846
2767.00,0.5811
2766.00,0.5780
2765.00,0.5752
2764.00,0.5729
2763.00,0.5709
2762.00,0.5692
2761.00,0.5676
2760.00,0.5661
2759.00,0.5646
2758.00,0.5631
2757.00,0.5617
2756.00,0.5603
2755.00,0.5590
2754.00,0.5579
2753.00,0.5569
2752.00,0.5561
2751.00,0.5555
2750.00,0.5552
2749.00,0.5552
2748.00,0.5553
2747.00,0.5556
2746.00,0.5562
2745.00,0.5570
2744.00,0.5582
2743.00,0.5596
2742.00,0.5613
2741.00,0.5635
2740.00,0.5660
2739.00,0.5691
2738.00,0.5725
2737.00,0.5763
2736.00,0.5803
2735.00,0.5847
2734.00,0.5892
2733.00,0.5939
2732.00,0.5982
2731.00,0.6020
2730.00,0.6051
2729.00,0.6072
2728.00,0.6084
2727.00,0.6085
2726.00,0.6080
2725.00,0.6068
2724.00,0.6051
2723.00,0.6031
2722.00,0.6007
2721.00,0.5979
2720.00,0.5948
2719.00,0.5913
2718.00,0.5875
2717.00,0.5833
2716.00,0.5787
2715.00,0.5739
2714.00,0.5690
2713.00,0.5643
2712.00,0.5598
2711.00,0.5558
2710.00,0.5522
2709.00,0.5491
2708.00,0.5464
2707.00,0.5440
2706.00,0.5420
2705.00,0.5403
2704.00,0.5391
2703.00,0.5381
2702.00,0.5374
2701.00,0.5370
2700.00,0.5368
2699.00,0.5369
2698.00,0.5372
2697.00,0.5378
2696.00,0.5385
2695.00,0.5394
2694.00,0.5405
2693.00,0.5417
2692.00,0.5429
2691.00,0.5440
2690.00,0.5451
2689.00,0.5460
2688.00,0.5468
2687.00,0.5475
2686.00,0.5481
2685.00,0.5486
2684.00,0.5489
2683.00,0.5491
2682.00,0.5493
2681.00,0.5494
2680.00,0.5494
2679.00,0.5495
2678.00,0.5496
2677.00,0.5497
2676.00,0.5497
2675.00,0.5498
2674.00,0.5498
2673.00,0.5498
2672.00,0.5498
2671.00,0.5496
2670.00,0.5491
2669.00,0.5482
2668.00,0.5470
2667.00,0.5453
2666.00,0.5434
2665.00,0.5412
2664.00,0.5389
2663.00,0.5365
2662.00,0.5341
2661.00,0.5316
2660.00,0.5291
2659.00,0.5265
2658.00,0.5240
2657.00,0.5214
2656.00,0.5190
2655.00,0.5167
2654.00,0.5146
2653.00,0.5127
2652.00,0.5109
2651.00,0.5092
2650.00,0.5077
2649.00,0.5062
2648.00,0.5048
2647.00,0.5035
2646.00,0.5022
2645.00,0.5010
2644.00,0.4999
2643.00,0.4988
2642.00,0.4977
2641.00,0.4968
2640.00,0.4959
2639.00,0.4950
2638.00,0.4942
2637.00,0.4933
2636.00,0.4924
2635.00,0.4915
2634.00,0.4907
2633.00,0.4898
2632.00,0.4890
2631.00,0.4883
2630.00,0.4877
2629.00,0.4870
2628.00,0.4864
2627.00,0.4857
2626.00,0.4850
2625.00,0.4842
2624.00,0.4835
2623.00,0.4828
2622.00,0.4821
2621.00,0.4815
2620.00,0.4808
2619.00,0.4801
2618.00,0.4794
2617.00,0.4787
2616.00,0.4779
2615.00,0.4771
2614.00,0.4763
2613.00,0.4756
2612.00,0.4747
2611.00,0.4737
2610.00,0.4727
2609.00,0.4717
2608.00,0.4707
2607.00,0.4696
2606.00,0.4686
2605.00,0.4675
2604.00,0.4664
2603.00,0.4652
2602.00,0.4639
2601.00,0.4627
2600.00,0.4614
2599.00,0.4602
2598.00,0.4588
2597.00,0.4574
2596.00,0.4559
2595.00,0.4544
2594.00,0.4529
2593.00,0.4513
2592.00,0.4496
2591.00,0.4478
2590.00,0.4459
2589.00,0.4439
2588.00,0.4418
2587.00,0.4397
2586.00,0.4375
2585.00,0.4353
2584.00,0.4331
2583.00,0.4308
2582.00,0.4286
2581.00,0.4264
2580.00,0.4242
2579.00,0.4220
2578.00,0.4198
2577.00,0.4176
2576.00,0.4155
2575.00,0.4134
2574.00,0.4114
2573.00,0.4094
2572.00,0.4074
2571.00,0.4055
2570.00,0.4035
2569.00,0.4016
2568.00,0.3997
2567.00,0.3980
2566.00,0.3964
2565.00,0.3947
2564.00,0.3931
2563.00,0.3916
2562.00,0.3901
2561.00,0.3886
2560.00,0.3872
2559.00,0.3859
2558.00,0.3846
2557.00,0.3833
2556.00,0.3821
2555.00,0.3809
2554.00,0.3798
2553.00,0.3788
2552.00,0.3777
2551.00,0.3767
2550.00,0.3757
2549.00,0.3748
2548.00,0.3739
2547.00,0.3731
2546.00,0.3722
2545.00,0.3713
2544.00,0.3705
2543.00,0.3697
2542.00,0.3690
2541.00,0.3682
2540.00,0.3675
2539.00,0.3667
2538.00,0.3660
2537.00,0.3653
2536.00,0.3646
2535.00,0.3638
2534.00,0.3630
2533.00,0.3621
2532.00,0.3613
2531.00,0.3604
2530.00,0.3595
2529.00,0.3585
2528.00,0.3574
2527.00,0.3564
2526.00,0.3553
2525.00,0.3542
2524.00,0.3532
2523.00,0.3521
2522.00,0.3510
2521.00,0.3500
2520.00,0.3489
2519.00,0.3478
2518.00,0.3467
2517.00,0.3455
2516.00,0.3444
2515.00,0.3432
2514.00,0.3422
2513.00,0.3411
2512.00,0.3401
2511.00,0.3391
2510.00,0.3382
2509.00,0.3373
2508.00,0.3364
2507.00,0.3355
2506.00,0.3346
2505.00,0.3338
2504.00,0.3330
2503.00,0.3322
2502.00,0.3314
2501.00,0.3306
2500.00,0.3298
2499.00,0.3291
2498.00,0.3284
2497.00,0.3277
2496.00,0.3271
2495.00,0.3264
2494.00,0.3258
2493.00,0.3252
2492.00,0.3247
2491.00,0.3241
2490.00,0.3236
2489.00,0.3231
2488.00,0.3226
2487.00,0.3221
2486.00,0.3217
2485.00,0.3213
2484.00,0.3209
2483.00,0.3206
2482.00,0.3202
2481.00,0.3198
2480.00,0.3194
2479.00,0.3190
2478.00,0.3187
2477.00,0.3183
2476.00,0.3180
2475.00,0.3176
2474.00,0.3172
2473.00,0.3168
2472.00,0.3164
2471.00,0.3161
2470.00,0.3157
2469.00,0.3154
2468.00,0.3151
2467.00,0.3148
2466.00,0.3145
2465.00,0.3142
2464.00,0.3140
2463.00,0.3138
2462.00,0.3135
2461.00,0.3133
2460.00,0.3131
2459.00,0.3129
2458.00,0.3127
2457.00,0.3126
2456.00,0.3125
2455.00,0.3123
2454.00,0.3122
2453.00,0.3122
2452.00,0.3121
2451.00,0.3121
2450.00,0.3120
2449.00,0.3119
2448.00,0.3118
2447.00,0.3117
2446.00,0.3117
2445.00,0.3118
2444.00,0.3119
2443.00,0.3119
2442.00,0.3120
2441.00,0.3120
2440.00,0.3120
2439.00,0.3120
2438.00,0.3120
2437.00,0.3120
2436.00,0.3121
2435.00,0.3121
2434.00,0.3121
2433.00,0.3121
2432.00,0.3121
2431.00,0.3121
2430.00,0.3121
2429.00,0.3121
2428.00,0.3121
2427.00,0.3121
2426.00,0.3122
2425.00,0.3122
2424.00,0.3123
2423.00,0.3123
2422.00,0.3124
2421.00,0.3125
2420.00,0.3126
2419.00,0.3127
2418.00,0.3128
2417.00,0.3130
2416.00,0.3131
2415.00,0.3131
2414.00,0.3132
2413.00,0.3134
2412.00,0.3135
2411.00,0.3136
2410.00,0.3136
2409.00,0.3136
2408.00,0.3136
2407.00,0.3136
2406.00,0.3137
2405.00,0.3137
2404.00,0.3137
2403.00,0.3137
2402.00,0.3137
2401.00,0.3137
2400.00,0.3136
2399.00,0.3136
2398.00,0.3134
2397.00,0.3133
2396.00,0.3131
2395.00,0.3129
2394.00,0.3127
2393.00,0.3125
2392.00,0.3123
2391.00,0.3121
2390.00,0.3119
2389.00,0.3118
2388.00,0.3117
2387.00,0.3116
2386.00,0.3115
2385.00,0.3115
2384.00,0.3115
2383.00,0.3116
2382.00,0.3116
2381.00,0.3117
2380.00,0.3119
2379.00,0.3120
2378.00,0.3122
2377.00,0.3123
2376.00,0.3123
2375.00,0.3122
2374.00,0.3121
2373.00,0.3119
2372.00,0.3118
2371.00,0.3116
2370.00,0.3115
2369.00,0.3114
2368.00,0.3114
2367.00,0.3114
2366.00,0.3113
2365.00,0.3114
2364.00,0.3114
2363.00,0.3115
2362.00,0.3116
2361.00,0.3116
2360.00,0.3117
2359.00,0.3118
2358.00,0.3118
2357.00,0.3118
2356.00,0.3117
2355.00,0.3115
2354.00,0.3113
2353.00,0.3113
2352.00,0.3113
2351.00,0.3113
2350.00,0.3112
2349.00,0.3111
2348.00,0.3110
2347.00,0.3109
2346.00,0.3109
2345.00,0.3109
2344.00,0.3109
2343.00,0.3108
2342.00,0.3106
2341.00,0.3104
2340.00,0.3104
2339.00,0.3103
2338.00,0.3103
2337.00,0.3103
2336.00,0.3102
2335.00,0.3101
2334.00,0.3100
2333.00,0.3100
2332.00,0.3099
2331.00,0.3097
2330.00,0.3094
2329.00,0.3091
2328.00,0.3088
2327.00,0.3085
2326.00,0.3084
2325.00,0.3083
2324.00,0.3083
2323.00,0.3081
2322.00,0.3079
2321.00,0.3076
2320.00,0.3074
2319.00,0.3072
2318.00,0.3068
2317.00,0.3065
2316.00,0.3062
2315.00,0.3060
2314.00,0.3058
2313.00,0.3056
2312.00,0.3053
2311.00,0.3051
2310.00,0.3047
2309.00,0.3044
2308.00,0.3041
2307.00,0.3038
2306.00,0.3035
2305.00,0.3032
2304.00,0.3029
2303.00,0.3027
2302.00,0.3024
2301.00,0.3022
2300.00,0.3019
2299.00,0.3017
2298.00,0.3014
2297.00,0.3011
2296.00,0.3009
2295.00,0.3007
2294.00,0.3004
2293.00,0.3002
2292.00,0.3000
2291.00,0.2997
2290.00,0.2994
2289.00,0.2990
2288.00,0.2987
2287.00,0.2984
2286.00,0.2981
2285.00,0.2978
2284.00,0.2975
2283.00,0.2972
2282.00,0.2969
2281.00,0.2965
2280.00,0.2961
2279.00,0.2956
2278.00,0.2952
2277.00,0.2947
2276.00,0.2943
2275.00,0.2939
2274.00,0.2935
2273.00,0.2932
2272.00,0.2928
2271.00,0.2924
2270.00,0.2921
2269.00,0.2918
2268.00,0.2915
2267.00,0.2912
2266.00,0.2909
2265.00,0.2907
2264.00,0.2904
2263.00,0.2901
2262.00,0.2898
2261.00,0.2896
2260.00,0.2893
2259.00,0.2891
2258.00,0.2888
2257.00,0.2886
2256.00,0.2884
2255.00,0.2882
2254.00,0.2879
2253.00,0.2877
2252.00,0.2876
2251.00,0.2874
2250.00,0.2872
2249.00,0.2870
2248.00,0.2869
2247.00,0.2867
2246.00,0.2866
2245.00,0.2864
2244.00,0.2863
2243.00,0.2861
2242.00,0.2859
2241.00,0.2858
2240.00,0.2856
2239.00,0.2854
2238.00,0.2852
2237.00,0.2851
2236.00,0.2849
2235.00,0.2847
2234.00,0.2845
2233.00,0.2843
2232.00,0.2841
2231.00,0.2839
2230.00,0.2837
2229.00,0.2835
2228.00,0.2833
2227.00,0.2831
2226.00,0.2829
2225.00,0.2827
2224.00,0.2825
2223.00,0.2823
2222.00,0.2821
2221.00,0.2820
2220.00,0.2819
2219.00,0.2817
2218.00,0.2816
2217.00,0.2815
2216.00,0.2814
2215.00,0.2813
2214.00,0.2812
2213.00,0.2812
2212.00,0.2812
2211.00,0.2812
2210.00,0.2812
2209.00,0.2813
2208.00,0.2813
2207.00,0.2814
2206.00,0.2814
2205.00,0.2815
2204.00,0.2815
2203.00,0.2815
2202.00,0.2816
2201.00,0.2816
2200.00,0.2816
2199.00,0.2816
2198.00,0.2816
2197.00,0.2816
2196.00,0.2816
2195.00,0.2816
2194.00,0.2816
2193.00,0.2817
2192.00,0.2817
2191.00,0.2817
2190.00,0.2817
2189.00,0.2817
2188.00,0.2817
2187.00,0.2817
2186.00,0.2817
2185.00,0.2818
2184.00,0.2818
2183.00,0.2818
2182.00,0.2818
2181.00,0.2818
2180.00,0.2819
2179.00,0.2819
2178.00,0.2819
2177.00,0.2818
2176.00,0.2818
2175.00,0.2818
2174.00,0.2817
2173.00,0.2816
2172.00,0.2815
2171.00,0.2815
2170.00,0.2814
2169.00,0.2813
2168.00,0.2811
2167.00,0.2810
2166.00,0.2808
2165.00,0.2806
2164.00,0.2805
2163.00,0.2803
2162.00,0.2801
2161.00,0.2799
2160.00,0.2797
2159.00,0.2795
2158.00,0.2793
2157.00,0.2791
2156.00,0.2790
2155.00,0.2789
2154.00,0.2788
2153.00,0.2787
2152.00,0.2786
2151.00,0.2784
2150.00,0.2782
2149.00,0.2779
2148.00,0.2777
2147.00,0.2774
2146.00,0.2771
2145.00,0.2768
2144.00,0.2764
2143.00,0.2760
2142.00,0.2756
2141.00,0.2752
2140.00,0.2749
2139.00,0.2745
2138.00,0.2742
2137.00,0.2739
2136.00,0.2736
2135.00,0.2733
2134.00,0.2730
2133.00,0.2728
2132.00,0.2725
2131.00,0.2723
2130.00,0.2720
2129.00,0.2717
2128.00,0.2715
2127.00,0.2712
2126.00,0.2710
2125.00,0.2707
2124.00,0.2705
2123.00,0.2702
2122.00,0.2699
2121.00,0.2697
2120.00,0.2695
2119.00,0.2693
2118.00,0.2692
2117.00,0.2690
2116.00,0.2688
2115.00,0.2687
2114.00,0.2685
2113.00,0.2684
2112.00,0.2684
2111.00,0.2683
2110.00,0.2682
2109.00,0.2682
2108.00,0.2681
2107.00,0.2681
2106.00,0.2680
2105.00,0.2680
2104.00,0.2680
2103.00,0.2679
2102.00,0.2678
2101.00,0.2677
2100.00,0.2675
2099.00,0.2674
2098.00,0.2673
2097.00,0.2672
2096.00,0.2671
2095.00,0.2670
2094.00,0.2669
2093.00,0.2667
2092.00,0.2666
2091.00,0.2664
2090.00,0.2663
2089.00,0.2661
2088.00,0.2660
2087.00,0.2659
2086.00,0.2657
2085.00,0.2656
2084.00,0.2655
2083.00,0.2654
2082.00,0.2654
2081.00,0.2653
2080.00,0.2653
2079.00,0.2652
2078.00,0.2652
2077.00,0.2652
2076.00,0.2653
2075.00,0.2653
2074.00,0.2654
2073.00,0.2655
2072.00,0.2656
2071.00,0.2657
2070.00,0.2657
2069.00,0.2657
2068.00,0.2657
2067.00,0.2658
2066.00,0.2659
2065.00,0.2660
2064.00,0.2661
2063.00,0.2661
2062.00,0.2661
2061.00,0.2661
2060.00,0.2662
2059.00,0.2663
2058.00,0.2663
2057.00,0.2664
2056.00,0.2666
2055.00,0.2666
2054.00,0.2667
2053.00,0.2668
2052.00,0.2669
2051.00,0.2669
2050.00,0.2670
2049.00,0.2670
2048.00,0.2672
2047.00,0.2673
2046.00,0.2674
2045.00,0.2676
2044.00,0.2678
2043.00,0.2679
2042.00,0.2681
2041.00,0.2682
2040.00,0.2684
2039.00,0.2685
2038.00,0.2686
2037.00,0.2687
2036.00,0.2689
2035.00,0.2690
2034.00,0.2691
2033.00,0.2692
2032.00,0.2693
2031.00,0.2693
2030.00,0.2692
2029.00,0.2692
2028.00,0.2692
2027.00,0.2691
2026.00,0.2689
2025.00,0.2687
2024.00,0.2685
2023.00,0.2682
2022.00,0.2677
2021.00,0.2672
2020.00,0.2667
2019.00,0.2661
2018.00,0.2654
2017.00,0.2648
2016.00,0.2640
2015.00,0.2633
2014.00,0.2625
2013.00,0.2617
2012.00,0.2610
2011.00,0.2603
2010.00,0.2597
2009.00,0.2591
2008.00,0.2587
2007.00,0.2583
2006.00,0.2579
2005.00,0.2575
2004.00,0.2572
2003.00,0.2569
2002.00,0.2565
2001.00,0.2563
2000.00,0.2561
1999.00,0.2560
1998.00,0.2559
1997.00,0.2558
1996.00,0.2557
1995.00,0.2555
1994.00,0.2554
1993.00,0.2554
1992.00,0.2554
1991.00,0.2553
1990.00,0.2552
1989.00,0.2551
1988.00,0.2550
1987.00,0.2549
1986.00,0.2548
1985.00,0.2547
1984.00,0.2546
1983.00,0.2545
1982.00,0.2543
1981.00,0.2542
1980.00,0.2542
1979.00,0.2541
1978.00,0.2540
1977.00,0.2539
1976.00,0.2538
1975.00,0.2538
1974.00,0.2537
1973.00,0.2537
1972.00,0.2537
1971.00,0.2536
1970.00,0.2536
1969.00,0.2536
1968.00,0.2536
1967.00,0.2536
1966.00,0.2536
1965.00,0.2537
1964.00,0.2537
1963.00,0.2538
1962.00,0.2538
1961.00,0.2539
1960.00,0.2540
1959.00,0.2541
1958.00,0.2542
1957.00,0.2543
1956.00,0.2544
1955.00,0.2546
1954.00,0.2547
1953.00,0.2549
1952.00,0.2551
1951.00,0.2552
1950.00,0.2552
1949.00,0.2553
1948.00,0.2554
1947.00,0.2554
1946.00,0.2555
1945.00,0.2557
1944.00,0.2559
1943.00,0.2561
1942.00,0.2564
1941.00,0.2567
1940.00,0.2570
1939.00,0.2572
1938.00,0.2573
1937.00,0.2574
1936.00,0.2574
1935.00,0.2574
1934.00,0.2575
1933.00,0.2576
1932.00,0.2578
1931.00,0.2581
1930.00,0.2584
1929.00,0.2587
1928.00,0.2591
1927.00,0.2594
1926.00,0.2597
1925.00,0.2601
1924.00,0.2606
1923.00,0.2612
1922.00,0.2619
1921.00,0.2627
1920.00,0.2635
1919.00,0.2644
1918.00,0.2654
1917.00,0.2665
1916.00,0.2675
1915.00,0.2686
1914.00,0.2696
1913.00,0.2707
1912.00,0.2719
1911.00,0.2731
1910.00,0.2743
1909.00,0.2755
1908.00,0.2766
1907.00,0.2775
1906.00,0.2781
1905.00,0.2784
1904.00,0.2785
1903.00,0.2782
1902.00,0.2776
1901.00,0.2769
1900.00,0.2760
1899.00,0.2749
1898.00,0.2737
1897.00,0.2724
1896.00,0.2713
1895.00,0.2703
1894.00,0.2693
1893.00,0.2683
1892.00,0.2675
1891.00,0.2668
1890.00,0.2663
1889.00,0.2659
1888.00,0.2655
1887.00,0.2651
1886.00,0.2647
1885.00,0.2645
1884.00,0.2643
1883.00,0.2642
1882.00,0.2640
1881.00,0.2638
1880.00,0.2636
1879.00,0.2634
1878.00,0.2632
1877.00,0.2629
1876.00,0.2627
1875.00,0.2624
1874.00,0.2621
1873.00,0.2617
1872.00,0.2613
1871.00,0.2609
1870.00,0.2604
1869.00,0.2601
1868.00,0.2600
1867.00,0.2599
1866.00,0.2597
1865.00,0.2595
1864.00,0.2593
1863.00,0.2591
1862.00,0.2588
1861.00,0.2587
1860.00,0.2585
1859.00,0.2584
1858.00,0.2582
1857.00,0.2581
1856.00,0.2580
1855.00,0.2578
1854.00,0.2577
1853.00,0.2576
1852.00,0.2576
1851.00,0.2576
1850.00,0.2576
1849.00,0.2577
1848.00,0.2577
1847.00,0.2578
1846.00,0.2580
1845.00,0.2582
1844.00,0.2583
1843.00,0.2584
1842.00,0.2582
1841.00,0.2581
1840.00,0.2579
1839.00,0.2578
1838.00,0.2577
1837.00,0.2577
1836.00,0.2578
1835.00,0.2578
1834.00,0.2577
1833.00,0.2576
1832.00,0.2573
1831.00,0.2572
1830.00,0.2573
1829.00,0.2576
1828.00,0.2578
1827.00,0.2579
1826.00,0.2579
1825.00,0.2581
1824.00,0.2582
1823.00,0.2583
1822.00,0.2584
1821.00,0.2585
1820.00,0.2587
1819.00,0.2589
1818.00,0.2591
1817.00,0.2594
1816.00,0.2597
1815.00,0.2599
1814.00,0.2600
1813.00,0.2603
1812.00,0.2606
1811.00,0.2610
1810.00,0.2615
1809.00,0.2620
1808.00,0.2625
1807.00,0.2629
1806.00,0.2633
1805.00,0.2638
1804.00,0.2644
1803.00,0.2648
1802.00,0.2653
1801.00,0.2658
1800.00,0.2665
1799.00,0.2671
1798.00,0.2677
1797.00,0.2682
1796.00,0.2687
1795.00,0.2692
1794.00,0.2696
1793.00,0.2701
1792.00,0.2707
1791.00,0.2711
1790.00,0.2713
1789.00,0.2715
1788.00,0.2717
1787.00,0.2719
1786.00,0.2721
1785.00,0.2723
1784.00,0.2724
1783.00,0.2725
1782.00,0.2726
1781.00,0.2728
1780.00,0.2732
1779.00,0.2735
1778.00,0.2737
1777.00,0.2739
1776.00,0.2743
1775.00,0.2745
1774.00,0.2746
1773.00,0.2750
1772.00,0.2756
1771.00,0.2763
1770.00,0.2768
1769.00,0.2772
1768.00,0.2776
1767.00,0.2778
1766.00,0.2780
1765.00,0.2783
1764.00,0.2787
1763.00,0.2793
1762.00,0.2800
1761.00,0.2809
1760.00,0.2819
1759.00,0.2829
1758.00,0.2841
1757.00,0.2856
1756.00,0.2872
1755.00,0.2889
1754.00,0.2905
1753.00,0.2921
1752.00,0.2936
1751.00,0.2949
1750.00,0.2958
1749.00,0.2968
1748.00,0.2978
1747.00,0.2985
1746.00,0.2991
1745.00,0.2996
1744.00,0.3000
1743.00,0.3003
1742.00,0.3004
1741.00,0.3006
1740.00,0.3008
1739.00,0.3009
1738.00,0.3010
1737.00,0.3012
1736.00,0.3015
1735.00,0.3018
1734.00,0.3021
1733.00,0.3022
1732.00,0.3021
1731.00,0.3022
1730.00,0.3026
1729.00,0.3033
1728.00,0.3042
1727.00,0.3052
1726.00,0.3062
1725.00,0.3076
1724.00,0.3092
1723.00,0.3109
1722.00,0.3126
1721.00,0.3145
1720.00,0.3165
1719.00,0.3187
1718.00,0.3210
1717.00,0.3236
1716.00,0.3259
1715.00,0.3278
1714.00,0.3296
1713.00,0.3315
1712.00,0.3334
1711.00,0.3351
1710.00,0.3367
1709.00,0.3380
1708.00,0.3390
1707.00,0.3398
1706.00,0.3405
1705.00,0.3413
1704.00,0.3420
1703.00,0.3427
1702.00,0.3431
1701.00,0.3437
1700.00,0.3444
1699.00,0.3449
1698.00,0.3454
1697.00,0.3465
1696.00,0.3480
1695.00,0.3493
1694.00,0.3501
1693.00,0.3510
1692.00,0.3524
1691.00,0.3540
1690.00,0.3560
1689.00,0.3584
1688.00,0.3610
1687.00,0.3635
1686.00,0.3660
1685.00,0.3692
1684.00,0.3735
1683.00,0.3773
1682.00,0.3804
1681.00,0.3837
1680.00,0.3874
1679.00,0.3911
1678.00,0.3947
1677.00,0.3984
1676.00,0.4024
1675.00,0.4066
1674.00,0.4104
1673.00,0.4140
1672.00,0.4179
1671.00,0.4224
1670.00,0.4278
1669.00,0.4340
1668.00,0.4403
1667.00,0.4462
1666.00,0.4519
1665.00,0.4580
1664.00,0.4651
1663.00,0.4732
1662.00,0.4818
1661.00,0.4907
1660.00,0.5000
1659.00,0.5096
1658.00,0.5196
1657.00,0.5302
1656.00,0.5414
1655.00,0.5539
1654.00,0.5705
1653.00,0.5928
1652.00,0.6161
1651.00,0.6363
1650.00,0.6559
1649.00,0.6796
1648.00,0.7123
1647.00,0.7561
1646.00,0.8100
1645.00,0.8715
1644.00,0.9405
1643.00,1.0194
1642.00,1.1133
1641.00,1.2279
1640.00,1.3645
1639.00,1.5182
1638.00,1.6876
1637.00,1.8858
1636.00,2.1301
1635.00,2.4046
1634.00,2.6487
1633.00,2.8287
1632.00,2.8958
1631.00,2.7361
1630.00,2.4499
1629.00,2.1568
1628.00,1.8893
1627.00,1.6598
1626.00,1.4707
1625.00,1.3163
1624.00,1.1899
1623.00,1.0906
1622.00,1.0195
1621.00,0.9731
1620.00,0.9446
1619.00,0.9291
1618.00,0.9267
1617.00,0.9400
1616.00,0.9682
1615.00,1.0062
1614.00,1.0507
1613.00,1.1007
1612.00,1.1520
1611.00,1.1955
1610.00,1.2215
1609.00,1.2257
1608.00,1.2078
1607.00,1.1724
1606.00,1.1293
1605.00,1.0877
1604.00,1.0519
1603.00,1.0233
1602.00,1.0030
1601.00,0.9918
1600.00,0.9886
1599.00,0.9919
1598.00,1.0024
1597.00,1.0216
1596.00,1.0500
1595.00,1.0868
1594.00,1.1313
1593.00,1.1831
1592.00,1.2405
1591.00,1.2996
1590.00,1.3577
1589.00,1.4141
1588.00,1.4663
1587.00,1.5084
1586.00,1.5368
1585.00,1.5505
1584.00,1.5462
1583.00,1.5211
1582.00,1.4833
1581.00,1.4479
1580.00,1.4239
1579.00,1.4129
1578.00,1.4157
1577.00,1.4342
1576.00,1.4638
1575.00,1.4915
1574.00,1.5103
1573.00,1.5233
1572.00,1.5312
1571.00,1.5295
1570.00,1.5172
1569.00,1.4995
1568.00,1.4780
1567.00,1.4488
1566.00,1.4110
1565.00,1.3684
1564.00,1.3240
1563.00,1.2788
1562.00,1.2335
1561.00,1.1858
1560.00,1.1311
1559.00,1.0715
1558.00,1.0190
1557.00,0.9791
1556.00,0.9467
1555.00,0.9151
1554.00,0.8836
1553.00,0.8545
1552.00,0.8287
1551.00,0.8046
1550.00,0.7814
1549.00,0.7600
1548.00,0.7411
1547.00,0.7236
1546.00,0.7070
1545.00,0.6915
1544.00,0.6777
1543.00,0.6654
1542.00,0.6545
1541.00,0.6452
1540.00,0.6374
1539.00,0.6306
1538.00,0.6254
1537.00,0.6224
1536.00,0.6214
1535.00,0.6222
1534.00,0.6260
1533.00,0.6336
1532.00,0.6443
1531.00,0.6575
1530.00,0.6743
1529.00,0.6962
1528.00,0.7241
1527.00,0.7586
1526.00,0.8005
1525.00,0.8488
1524.00,0.9017
1523.00,0.9591
1522.00,1.0217
1521.00,1.0823
1520.00,1.1256
1519.00,1.1415
1518.00,1.1311
1517.00,1.0994
1516.00,1.0539
1515.00,1.0025
1514.00,0.9506
1513.00,0.9003
1512.00,0.8535
1511.00,0.8127
1510.00,0.7787
1509.00,0.7506
1508.00,0.7266
1507.00,0.7067
1506.00,0.6925
1505.00,0.6852
1504.00,0.6840
1503.00,0.6876
1502.00,0.6949
1501.00,0.7054
1500.00,0.7183
1499.00,0.7320
1498.00,0.7453
1497.00,0.7571
1496.00,0.7661
1495.00,0.7712
1494.00,0.7732
1493.00,0.7732
1492.00,0.7719
1491.00,0.7698
1490.00,0.7679
1489.00,0.7679
1488.00,0.7706
1487.00,0.7763
1486.00,0.7856
1485.00,0.7997
1484.00,0.8190
1483.00,0.8439
1482.00,0.8759
1481.00,0.9159
1480.00,0.9634
1479.00,1.0179
1478.00,1.0813
1477.00,1.1567
1476.00,1.2456
1475.00,1.3504
1474.00,1.4809
1473.00,1.6536
1472.00,1.8805
1471.00,2.1593
1470.00,2.4838
1469.00,2.8622
1468.00,3.3000
1467.00,3.7002
1466.00,3.9419
1465.00,4.1940
1464.00,4.1856
1463.00,3.9679
1462.00,3.9884
1461.00,4.2176
1460.00,4.1172
1459.00,3.7649
1458.00,3.6278
1457.00,3.7399
1456.00,3.8212
1455.00,3.5748
1454.00,3.3519
1453.00,3.1758
1452.00,2.9930
1451.00,2.8326
1450.00,2.7190
1449.00,2.6288
1448.00,2.5277
1447.00,2.4172
1446.00,2.3124
1445.00,2.2094
1444.00,2.0991
1443.00,1.9861
1442.00,1.8799
1441.00,1.7830
1440.00,1.6928
1439.00,1.6060
1438.00,1.5186
1437.00,1.4288
1436.00,1.3423
1435.00,1.2670
1434.00,1.2028
1433.00,1.1420
1432.00,1.0768
1431.00,1.0038
1430.00,0.9263
1429.00,0.8515
1428.00,0.7867
1427.00,0.7350
1426.00,0.6950
1425.00,0.6634
1424.00,0.6388
1423.00,0.6208
1422.00,0.6079
1421.00,0.5983
1420.00,0.5915
1419.00,0.5886
1418.00,0.5902
1417.00,0.5962
1416.00,0.6075
1415.00,0.6244
1414.00,0.6461
1413.00,0.6704
1412.00,0.6939
1411.00,0.7113
1410.00,0.7159
1409.00,0.7044
1408.00,0.6797
1407.00,0.6489
1406.00,0.6182
1405.00,0.5914
1404.00,0.5707
1403.00,0.5562
1402.00,0.5469
1401.00,0.5413
1400.00,0.5389
1399.00,0.5395
1398.00,0.5426
1397.00,0.5474
1396.00,0.5547
1395.00,0.5655
1394.00,0.5797
1393.00,0.5975
1392.00,0.6201
1391.00,0.6499
1390.00,0.6890
1389.00,0.7404
1388.00,0.8075
1387.00,0.8922
1386.00,0.9918
1385.00,1.1020
1384.00,1.2215
1383.00,1.3530
1382.00,1.4995
1381.00,1.6644
1380.00,1.8506
1379.00,2.0466
1378.00,2.2017
1377.00,2.2426
1376.00,2.1566
1375.00,1.9936
1374.00,1.8095
1373.00,1.6440
1372.00,1.5126
1371.00,1.4150
1370.00,1.3469
1369.00,1.3043
1368.00,1.2805
1367.00,1.2629
1366.00,1.2351
1365.00,1.1874
1364.00,1.1227
1363.00,1.0526
1362.00,0.9885
1361.00,0.9365
1360.00,0.8972
1359.00,0.8686
1358.00,0.8481
1357.00,0.8337
1356.00,0.8242
1355.00,0.8182
1354.00,0.8146
1353.00,0.8122
1352.00,0.8103
1351.00,0.8084
1350.00,0.8058
1349.00,0.8022
1348.00,0.7971
1347.00,0.7910
1346.00,0.7844
1345.00,0.7782
1344.00,0.7729
1343.00,0.7682
1342.00,0.7634
1341.00,0.7573
1340.00,0.7496
1339.00,0.7408
1338.00,0.7315
1337.00,0.7222
1336.00,0.7134
1335.00,0.7056
1334.00,0.6990
1333.00,0.6943
1332.00,0.6921
1331.00,0.6929
1330.00,0.6965
1329.00,0.7021
1328.00,0.7087
1327.00,0.7151
1326.00,0.7206
1325.00,0.7251
1324.00,0.7294
1323.00,0.7344
1322.00,0.7406
1321.00,0.7483
1320.00,0.7579
1319.00,0.7694
1318.00,0.7827
1317.00,0.7975
1316.00,0.8132
1315.00,0.8294
1314.00,0.8452
1313.00,0.8596
1312.00,0.8713
1311.00,0.8794
1310.00,0.8837
1309.00,0.8852
1308.00,0.8860
1307.00,0.8877
1306.00,0.8905
1305.00,0.8925
1304.00,0.8907
1303.00,0.8822
1302.00,0.8661
1301.00,0.8444
1300.00,0.8207
1299.00,0.7981
1298.00,0.7781
1297.00,0.7612
1296.00,0.7476
1295.00,0.7367
1294.00,0.7279
1293.00,0.7209
1292.00,0.7154
1291.00,0.7113
1290.00,0.7083
1289.00,0.7063
1288.00,0.7052
1287.00,0.7052
1286.00,0.7064
1285.00,0.7089
1284.00,0.7128
1283.00,0.7181
1282.00,0.7244
1281.00,0.7312
1280.00,0.7379
1279.00,0.7441
1278.00,0.7490
1277.00,0.7519
1276.00,0.7527
1275.00,0.7512
1274.00,0.7473
1273.00,0.7410
1272.00,0.7326
1271.00,0.7225
1270.00,0.7113
1269.00,0.6995
1268.00,0.6883
1267.00,0.6784
1266.00,0.6701
1265.00,0.6636
1264.00,0.6593
1263.00,0.6571
1262.00,0.6570
1261.00,0.6586
1260.00,0.6620
1259.00,0.6671
1258.00,0.6736
1257.00,0.6814
1256.00,0.6904
1255.00,0.7010
1254.00,0.7133
1253.00,0.7273
1252.00,0.7431
1251.00,0.7608
1250.00,0.7803
1249.00,0.8011
1248.00,0.8228
1247.00,0.8436
1246.00,0.8613
1245.00,0.8731
1244.00,0.8781
1243.00,0.8775
1242.00,0.8747
1241.00,0.8733
1240.00,0.8760
1239.00,0.8832
1238.00,0.8933
1237.00,0.9048
1236.00,0.9163
1235.00,0.9267
1234.00,0.9349
1233.00,0.9401
1232.00,0.9415
1231.00,0.9386
1230.00,0.9306
1229.00,0.9175
1228.00,0.8998
1227.00,0.8787
1226.00,0.8553
1225.00,0.8309
1224.00,0.8065
1223.00,0.7830
1222.00,0.7609
1221.00,0.7404
1220.00,0.7218
1219.00,0.7051
1218.00,0.6899
1217.00,0.6762
1216.00,0.6640
1215.00,0.6535
1214.00,0.6446
1213.00,0.6372
1212.00,0.6314
1211.00,0.6275
1210.00,0.6257
1209.00,0.6258
1208.00,0.6269
1207.00,0.6274
1206.00,0.6252
1205.00,0.6193
1204.00,0.6101
1203.00,0.5996
1202.00,0.5894
1201.00,0.5803
1200.00,0.5726
1199.00,0.5664
1198.00,0.5615
1197.00,0.5577
1196.00,0.5552
1195.00,0.5542
1194.00,0.5545
1193.00,0.5561
1192.00,0.5586
1191.00,0.5615
1190.00,0.5641
1189.00,0.5655
1188.00,0.5651
1187.00,0.5632
1186.00,0.5600
1185.00,0.5562
1184.00,0.5524
1183.00,0.5491
1182.00,0.5464
1181.00,0.5441
1180.00,0.5423
1179.00,0.5410
1178.00,0.5401
1177.00,0.5396
1176.00,0.5400
1175.00,0.5414
1174.00,0.5441
1173.00,0.5478
1172.00,0.5521
1171.00,0.5563
1170.00,0.5593
1169.00,0.5607
1168.00,0.5603
1167.00,0.5589
1166.00,0.5573
1165.00,0.5560
1164.00,0.5551
1163.00,0.5547
1162.00,0.5546
1161.00,0.5547
1160.00,0.5551
1159.00,0.5558
1158.00,0.5568
1157.00,0.5579
1156.00,0.5587
1155.00,0.5592
1154.00,0.5584
1153.00,0.5558
1152.00,0.5509
1151.00,0.5439
1150.00,0.5358
1149.00,0.5273
1148.00,0.5192
1147.00,0.5119
1146.00,0.5054
1145.00,0.4996
1144.00,0.4945
1143.00,0.4899
1142.00,0.4858
1141.00,0.4822
1140.00,0.4790
1139.00,0.4765
1138.00,0.4745
1137.00,0.4729
1136.00,0.4719
1135.00,0.4713
1134.00,0.4712
1133.00,0.4714
1132.00,0.4718
1131.00,0.4726
1130.00,0.4738
1129.00,0.4752
1128.00,0.4766
1127.00,0.4781
1126.00,0.4796
1125.00,0.4809
1124.00,0.4822
1123.00,0.4834
1122.00,0.4847
1121.00,0.4858
1120.00,0.4871
1119.00,0.4887
1118.00,0.4911
1117.00,0.4946
1116.00,0.4997
1115.00,0.5069
1114.00,0.5158
1113.00,0.5254
1112.00,0.5337
1111.00,0.5381
1110.00,0.5365
1109.00,0.5284
1108.00,0.5154
1107.00,0.5006
1106.00,0.4866
1105.00,0.4750
1104.00,0.4665
1103.00,0.4611
1102.00,0.4581
1101.00,0.4568
1100.00,0.4566
1099.00,0.4573
1098.00,0.4589
1097.00,0.4612
1096.00,0.4642
1095.00,0.4680
1094.00,0.4722
1093.00,0.4763
1092.00,0.4800
1091.00,0.4831
1090.00,0.4857
1089.00,0.4879
1088.00,0.4900
1087.00,0.4926
1086.00,0.4958
1085.00,0.4996
1084.00,0.5040
1083.00,0.5090
1082.00,0.5145
1081.00,0.5202
1080.00,0.5261
1079.00,0.5321
1078.00,0.5378
1077.00,0.5432
1076.00,0.5479
1075.00,0.5522
1074.00,0.5562
1073.00,0.5596
1072.00,0.5621
1071.00,0.5639
1070.00,0.5651
1069.00,0.5660
1068.00,0.5670
1067.00,0.5681
1066.00,0.5691
1065.00,0.5698
1064.00,0.5703
1063.00,0.5709
1062.00,0.5717
1061.00,0.5727
1060.00,0.5741
1059.00,0.5762
1058.00,0.5789
1057.00,0.5821
1056.00,0.5853
1055.00,0.5880
1054.00,0.5895
1053.00,0.5895
1052.00,0.5885
1051.00,0.5874
1050.00,0.5868
1049.00,0.5859
1048.00,0.5835
1047.00,0.5784
1046.00,0.5706
1045.00,0.5610
1044.00,0.5507
1043.00,0.5409
1042.00,0.5323
1041.00,0.5248
1040.00,0.5185
1039.00,0.5134
1038.00,0.5092
1037.00,0.5058
1036.00,0.5030
1035.00,0.5008
1034.00,0.4991
1033.00,0.4975
1032.00,0.4960
1031.00,0.4944
1030.00,0.4924
1029.00,0.4899
1028.00,0.4873
1027.00,0.4851
1026.00,0.4843
1025.00,0.4856
1024.00,0.4895
1023.00,0.4952
1022.00,0.5005
1021.00,0.5026
1020.00,0.4996
1019.00,0.4921
1018.00,0.4826
1017.00,0.4736
1016.00,0.4663
1015.00,0.4606
1014.00,0.4560
1013.00,0.4520
1012.00,0.4484
1011.00,0.4450
1010.00,0.4418
1009.00,0.4387
1008.00,0.4357
1007.00,0.4329
1006.00,0.4304
1005.00,0.4281
1004.00,0.4261
1003.00,0.4241
1002.00,0.4223
1001.00,0.4206
1000.00,0.4190
999.00,0.4176
998.00,0.4162
997.00,0.4151
996.00,0.4141
995.00,0.4133
994.00,0.4125
993.00,0.4116
992.00,0.4108
991.00,0.4103
990.00,0.4101
989.00,0.4104
988.00,0.4110
987.00,0.4121
986.00,0.4135
985.00,0.4152
984.00,0.4172
983.00,0.4195
982.00,0.4222
981.00,0.4252
980.00,0.4284
979.00,0.4320
978.00,0.4358
977.00,0.4397
976.00,0.4436
975.00,0.4472
974.00,0.4505
973.00,0.4534
972.00,0.4563
971.00,0.4592
970.00,0.4624
969.00,0.4657
968.00,0.4688
967.00,0.4713
966.00,0.4727
965.00,0.4724
964.00,0.4702
963.00,0.4663
962.00,0.4611
961.00,0.4556
960.00,0.4505
959.00,0.4463
958.00,0.4432
957.00,0.4410
956.00,0.4395
955.00,0.4385
954.00,0.4379
953.00,0.4375
952.00,0.4371
951.00,0.4371
950.00,0.4376
949.00,0.4383
948.00,0.4392
947.00,0.4399
946.00,0.4402
945.00,0.4401
944.00,0.4400
943.00,0.4400
942.00,0.4402
941.00,0.4407
940.00,0.4413
939.00,0.4419
938.00,0.4424
937.00,0.4425
936.00,0.4422
935.00,0.4415
934.00,0.4405
933.00,0.4390
932.00,0.4372
931.00,0.4352
930.00,0.4332
929.00,0.4309
928.00,0.4284
927.00,0.4259
926.00,0.4236
925.00,0.4219
924.00,0.4211
923.00,0.4212
922.00,0.4221
921.00,0.4235
920.00,0.4248
919.00,0.4254
918.00,0.4248
917.00,0.4228
916.00,0.4197
915.00,0.4164
914.00,0.4134
913.00,0.4111
912.00,0.4094
911.00,0.4079
910.00,0.4061
909.00,0.4034
908.00,0.3999
907.00,0.3960
906.00,0.3921
905.00,0.3887
904.00,0.3860
903.00,0.3845
902.00,0.3843
901.00,0.3857
900.00,0.3885
899.00,0.3927
898.00,0.3978
897.00,0.4033
896.00,0.4088
895.00,0.4148
894.00,0.4213
893.00,0.4278
892.00,0.4325
891.00,0.4337
890.00,0.4306
889.00,0.4237
888.00,0.4147
887.00,0.4055
886.00,0.3974
885.00,0.3912
884.00,0.3870
883.00,0.3846
882.00,0.3837
881.00,0.3840
880.00,0.3852
879.00,0.3875
878.00,0.3907
877.00,0.3947
876.00,0.3996
875.00,0.4055
874.00,0.4124
873.00,0.4201
872.00,0.4287
871.00,0.4386
870.00,0.4497
869.00,0.4620
868.00,0.4744
867.00,0.4844
866.00,0.4890
865.00,0.4856
864.00,0.4744
863.00,0.4581
862.00,0.4405
861.00,0.4244
860.00,0.4113
859.00,0.4016
858.00,0.3947
857.00,0.3900
856.00,0.3868
855.00,0.3849
854.00,0.3840
853.00,0.3838
852.00,0.3841
851.00,0.3848
850.00,0.3857
849.00,0.3864
848.00,0.3871
847.00,0.3879
846.00,0.3886
845.00,0.3891
844.00,0.3890
843.00,0.3885
842.00,0.3879
841.00,0.3874
840.00,0.3873
839.00,0.3880
838.00,0.3893
837.00,0.3912
836.00,0.3935
835.00,0.3963
834.00,0.3996
833.00,0.4033
832.00,0.4075
831.00,0.4120
830.00,0.4167
829.00,0.4212
828.00,0.4252
827.00,0.4285
826.00,0.4309
825.00,0.4326
824.00,0.4338
823.00,0.4346
822.00,0.4350
821.00,0.4346
820.00,0.4336
819.00,0.4322
818.00,0.4305
817.00,0.4287
816.00,0.4266
815.00,0.4242
814.00,0.4214
813.00,0.4180
812.00,0.4144
811.00,0.4106
810.00,0.4071
809.00,0.4040
808.00,0.4014
807.00,0.3992
806.00,0.3970
805.00,0.3946
804.00,0.3917
803.00,0.3886
802.00,0.3853
801.00,0.3820
800.00,0.3789
799.00,0.3759
798.00,0.3727
797.00,0.3690
796.00,0.3650
795.00,0.3614
794.00,0.3590
793.00,0.3579
792.00,0.3582
791.00,0.3598
790.00,0.3626
789.00,0.3663
788.00,0.3708
787.00,0.3759
786.00,0.3816
785.00,0.3877
784.00,0.3942
783.00,0.4010
782.00,0.4085
781.00,0.4168
780.00,0.4260
779.00,0.4362
778.00,0.4473
777.00,0.4594
776.00,0.4731
775.00,0.4885
774.00,0.5050
773.00,0.5204
772.00,0.5318
771.00,0.5368
770.00,0.5355
769.00,0.5307
768.00,0.5258
767.00,0.5232
766.00,0.5233
765.00,0.5253
764.00,0.5280
763.00,0.5305
762.00,0.5326
761.00,0.5348
760.00,0.5378
759.00,0.5424
758.00,0.5482
757.00,0.5542
756.00,0.5591
755.00,0.5618
754.00,0.5617
753.00,0.5594
752.00,0.5559
751.00,0.5525
750.00,0.5496
749.00,0.5478
748.00,0.5473
747.00,0.5481
746.00,0.5499
745.00,0.5522
744.00,0.5550
743.00,0.5583
742.00,0.5621
741.00,0.5660
740.00,0.5699
739.00,0.5741
738.00,0.5783
737.00,0.5826
736.00,0.5871
735.00,0.5922
734.00,0.5984
733.00,0.6059
732.00,0.6153
731.00,0.6269
730.00,0.6411
729.00,0.6578
728.00,0.6774
727.00,0.7003
726.00,0.7267
725.00,0.7554
724.00,0.7833
723.00,0.8056
722.00,0.8161
721.00,0.8089
720.00,0.7829
719.00,0.7434
718.00,0.6984
717.00,0.6546
716.00,0.6154
715.00,0.5822
714.00,0.5547
713.00,0.5321
712.00,0.5136
711.00,0.4986
710.00,0.4866
709.00,0.4766
708.00,0.4679
707.00,0.4598
706.00,0.4516
705.00,0.4431
704.00,0.4346
703.00,0.4273
702.00,0.4219
701.00,0.4187
700.00,0.4171
699.00,0.4163
698.00,0.4151
697.00,0.4133
696.00,0.4113
695.00,0.4100
694.00,0.4098
693.00,0.4105
692.00,0.4116
691.00,0.4132
690.00,0.4151
689.00,0.4171
688.00,0.4193
687.00,0.4217
686.00,0.4241
685.00,0.4268
684.00,0.4297
683.00,0.4330
682.00,0.4363
681.00,0.4396
680.00,0.4428
679.00,0.4460
678.00,0.4493
677.00,0.4527
676.00,0.4561
675.00,0.4595
674.00,0.4630
673.00,0.4666
672.00,0.4701
671.00,0.4733
670.00,0.4759
669.00,0.4782
668.00,0.4803
667.00,0.4820
666.00,0.4835
665.00,0.4846
664.00,0.4850
663.00,0.4848
662.00,0.4842
661.00,0.4833
660.00,0.4818
659.00,0.4793
658.00,0.4761
657.00,0.4723
656.00,0.4683
655.00,0.4643
654.00,0.4602
653.00,0.4558
652.00,0.4510
651.00,0.4463
650.00,0.4419
649.00,0.4376
648.00,0.4333
647.00,0.4289
646.00,0.4251
645.00,0.4223
644.00,0.4211
643.00,0.4220
642.00,0.4240
641.00,0.4255
640.00,0.4251
639.00,0.4227
638.00,0.4187
637.00,0.4138
636.00,0.4084
635.00,0.4033
634.00,0.3991
633.00,0.3957
632.00,0.3928
631.00,0.3905
630.00,0.3887
629.00,0.3874
628.00,0.3863
627.00,0.3856
626.00,0.3853
625.00,0.3850
624.00,0.3847
623.00,0.3847
622.00,0.3850
621.00,0.3854
620.00,0.3857
619.00,0.3858
618.00,0.3858
617.00,0.3858
616.00,0.3859
615.00,0.3863
614.00,0.3870
613.00,0.3877
612.00,0.3879
611.00,0.3869
610.00,0.3842
609.00,0.3798
608.00,0.3742
607.00,0.3685
606.00,0.3637
605.00,0.3598
604.00,0.3569
603.00,0.3548
602.00,0.3533
601.00,0.3522
600.00,0.3514
599.00,0.3512
598.00,0.3517
597.00,0.3526
596.00,0.3538
595.00,0.3552
594.00,0.3567
593.00,0.3578
592.00,0.3583
591.00,0.3587
590.00,0.3594
589.00,0.3606
588.00,0.3621
587.00,0.3637
586.00,0.3651
585.00,0.3663
584.00,0.3676
583.00,0.3696
582.00,0.3721
581.00,0.3747
580.00,0.3771
579.00,0.3790
578.00,0.3807
577.00,0.3818
576.00,0.3827
575.00,0.3837
574.00,0.3853
573.00,0.3871
572.00,0.3888
571.00,0.3902
570.00,0.3915
569.00,0.3929
568.00,0.3948
567.00,0.3972
566.00,0.4003
565.00,0.4039
564.00,0.4085
563.00,0.4143
562.00,0.4215
561.00,0.4298
560.00,0.4386
559.00,0.4469
558.00,0.4529
557.00,0.4543
556.00,0.4505
555.00,0.4429
554.00,0.4342
553.00,0.4268
552.00,0.4219
551.00,0.4195
550.00,0.4187
