Created as New Dataset,
cm-1,A
4000.00,0.3101
3999.00,0.3098
3998.00,0.3096
3997.00,0.3093
3996.00,0.3090
3995.00,0.3087
3994.00,0.3083
3993.00,0.3079
3992.00,0.3076
3991.00,0.3072
3990.00,0.3068
3989.00,0.3064
3988.00,0.3060
3987.00,0.3055
3986.00,0.3051
3985.00,0.3047
3984.00,0.3044
3983.00,0.3040
3982.00,0.3037
3981.00,0.3033
3980.00,0.3030
3979.00,0.3026
3978.00,0.3023
3977.00,0.3020
3976.00,0.3017
3975.00,0.3014
3974.00,0.3011
3973.00,0.3008
3972.00,0.3006
3971.00,0.3004
3970.00,0.3002
3969.00,0.3001
3968.00,0.3000
3967.00,0.3000
3966.00,0.2999
3965.00,0.2998
3964.00,0.2996
3963.00,0.2994
3962.00,0.2992
3961.00,0.2991
3960.00,0.2990
3959.00,0.2988
3958.00,0.2987
3957.00,0.2985
3956.00,0.2983
3955.00,0.2981
3954.00,0.2980
3953.00,0.2979
3952.00,0.2978
3951.00,0.2977
3950.00,0.2975
3949.00,0.2973
3948.00,0.2970
3947.00,0.2968
3946.00,0.2965
3945.00,0.2963
3944.00,0.2961
3943.00,0.2960
3942.00,0.2959
3941.00,0.2958
3940.00,0.2957
3939.00,0.2956
3938.00,0.2955
3937.00,0.2954
3936.00,0.2954
3935.00,0.2954
3934.00,0.2954
3933.00,0.2954
3932.00,0.2954
3931.00,0.2954
3930.00,0.2955
3929.00,0.2955
3928.00,0.2956
3927.00,0.2957
3926.00,0.2957
3925.00,0.2957
3924.00,0.2957
3923.00,0.2957
3922.00,0.2957
3921.00,0.2957
3920.00,0.2957
3919.00,0.2956
3918.00,0.2955
3917.00,0.2954
3916.00,0.2953
3915.00,0.2952
3914.00,0.2951
3913.00,0.2949
3912.00,0.2947
3911.00,0.2947
3910.00,0.2946
3909.00,0.2947
3908.00,0.2947
3907.00,0.2948
3906.00,0.2950
3905.00,0.2951
3904.00,0.2953
3903.00,0.2954
3902.00,0.2956
3901.00,0.2956
3900.00,0.2955
3899.00,0.2953
3898.00,0.2952
3897.00,0.2951
3896.00,0.2951
3895.00,0.2950
3894.00,0.2949
3893.00,0.2948
3892.00,0.2947
3891.00,0.2946
3890.00,0.2946
3889.00,0.2946
3888.00,0.2946
3887.00,0.2946
3886.00,0.2945
3885.00,0.2944
3884.00,0.2945
3883.00,0.2944
3882.00,0.2943
3881.00,0.2940
3880.00,0.2938
3879.00,0.2936
3878.00,0.2936
3877.00,0.2935
3876.00,0.2934
3875.00,0.2933
3874.00,0.2932
3873.00,0.2932
3872.00,0.2932
3871.00,0.2931
3870.00,0.2930
3869.00,0.2930
3868.00,0.2930
3867.00,0.2931
3866.00,0.2929
3865.00,0.2927
3864.00,0.2926
3863.00,0.2924
3862.00,0.2922
3861.00,0.2920
3860.00,0.2919
3859.00,0.2919
3858.00,0.2920
3857.00,0.2922
3856.00,0.2923
3855.00,0.2923
3854.00,0.2923
3853.00,0.2924
3852.00,0.2926
3851.00,0.2925
3850.00,0.2922
3849.00,0.2918
3848.00,0.2913
3847.00,0.2910
3846.00,0.2907
3845.00,0.2905
3844.00,0.2904
3843.00,0.2905
3842.00,0.2907
3841.00,0.2909
3840.00,0.2910
3839.00,0.2911
3838.00,0.2911
3837.00,0.2911
3836.00,0.2911
3835.00,0.2910
3834.00,0.2909
3833.00,0.2907
3832.00,0.2904
3831.00,0.2902
3830.00,0.2900
3829.00,0.2899
3828.00,0.2898
3827.00,0.2897
3826.00,0.2897
3825.00,0.2897
3824.00,0.2899
3823.00,0.2899
3822.00,0.2899
3821.00,0.2900
3820.00,0.2900
3819.00,0.2899
3818.00,0.2898
3817.00,0.2894
3816.00,0.2890
3815.00,0.2886
3814.00,0.2883
3813.00,0.2879
3812.00,0.2875
3811.00,0.2871
3810.00,0.2869
3809.00,0.2868
3808.00,0.2866
3807.00,0.2865
3806.00,0.2865
3805.00,0.2866
3804.00,0.2866
3803.00,0.2864
3802.00,0.2862
3801.00,0.2860
3800.00,0.2859
3799.00,0.2858
3798.00,0.2856
3797.00,0.2853
3796.00,0.2850
3795.00,0.2847
3794.00,0.2845
3793.00,0.2842
3792.00,0.2840
3791.00,0.2838
3790.00,0.2836
3789.00,0.2835
3788.00,0.2834
3787.00,0.2833
3786.00,0.2831
3785.00,0.2829
3784.00,0.2827
3783.00,0.2826
3782.00,0.2825
3781.00,0.2823
3780.00,0.2822
3779.00,0.2820
3778.00,0.2818
3777.00,0.2817
3776.00,0.2815
3775.00,0.2813
3774.00,0.2812
3773.00,0.2811
3772.00,0.2810
3771.00,0.2809
3770.00,0.2808
3769.00,0.2807
3768.00,0.2807
3767.00,0.2806
3766.00,0.2804
3765.00,0.2803
3764.00,0.2802
3763.00,0.2801
3762.00,0.2800
3761.00,0.2799
3760.00,0.2798
3759.00,0.2797
3758.00,0.2797
3757.00,0.2796
3756.00,0.2797
3755.00,0.2797
3754.00,0.2797
3753.00,0.2797
3752.00,0.2797
3751.00,0.2797
3750.00,0.2797
3749.00,0.2797
3748.00,0.2798
3747.00,0.2798
3746.00,0.2796
3745.00,0.2792
3744.00,0.2788
3743.00,0.2786
3742.00,0.2783
3741.00,0.2780
3740.00,0.2778
3739.00,0.2776
3738.00,0.2776
3737.00,0.2775
3736.00,0.2774
3735.00,0.2774
3734.00,0.2773
3733.00,0.2772
3732.00,0.2770
3731.00,0.2768
3730.00,0.2767
3729.00,0.2765
3728.00,0.2763
3727.00,0.2761
3726.00,0.2759
3725.00,0.2758
3724.00,0.2757
3723.00,0.2757
3722.00,0.2756
3721.00,0.2754
3720.00,0.2752
3719.00,0.2750
3718.00,0.2749
3717.00,0.2748
3716.00,0.2748
3715.00,0.2749
3714.00,0.2749
3713.00,0.2750
3712.00,0.2752
3711.00,0.2753
3710.00,0.2754
3709.00,0.2754
3708.00,0.2753
3707.00,0.2752
3706.00,0.2750
3705.00,0.2749
3704.00,0.2749
3703.00,0.2749
3702.00,0.2749
3701.00,0.2750
3700.00,0.2751
3699.00,0.2753
3698.00,0.2755
3697.00,0.2756
3696.00,0.2757
3695.00,0.2759
3694.00,0.2762
3693.00,0.2765
3692.00,0.2769
3691.00,0.2774
3690.00,0.2778
3689.00,0.2782
3688.00,0.2786
3687.00,0.2788
3686.00,0.2788
3685.00,0.2788
3684.00,0.2788
3683.00,0.2788
3682.00,0.2788
3681.00,0.2790
3680.00,0.2793
3679.00,0.2797
3678.00,0.2801
3677.00,0.2804
3676.00,0.2808
3675.00,0.2813
3674.00,0.2817
3673.00,0.2821
3672.00,0.2824
3671.00,0.2825
3670.00,0.2827
3669.00,0.2829
3668.00,0.2831
3667.00,0.2832
3666.00,0.2833
3665.00,0.2835
3664.00,0.2837
3663.00,0.2840
3662.00,0.2844
3661.00,0.2849
3660.00,0.2855
3659.00,0.2861
3658.00,0.2868
3657.00,0.2874
3656.00,0.2882
3655.00,0.2889
3654.00,0.2897
3653.00,0.2905
3652.00,0.2911
3651.00,0.2918
3650.00,0.2926
3649.00,0.2936
3648.00,0.2945
3647.00,0.2952
3646.00,0.2956
3645.00,0.2959
3644.00,0.2962
3643.00,0.2965
3642.00,0.2969
3641.00,0.2975
3640.00,0.2981
3639.00,0.2989
3638.00,0.2997
3637.00,0.3005
3636.00,0.3014
3635.00,0.3023
3634.00,0.3032
3633.00,0.3043
3632.00,0.3055
3631.00,0.3068
3630.00,0.3084
3629.00,0.3103
3628.00,0.3124
3627.00,0.3141
3626.00,0.3154
3625.00,0.3162
3624.00,0.3166
3623.00,0.3167
3622.00,0.3166
3621.00,0.3164
3620.00,0.3161
3619.00,0.3157
3618.00,0.3154
3617.00,0.3152
3616.00,0.3151
3615.00,0.3151
3614.00,0.3152
3613.00,0.3155
3612.00,0.3159
3611.00,0.3163
3610.00,0.3167
3609.00,0.3171
3608.00,0.3176
3607.00,0.3180
3606.00,0.3183
3605.00,0.3185
3604.00,0.3187
3603.00,0.3188
3602.00,0.3188
3601.00,0.3189
3600.00,0.3190
3599.00,0.3190
3598.00,0.3190
3597.00,0.3190
3596.00,0.3190
3595.00,0.3190
3594.00,0.3190
3593.00,0.3190
3592.00,0.3192
3591.00,0.3194
3590.00,0.3197
3589.00,0.3200
3588.00,0.3204
3587.00,0.3208
3586.00,0.3212
3585.00,0.3215
3584.00,0.3218
3583.00,0.3220
3582.00,0.3223
3581.00,0.3226
3580.00,0.3229
3579.00,0.3232
3578.00,0.3235
3577.00,0.3239
3576.00,0.3244
3575.00,0.3249
3574.00,0.3254
3573.00,0.3260
3572.00,0.3266
3571.00,0.3271
3570.00,0.3277
3569.00,0.3283
3568.00,0.3289
3567.00,0.3297
3566.00,0.3305
3565.00,0.3313
3564.00,0.3319
3563.00,0.3324
3562.00,0.3329
3561.00,0.3334
3560.00,0.3339
3559.00,0.3345
3558.00,0.3352
3557.00,0.3359
3556.00,0.3367
3555.00,0.3374
3554.00,0.3382
3553.00,0.3390
3552.00,0.3399
3551.00,0.3408
3550.00,0.3416
3549.00,0.3424
3548.00,0.3432
3547.00,0.3440
3546.00,0.3448
3545.00,0.3457
3544.00,0.3466
3543.00,0.3474
3542.00,0.3482
3541.00,0.3490
3540.00,0.3497
3539.00,0.3504
3538.00,0.3512
3537.00,0.3521
3536.00,0.3530
3535.00,0.3538
3534.00,0.3545
3533.00,0.3553
3532.00,0.3560
3531.00,0.3569
3530.00,0.3578
3529.00,0.3587
3528.00,0.3596
3527.00,0.3604
3526.00,0.3612
3525.00,0.3621
3524.00,0.3629
3523.00,0.3638
3522.00,0.3646
3521.00,0.3654
3520.00,0.3662
3519.00,0.3671
3518.00,0.3679
3517.00,0.3687
3516.00,0.3696
3515.00,0.3704
3514.00,0.3714
3513.00,0.3724
3512.00,0.3734
3511.00,0.3744
3510.00,0.3754
3509.00,0.3763
3508.00,0.3772
3507.00,0.3781
3506.00,0.3791
3505.00,0.3802
3504.00,0.3813
3503.00,0.3823
3502.00,0.3833
3501.00,0.3842
3500.00,0.3851
3499.00,0.3859
3498.00,0.3868
3497.00,0.3878
3496.00,0.3889
3495.00,0.3900
3494.00,0.3911
3493.00,0.3922
3492.00,0.3933
3491.00,0.3944
3490.00,0.3955
3489.00,0.3966
3488.00,0.3977
3487.00,0.3988
3486.00,0.3999
3485.00,0.4010
3484.00,0.4020
3483.00,0.4030
3482.00,0.4039
3481.00,0.4049
3480.00,0.4059
3479.00,0.4069
3478.00,0.4078
3477.00,0.4087
3476.00,0.4097
3475.00,0.4107
3474.00,0.4117
3473.00,0.4127
3472.00,0.4136
3471.00,0.4144
3470.00,0.4153
3469.00,0.4163
3468.00,0.4174
3467.00,0.4186
3466.00,0.4197
3465.00,0.4208
3464.00,0.4218
3463.00,0.4227
3462.00,0.4238
3461.00,0.4249
3460.00,0.4260
3459.00,0.4272
3458.00,0.4283
3457.00,0.4295
3456.00,0.4306
3455.00,0.4317
3454.00,0.4328
3453.00,0.4339
3452.00,0.4351
3451.00,0.4363
3450.00,0.4375
3449.00,0.4388
3448.00,0.4400
3447.00,0.4413
3446.00,0.4426
3445.00,0.4439
3444.00,0.4451
3443.00,0.4462
3442.00,0.4474
3441.00,0.4486
3440.00,0.4499
3439.00,0.4511
3438.00,0.4524
3437.00,0.4537
3436.00,0.4550
3435.00,0.4564
3434.00,0.4577
3433.00,0.4591
3432.00,0.4604
3431.00,0.4616
3430.00,0.4629
3429.00,0.4642
3428.00,0.4656
3427.00,0.4671
3426.00,0.4685
3425.00,0.4699
3424.00,0.4713
3423.00,0.4727
3422.00,0.4742
3421.00,0.4757
3420.00,0.4772
3419.00,0.4786
3418.00,0.4800
3417.00,0.4815
3416.00,0.4830
3415.00,0.4845
3414.00,0.4860
3413.00,0.4876
3412.00,0.4891
3411.00,0.4907
3410.00,0.4923
3409.00,0.4939
3408.00,0.4955
3407.00,0.4971
3406.00,0.4987
3405.00,0.5003
3404.00,0.5018
3403.00,0.5034
3402.00,0.5049
3401.00,0.5066
3400.00,0.5083
3399.00,0.5100
3398.00,0.5118
3397.00,0.5136
3396.00,0.5153
3395.00,0.5170
3394.00,0.5186
3393.00,0.5202
3392.00,0.5219
3391.00,0.5235
3390.00,0.5253
3389.00,0.5271
3388.00,0.5289
3387.00,0.5307
3386.00,0.5325
3385.00,0.5343
3384.00,0.5361
3383.00,0.5379
3382.00,0.5397
3381.00,0.5416
3380.00,0.5434
3379.00,0.5452
3378.00,0.5471
3377.00,0.5490
3376.00,0.5510
3375.00,0.5531
3374.00,0.5551
3373.00,0.5572
3372.00,0.5592
3371.00,0.5612
3370.00,0.5633
3369.00,0.5653
3368.00,0.5674
3367.00,0.5695
3366.00,0.5716
3365.00,0.5738
3364.00,0.5761
3363.00,0.5783
3362.00,0.5805
3361.00,0.5827
3360.00,0.5850
3359.00,0.5873
3358.00,0.5897
3357.00,0.5921
3356.00,0.5945
3355.00,0.5969
3354.00,0.5993
3353.00,0.6017
3352.00,0.6041
3351.00,0.6065
3350.00,0.6088
3349.00,0.6110
3348.00,0.6132
3347.00,0.6154
3346.00,0.6176
3345.00,0.6196
3344.00,0.6217
3343.00,0.6238
3342.00,0.6260
3341.00,0.6281
3340.00,0.6301
3339.00,0.6320
3338.00,0.6337
3337.00,0.6353
3336.00,0.6369
3335.00,0.6385
3334.00,0.6400
3333.00,0.6414
3332.00,0.6428
3331.00,0.6441
3330.00,0.6453
3329.00,0.6464
3328.00,0.6473
3327.00,0.6481
3326.00,0.6489
3325.00,0.6497
3324.00,0.6504
3323.00,0.6509
3322.00,0.6515
3321.00,0.6519
3320.00,0.6523
3319.00,0.6527
3318.00,0.6529
3317.00,0.6531
3316.00,0.6531
3315.00,0.6532
3314.00,0.6533
3313.00,0.6533
3312.00,0.6533
3311.00,0.6533
3310.00,0.6531
3309.00,0.6530
3308.00,0.6529
3307.00,0.6527
3306.00,0.6525
3305.00,0.6523
3304.00,0.6520
3303.00,0.6516
3302.00,0.6512
3301.00,0.6509
3300.00,0.6506
3299.00,0.6502
3298.00,0.6498
3297.00,0.6493
3296.00,0.6489
3295.00,0.6485
3294.00,0.6482
3293.00,0.6480
3292.00,0.6479
3291.00,0.6476
3290.00,0.6473
3289.00,0.6469
3288.00,0.6466
3287.00,0.6464
3286.00,0.6462
3285.00,0.6459
3284.00,0.6457
3283.00,0.6454
3282.00,0.6452
3281.00,0.6452
3280.00,0.6452
3279.00,0.6454
3278.00,0.6455
3277.00,0.6456
3276.00,0.6458
3275.00,0.6458
3274.00,0.6459
3273.00,0.6460
3272.00,0.6461
3271.00,0.6462
3270.00,0.6465
3269.00,0.6467
3268.00,0.6470
3267.00,0.6473
3266.00,0.6475
3265.00,0.6476
3264.00,0.6477
3263.00,0.6478
3262.00,0.6480
3261.00,0.6483
3260.00,0.6487
3259.00,0.6490
3258.00,0.6493
3257.00,0.6495
3256.00,0.6497
3255.00,0.6499
3254.00,0.6501
3253.00,0.6504
3252.00,0.6506
3251.00,0.6507
3250.00,0.6507
3249.00,0.6508
3248.00,0.6509
3247.00,0.6509
3246.00,0.6508
3245.00,0.6508
3244.00,0.6507
3243.00,0.6506
3242.00,0.6505
3241.00,0.6503
3240.00,0.6502
3239.00,0.6500
3238.00,0.6499
3237.00,0.6497
3236.00,0.6493
3235.00,0.6489
3234.00,0.6484
3233.00,0.6480
3232.00,0.6475
3231.00,0.6471
3230.00,0.6465
3229.00,0.6459
3228.00,0.6452
3227.00,0.6445
3226.00,0.6438
3225.00,0.6430
3224.00,0.6423
3223.00,0.6416
3222.00,0.6408
3221.00,0.6401
3220.00,0.6393
3219.00,0.6384
3218.00,0.6375
3217.00,0.6365
3216.00,0.6356
3215.00,0.6347
3214.00,0.6339
3213.00,0.6330
3212.00,0.6321
3211.00,0.6311
3210.00,0.6301
3209.00,0.6291
3208.00,0.6281
3207.00,0.6270
3206.00,0.6257
3205.00,0.6245
3204.00,0.6233
3203.00,0.6222
3202.00,0.6210
3201.00,0.6199
3200.00,0.6186
3199.00,0.6173
3198.00,0.6159
3197.00,0.6146
3196.00,0.6133
3195.00,0.6119
3194.00,0.6106
3193.00,0.6091
3192.00,0.6076
3191.00,0.6061
3190.00,0.6045
3189.00,0.6029
3188.00,0.6012
3187.00,0.5994
3186.00,0.5976
3185.00,0.5957
3184.00,0.5939
3183.00,0.5921
3182.00,0.5903
3181.00,0.5885
3180.00,0.5866
3179.00,0.5848
3178.00,0.5830
3177.00,0.5812
3176.00,0.5793
3175.00,0.5772
3174.00,0.5752
3173.00,0.5730
3172.00,0.5709
3171.00,0.5687
3170.00,0.5667
3169.00,0.5647
3168.00,0.5629
3167.00,0.5609
3166.00,0.5588
3165.00,0.5567
3164.00,0.5546
3163.00,0.5525
3162.00,0.5505
3161.00,0.5485
3160.00,0.5466
3159.00,0.5446
3158.00,0.5426
3157.00,0.5406
3156.00,0.5386
3155.00,0.5365
3154.00,0.5345
3153.00,0.5325
3152.00,0.5306
3151.00,0.5287
3150.00,0.5268
3149.00,0.5250
3148.00,0.5233
3147.00,0.5215
3146.00,0.5198
3145.00,0.5181
3144.00,0.5164
3143.00,0.5147
3142.00,0.5130
3141.00,0.5114
3140.00,0.5099
3139.00,0.5085
3138.00,0.5072
3137.00,0.5058
3136.00,0.5044
3135.00,0.5030
3134.00,0.5016
3133.00,0.5004
3132.00,0.4991
3131.00,0.4979
3130.00,0.4967
3129.00,0.4956
3128.00,0.4946
3127.00,0.4936
3126.00,0.4926
3125.00,0.4917
3124.00,0.4908
3123.00,0.4899
3122.00,0.4891
3121.00,0.4883
3120.00,0.4876
3119.00,0.4870
3118.00,0.4864
3117.00,0.4858
3116.00,0.4853
3115.00,0.4849
3114.00,0.4845
3113.00,0.4841
3112.00,0.4839
3111.00,0.4837
3110.00,0.4836
3109.00,0.4835
3108.00,0.4835
3107.00,0.4835
3106.00,0.4835
3105.00,0.4836
3104.00,0.4837
3103.00,0.4838
3102.00,0.4840
3101.00,0.4842
3100.00,0.4844
3099.00,0.4847
3098.00,0.4852
3097.00,0.4858
3096.00,0.4865
3095.00,0.4873
3094.00,0.4882
3093.00,0.4892
3092.00,0.4904
3091.00,0.4917
3090.00,0.4930
3089.00,0.4946
3088.00,0.4963
3087.00,0.4980
3086.00,0.4999
3085.00,0.5019
3084.00,0.5040
3083.00,0.5062
3082.00,0.5086
3081.00,0.5112
3080.00,0.5139
3079.00,0.5168
3078.00,0.5200
3077.00,0.5233
3076.00,0.5267
3075.00,0.5302
3074.00,0.5337
3073.00,0.5373
3072.00,0.5409
3071.00,0.5445
3070.00,0.5480
3069.00,0.5515
3068.00,0.5549
3067.00,0.5582
3066.00,0.5613
3065.00,0.5642
3064.00,0.5669
3063.00,0.5693
3062.00,0.5715
3061.00,0.5737
3060.00,0.5758
3059.00,0.5780
3058.00,0.5801
3057.00,0.5824
3056.00,0.5848
3055.00,0.5873
3054.00,0.5901
3053.00,0.5931
3052.00,0.5964
3051.00,0.6000
3050.00,0.6038
3049.00,0.6079
3048.00,0.6121
3047.00,0.6165
3046.00,0.6209
3045.00,0.6255
3044.00,0.6300
3043.00,0.6344
3042.00,0.6389
3041.00,0.6433
3040.00,0.6478
3039.00,0.6523
3038.00,0.6569
3037.00,0.6616
3036.00,0.6665
3035.00,0.6717
3034.00,0.6773
3033.00,0.6834
3032.00,0.6900
3031.00,0.6969
3030.00,0.7043
3029.00,0.7121
3028.00,0.7203
3027.00,0.7290
3026.00,0.7381
3025.00,0.7477
3024.00,0.7578
3023.00,0.7684
3022.00,0.7793
3021.00,0.7907
3020.00,0.8024
3019.00,0.8145
3018.00,0.8269
3017.00,0.8394
3016.00,0.8520
3015.00,0.8648
3014.00,0.8781
3013.00,0.8921
3012.00,0.9069
3011.00,0.9223
3010.00,0.9384
3009.00,0.9555
3008.00,0.9735
3007.00,0.9924
3006.00,1.0121
3005.00,1.0326
3004.00,1.0540
3003.00,1.0763
3002.00,1.0997
3001.00,1.1239
3000.00,1.1492
2999.00,1.1757
2998.00,1.2040
2997.00,1.2345
2996.00,1.2677
2995.00,1.3041
2994.00,1.3439
2993.00,1.3876
2992.00,1.4358
2991.00,1.4888
2990.00,1.5474
2989.00,1.6118
2988.00,1.6829
2987.00,1.7616
2986.00,1.8493
2985.00,1.9470
2984.00,2.0553
2983.00,2.1753
2982.00,2.3080
2981.00,2.4529
2980.00,2.6062
2979.00,2.7641
2978.00,2.9277
2977.00,3.1006
2976.00,3.2823
2975.00,3.4560
2974.00,3.5981
2973.00,3.7055
2972.00,3.8044
2971.00,3.8903
2970.00,3.8891
2969.00,3.8206
2968.00,3.7550
2967.00,3.7104
2966.00,3.6755
2965.00,3.6648
2964.00,3.7175
2963.00,3.8343
2962.00,3.9216
2961.00,3.8762
2960.00,3.8006
2959.00,3.8014
2958.00,3.8603
2957.00,3.8982
2956.00,3.9316
2955.00,4.0042
2954.00,4.0424
2953.00,3.9823
2952.00,3.9177
2951.00,3.9527
2950.00,4.1045
2949.00,4.4482
2948.00,4.8180
2947.00,4.3799
2946.00,4.0328
2945.00,3.8639
2944.00,3.8489
2943.00,3.9458
2942.00,4.1219
2941.00,4.3931
2940.00,4.4997
2939.00,4.2331
2938.00,3.9965
2937.00,3.9116
2936.00,3.9986
2935.00,4.1566
2934.00,4.3224
2933.00,4.3007
2932.00,4.0807
2931.00,3.9092
2930.00,3.8462
2929.00,3.8902
2928.00,3.9619
2927.00,4.0654
2926.00,4.1003
2925.00,4.0143
2924.00,3.9337
2923.00,3.9170
2922.00,3.9700
2921.00,4.0120
2920.00,4.0524
2919.00,4.0530
2918.00,3.9838
2917.00,3.9020
2916.00,3.8176
2915.00,3.7545
2914.00,3.7124
2913.00,3.7045
2912.00,3.7478
2911.00,3.8468
2910.00,4.0274
2909.00,4.2442
2908.00,4.2089
2907.00,3.9765
2906.00,3.7850
2905.00,3.6950
2904.00,3.6867
2903.00,3.7357
2902.00,3.8317
2901.00,3.9427
2900.00,4.0684
2899.00,4.1902
2898.00,4.2113
2897.00,4.2274
2896.00,4.2833
2895.00,4.3098
2894.00,4.2809
2893.00,4.2270
2892.00,4.1450
2891.00,3.9622
2890.00,3.7920
2889.00,3.6953
2888.00,3.6674
2887.00,3.7076
2886.00,3.7766
2885.00,3.8000
2884.00,3.7783
2883.00,3.7970
2882.00,3.8881
2881.00,4.0672
2880.00,4.3425
2879.00,4.3813
2878.00,4.1329
2877.00,3.9318
2876.00,3.8733
2875.00,3.8942
2874.00,3.9719
2873.00,4.1740
2872.00,4.4237
2871.00,4.5724
2870.00,4.4716
2869.00,4.2856
2868.00,4.2144
2867.00,4.2519
2866.00,4.3064
2865.00,4.1550
2864.00,3.9604
2863.00,3.8176
2862.00,3.7382
2861.00,3.7587
2860.00,3.9390
2859.00,4.3644
2858.00,4.6513
2857.00,4.3353
2856.00,4.1200
2855.00,4.1373
2854.00,4.3053
2853.00,4.4756
2852.00,4.4339
2851.00,4.1103
2850.00,3.8773
2849.00,3.7589
2848.00,3.7271
2847.00,3.7428
2846.00,3.7697
2845.00,3.8281
2844.00,3.9207
2843.00,4.0184
2842.00,4.0944
2841.00,4.0621
2840.00,3.9068
2839.00,3.7005
2838.00,3.4874
2837.00,3.2754
2836.00,3.0669
2835.00,2.8680
2834.00,2.6790
2833.00,2.5021
2832.00,2.3417
2831.00,2.1992
2830.00,2.0722
2829.00,1.9577
2828.00,1.8544
2827.00,1.7620
2826.00,1.6796
2825.00,1.6056
2824.00,1.5382
2823.00,1.4764
2822.00,1.4198
2821.00,1.3680
2820.00,1.3204
2819.00,1.2765
2818.00,1.2358
2817.00,1.1980
2816.00,1.1627
2815.00,1.1299
2814.00,1.0992
2813.00,1.0702
2812.00,1.0428
2811.00,1.0168
2810.00,0.9922
2809.00,0.9690
2808.00,0.9472
2807.00,0.9267
2806.00,0.9071
2805.00,0.8884
2804.00,0.8706
2803.00,0.8538
2802.00,0.8379
2801.00,0.8228
2800.00,0.8084
2799.00,0.7947
2798.00,0.7814
2797.00,0.7686
2796.00,0.7563
2795.00,0.7445
2794.00,0.7330
2793.00,0.7219
2792.00,0.7111
2791.00,0.7005
2790.00,0.6902
2789.00,0.6800
2788.00,0.6701
2787.00,0.6605
2786.00,0.6511
2785.00,0.6419
2784.00,0.6330
2783.00,0.6244
2782.00,0.6161
2781.00,0.6082
2780.00,0.6006
2779.00,0.5933
2778.00,0.5864
2777.00,0.5798
2776.00,0.5735
2775.00,0.5677
2774.00,0.5622
2773.00,0.5571
2772.00,0.5522
2771.00,0.5476
2770.00,0.5432
2769.00,0.5392
2768.00,0.5356
2767.00,0.5324
2766.00,0.5296
2765.00,0.5271
2764.00,0.5250
2763.00,0.5231
2762.00,0.5214
2761.00,0.5199
2760.00,0.5186
2759.00,0.5172
2758.00,0.5160
2757.00,0.5148
2756.00,0.5136
2755.00,0.5125
2754.00,0.5115
2753.00,0.5107
2752.00,0.5101
2751.00,0.5097
2750.00,0.5095
2749.00,0.5094
2748.00,0.5095
2747.00,0.5099
2746.00,0.5104
2745.00,0.5112
2744.00,0.5124
2743.00,0.5139
2742.00,0.5157
2741.00,0.5180
2740.00,0.5207
2739.00,0.5239
2738.00,0.5276
2737.00,0.5317
2736.00,0.5364
2735.00,0.5415
2734.00,0.5468
2733.00,0.5520
2732.00,0.5568
2731.00,0.5610
2730.00,0.5643
2729.00,0.5666
2728.00,0.5677
2727.00,0.5680
2726.00,0.5675
2725.00,0.5664
2724.00,0.5649
2723.00,0.5630
2722.00,0.5605
2721.00,0.5576
2720.00,0.5541
2719.00,0.5502
2718.00,0.5460
2717.00,0.5415
2716.00,0.5366
2715.00,0.5316
2714.00,0.5266
2713.00,0.5217
2712.00,0.5172
2711.00,0.5130
2710.00,0.5092
2709.00,0.5059
2708.00,0.5029
2707.00,0.5004
2706.00,0.4982
2705.00,0.4965
2704.00,0.4951
2703.00,0.4940
2702.00,0.4931
2701.00,0.4924
2700.00,0.4919
2699.00,0.4917
2698.00,0.4916
2697.00,0.4917
2696.00,0.4920
2695.00,0.4924
2694.00,0.4929
2693.00,0.4934
2692.00,0.4941
2691.00,0.4947
2690.00,0.4953
2689.00,0.4959
2688.00,0.4965
2687.00,0.4970
2686.00,0.4975
2685.00,0.4978
2684.00,0.4982
2683.00,0.4985
2682.00,0.4988
2681.00,0.4993
2680.00,0.4997
2679.00,0.5001
2678.00,0.5006
2677.00,0.5010
2676.00,0.5016
2675.00,0.5022
2674.00,0.5029
2673.00,0.5036
2672.00,0.5041
2671.00,0.5045
2670.00,0.5045
2669.00,0.5043
2668.00,0.5038
2667.00,0.5030
2666.00,0.5020
2665.00,0.5006
2664.00,0.4990
2663.00,0.4972
2662.00,0.4952
2661.00,0.4932
2660.00,0.4910
2659.00,0.4887
2658.00,0.4865
2657.00,0.4843
2656.00,0.4822
2655.00,0.4801
2654.00,0.4782
2653.00,0.4763
2652.00,0.4745
2651.00,0.4727
2650.00,0.4710
2649.00,0.4693
2648.00,0.4678
2647.00,0.4662
2646.00,0.4648
2645.00,0.4633
2644.00,0.4619
2643.00,0.4606
2642.00,0.4595
2641.00,0.4584
2640.00,0.4575
2639.00,0.4565
2638.00,0.4556
2637.00,0.4547
2636.00,0.4539
2635.00,0.4530
2634.00,0.4522
2633.00,0.4513
2632.00,0.4504
2631.00,0.4495
2630.00,0.4485
2629.00,0.4475
2628.00,0.4465
2627.00,0.4455
2626.00,0.4445
2625.00,0.4435
2624.00,0.4426
2623.00,0.4417
2622.00,0.4408
2621.00,0.4399
2620.00,0.4390
2619.00,0.4381
2618.00,0.4371
2617.00,0.4361
2616.00,0.4351
2615.00,0.4341
2614.00,0.4330
2613.00,0.4319
2612.00,0.4308
2611.00,0.4296
2610.00,0.4284
2609.00,0.4272
2608.00,0.4261
2607.00,0.4249
2606.00,0.4238
2605.00,0.4228
2604.00,0.4217
2603.00,0.4206
2602.00,0.4196
2601.00,0.4185
2600.00,0.4173
2599.00,0.4161
2598.00,0.4147
2597.00,0.4131
2596.00,0.4115
2595.00,0.4099
2594.00,0.4083
2593.00,0.4066
2592.00,0.4049
2591.00,0.4032
2590.00,0.4015
2589.00,0.3997
2588.00,0.3981
2587.00,0.3964
2586.00,0.3947
2585.00,0.3929
2584.00,0.3911
2583.00,0.3892
2582.00,0.3873
2581.00,0.3854
2580.00,0.3834
2579.00,0.3814
2578.00,0.3794
2577.00,0.3776
2576.00,0.3758
2575.00,0.3741
2574.00,0.3725
2573.00,0.3709
2572.00,0.3694
2571.00,0.3678
2570.00,0.3663
2569.00,0.3648
2568.00,0.3633
2567.00,0.3618
2566.00,0.3603
2565.00,0.3589
2564.00,0.3574
2563.00,0.3560
2562.00,0.3545
2561.00,0.3531
2560.00,0.3518
2559.00,0.3505
2558.00,0.3493
2557.00,0.3480
2556.00,0.3467
2555.00,0.3455
2554.00,0.3443
2553.00,0.3431
2552.00,0.3420
2551.00,0.3409
2550.00,0.3399
2549.00,0.3388
2548.00,0.3378
2547.00,0.3368
2546.00,0.3358
2545.00,0.3348
2544.00,0.3338
2543.00,0.3329
2542.00,0.3320
2541.00,0.3312
2540.00,0.3304
2539.00,0.3296
2538.00,0.3289
2537.00,0.3281
2536.00,0.3274
2535.00,0.3266
2534.00,0.3259
2533.00,0.3252
2532.00,0.3244
2531.00,0.3237
2530.00,0.3229
2529.00,0.3220
2528.00,0.3212
2527.00,0.3202
2526.00,0.3193
2525.00,0.3183
2524.00,0.3174
2523.00,0.3164
2522.00,0.3154
2521.00,0.3144
2520.00,0.3135
2519.00,0.3126
2518.00,0.3117
2517.00,0.3109
2516.00,0.3101
2515.00,0.3093
2514.00,0.3085
2513.00,0.3078
2512.00,0.3071
2511.00,0.3064
2510.00,0.3057
2509.00,0.3051
2508.00,0.3045
2507.00,0.3040
2506.00,0.3034
2505.00,0.3029
2504.00,0.3024
2503.00,0.3019
2502.00,0.3015
2501.00,0.3011
2500.00,0.3007
2499.00,0.3003
2498.00,0.2999
2497.00,0.2995
2496.00,0.2992
2495.00,0.2988
2494.00,0.2985
2493.00,0.2981
2492.00,0.2978
2491.00,0.2974
2490.00,0.2970
2489.00,0.2966
2488.00,0.2963
2487.00,0.2959
2486.00,0.2955
2485.00,0.2952
2484.00,0.2948
2483.00,0.2945
2482.00,0.2942
2481.00,0.2938
2480.00,0.2935
2479.00,0.2933
2478.00,0.2930
2477.00,0.2926
2476.00,0.2922
2475.00,0.2918
2474.00,0.2915
2473.00,0.2911
2472.00,0.2908
2471.00,0.2905
2470.00,0.2901
2469.00,0.2898
2468.00,0.2895
2467.00,0.2892
2466.00,0.2888
2465.00,0.2885
2464.00,0.2881
2463.00,0.2878
2462.00,0.2875
2461.00,0.2872
2460.00,0.2869
2459.00,0.2866
2458.00,0.2864
2457.00,0.2861
2456.00,0.2859
2455.00,0.2858
2454.00,0.2856
2453.00,0.2855
2452.00,0.2853
2451.00,0.2852
2450.00,0.2851
2449.00,0.2851
2448.00,0.2851
2447.00,0.2851
2446.00,0.2851
2445.00,0.2851
2444.00,0.2851
2443.00,0.2851
2442.00,0.2851
2441.00,0.2851
2440.00,0.2852
2439.00,0.2852
2438.00,0.2852
2437.00,0.2853
2436.00,0.2854
2435.00,0.2855
2434.00,0.2856
2433.00,0.2856
2432.00,0.2857
2431.00,0.2857
2430.00,0.2857
2429.00,0.2858
2428.00,0.2859
2427.00,0.2860
2426.00,0.2860
2425.00,0.2860
2424.00,0.2861
2423.00,0.2861
2422.00,0.2861
2421.00,0.2861
2420.00,0.2861
2419.00,0.2861
2418.00,0.2861
2417.00,0.2861
2416.00,0.2861
2415.00,0.2862
2414.00,0.2862
2413.00,0.2862
2412.00,0.2863
2411.00,0.2863
2410.00,0.2863
2409.00,0.2864
2408.00,0.2864
2407.00,0.2864
2406.00,0.2863
2405.00,0.2862
2404.00,0.2861
2403.00,0.2859
2402.00,0.2858
2401.00,0.2857
2400.00,0.2856
2399.00,0.2855
2398.00,0.2854
2397.00,0.2852
2396.00,0.2851
2395.00,0.2849
2394.00,0.2847
2393.00,0.2846
2392.00,0.2844
2391.00,0.2843
2390.00,0.2841
2389.00,0.2840
2388.00,0.2839
2387.00,0.2839
2386.00,0.2838
2385.00,0.2838
2384.00,0.2838
2383.00,0.2837
2382.00,0.2836
2381.00,0.2836
2380.00,0.2836
2379.00,0.2837
2378.00,0.2836
2377.00,0.2836
2376.00,0.2836
2375.00,0.2835
2374.00,0.2833
2373.00,0.2832
2372.00,0.2831
2371.00,0.2830
2370.00,0.2828
2369.00,0.2827
2368.00,0.2825
2367.00,0.2824
2366.00,0.2824
2365.00,0.2823
2364.00,0.2823
2363.00,0.2822
2362.00,0.2821
2361.00,0.2821
2360.00,0.2820
2359.00,0.2819
2358.00,0.2818
2357.00,0.2817
2356.00,0.2817
2355.00,0.2816
2354.00,0.2814
2353.00,0.2813
2352.00,0.2811
2351.00,0.2808
2350.00,0.2804
2349.00,0.2801
2348.00,0.2800
2347.00,0.2801
2346.00,0.2804
2345.00,0.2805
2344.00,0.2805
2343.00,0.2803
2342.00,0.2800
2341.00,0.2799
2340.00,0.2798
2339.00,0.2797
2338.00,0.2796
2337.00,0.2795
2336.00,0.2795
2335.00,0.2795
2334.00,0.2794
2333.00,0.2793
2332.00,0.2791
2331.00,0.2790
2330.00,0.2789
2329.00,0.2788
2328.00,0.2787
2327.00,0.2785
2326.00,0.2783
2325.00,0.2781
2324.00,0.2779
2323.00,0.2776
2322.00,0.2773
2321.00,0.2771
2320.00,0.2769
2319.00,0.2767
2318.00,0.2764
2317.00,0.2761
2316.00,0.2758
2315.00,0.2755
2314.00,0.2751
2313.00,0.2748
2312.00,0.2744
2311.00,0.2741
2310.00,0.2737
2309.00,0.2734
2308.00,0.2732
2307.00,0.2729
2306.00,0.2725
2305.00,0.2722
2304.00,0.2719
2303.00,0.2717
2302.00,0.2714
2301.00,0.2711
2300.00,0.2709
2299.00,0.2707
2298.00,0.2705
2297.00,0.2703
2296.00,0.2701
2295.00,0.2699
2294.00,0.2696
2293.00,0.2694
2292.00,0.2691
2291.00,0.2689
2290.00,0.2686
2289.00,0.2683
2288.00,0.2680
2287.00,0.2677
2286.00,0.2674
2285.00,0.2672
2284.00,0.2670
2283.00,0.2667
2282.00,0.2664
2281.00,0.2660
2280.00,0.2656
2279.00,0.2651
2278.00,0.2647
2277.00,0.2644
2276.00,0.2641
2275.00,0.2638
2274.00,0.2635
2273.00,0.2632
2272.00,0.2630
2271.00,0.2628
2270.00,0.2626
2269.00,0.2625
2268.00,0.2623
2267.00,0.2621
2266.00,0.2619
2265.00,0.2617
2264.00,0.2616
2263.00,0.2614
2262.00,0.2613
2261.00,0.2611
2260.00,0.2609
2259.00,0.2606
2258.00,0.2603
2257.00,0.2600
2256.00,0.2598
2255.00,0.2596
2254.00,0.2593
2253.00,0.2591
2252.00,0.2588
2251.00,0.2585
2250.00,0.2582
2249.00,0.2579
2248.00,0.2577
2247.00,0.2574
2246.00,0.2572
2245.00,0.2569
2244.00,0.2567
2243.00,0.2564
2242.00,0.2562
2241.00,0.2560
2240.00,0.2559
2239.00,0.2557
2238.00,0.2555
2237.00,0.2553
2236.00,0.2552
2235.00,0.2551
2234.00,0.2549
2233.00,0.2548
2232.00,0.2547
2231.00,0.2545
2230.00,0.2544
2229.00,0.2543
2228.00,0.2543
2227.00,0.2542
2226.00,0.2540
2225.00,0.2539
2224.00,0.2538
2223.00,0.2536
2222.00,0.2535
2221.00,0.2534
2220.00,0.2533
2219.00,0.2532
2218.00,0.2531
2217.00,0.2531
2216.00,0.2530
2215.00,0.2530
2214.00,0.2529
2213.00,0.2528
2212.00,0.2527
2211.00,0.2526
2210.00,0.2525
2209.00,0.2525
2208.00,0.2525
2207.00,0.2524
2206.00,0.2524
2205.00,0.2523
2204.00,0.2523
2203.00,0.2523
2202.00,0.2522
2201.00,0.2522
2200.00,0.2523
2199.00,0.2523
2198.00,0.2523
2197.00,0.2523
2196.00,0.2524
2195.00,0.2523
2194.00,0.2523
2193.00,0.2523
2192.00,0.2523
2191.00,0.2523
2190.00,0.2523
2189.00,0.2523
2188.00,0.2523
2187.00,0.2522
2186.00,0.2521
2185.00,0.2520
2184.00,0.2519
2183.00,0.2518
2182.00,0.2518
2181.00,0.2517
2180.00,0.2516
2179.00,0.2515
2178.00,0.2514
2177.00,0.2513
2176.00,0.2511
2175.00,0.2510
2174.00,0.2509
2173.00,0.2508
2172.00,0.2507
2171.00,0.2506
2170.00,0.2506
2169.00,0.2505
2168.00,0.2504
2167.00,0.2503
2166.00,0.2502
2165.00,0.2500
2164.00,0.2499
2163.00,0.2498
2162.00,0.2496
2161.00,0.2495
2160.00,0.2494
2159.00,0.2492
2158.00,0.2490
2157.00,0.2488
2156.00,0.2486
2155.00,0.2483
2154.00,0.2481
2153.00,0.2478
2152.00,0.2476
2151.00,0.2474
2150.00,0.2472
2149.00,0.2469
2148.00,0.2465
2147.00,0.2462
2146.00,0.2458
2145.00,0.2454
2144.00,0.2450
2143.00,0.2446
2142.00,0.2441
2141.00,0.2438
2140.00,0.2435
2139.00,0.2433
2138.00,0.2430
2137.00,0.2428
2136.00,0.2426
2135.00,0.2424
2134.00,0.2422
2133.00,0.2420
2132.00,0.2419
2131.00,0.2418
2130.00,0.2416
2129.00,0.2415
2128.00,0.2413
2127.00,0.2412
2126.00,0.2410
2125.00,0.2409
2124.00,0.2407
2123.00,0.2406
2122.00,0.2405
2121.00,0.2403
2120.00,0.2402
2119.00,0.2400
2118.00,0.2398
2117.00,0.2397
2116.00,0.2395
2115.00,0.2394
2114.00,0.2392
2113.00,0.2390
2112.00,0.2388
2111.00,0.2387
2110.00,0.2385
2109.00,0.2384
2108.00,0.2382
2107.00,0.2381
2106.00,0.2380
2105.00,0.2380
2104.00,0.2380
2103.00,0.2380
2102.00,0.2380
2101.00,0.2380
2100.00,0.2380
2099.00,0.2380
2098.00,0.2380
2097.00,0.2380
2096.00,0.2381
2095.00,0.2381
2094.00,0.2382
2093.00,0.2383
2092.00,0.2384
2091.00,0.2384
2090.00,0.2383
2089.00,0.2382
2088.00,0.2382
2087.00,0.2381
2086.00,0.2380
2085.00,0.2379
2084.00,0.2379
2083.00,0.2378
2082.00,0.2376
2081.00,0.2375
2080.00,0.2374
2079.00,0.2372
2078.00,0.2370
2077.00,0.2368
2076.00,0.2367
2075.00,0.2366
2074.00,0.2366
2073.00,0.2366
2072.00,0.2366
2071.00,0.2366
2070.00,0.2366
2069.00,0.2367
2068.00,0.2368
2067.00,0.2369
2066.00,0.2370
2065.00,0.2372
2064.00,0.2373
2063.00,0.2375
2062.00,0.2377
2061.00,0.2379
2060.00,0.2381
2059.00,0.2382
2058.00,0.2384
2057.00,0.2385
2056.00,0.2386
2055.00,0.2388
2054.00,0.2389
2053.00,0.2390
2052.00,0.2390
2051.00,0.2391
2050.00,0.2392
2049.00,0.2393
2048.00,0.2394
2047.00,0.2395
2046.00,0.2395
2045.00,0.2396
2044.00,0.2396
2043.00,0.2396
2042.00,0.2396
2041.00,0.2397
2040.00,0.2397
2039.00,0.2397
2038.00,0.2397
2037.00,0.2397
2036.00,0.2397
2035.00,0.2398
2034.00,0.2398
2033.00,0.2399
2032.00,0.2400
2031.00,0.2401
2030.00,0.2401
2029.00,0.2402
2028.00,0.2402
2027.00,0.2403
2026.00,0.2403
2025.00,0.2404
2024.00,0.2403
2023.00,0.2402
2022.00,0.2400
2021.00,0.2398
2020.00,0.2396
2019.00,0.2392
2018.00,0.2387
2017.00,0.2381
2016.00,0.2375
2015.00,0.2369
2014.00,0.2364
2013.00,0.2358
2012.00,0.2353
2011.00,0.2347
2010.00,0.2342
2009.00,0.2337
2008.00,0.2333
2007.00,0.2328
2006.00,0.2324
2005.00,0.2321
2004.00,0.2318
2003.00,0.2316
2002.00,0.2314
2001.00,0.2313
2000.00,0.2312
1999.00,0.2310
1998.00,0.2309
1997.00,0.2309
1996.00,0.2310
1995.00,0.2311
1994.00,0.2311
1993.00,0.2311
1992.00,0.2310
1991.00,0.2310
1990.00,0.2310
1989.00,0.2310
1988.00,0.2311
1987.00,0.2311
1986.00,0.2311
1985.00,0.2311
1984.00,0.2311
1983.00,0.2311
1982.00,0.2310
1981.00,0.2309
1980.00,0.2309
1979.00,0.2308
1978.00,0.2307
1977.00,0.2307
1976.00,0.2306
1975.00,0.2305
1974.00,0.2304
1973.00,0.2303
1972.00,0.2303
1971.00,0.2302
1970.00,0.2301
1969.00,0.2301
1968.00,0.2300
1967.00,0.2299
1966.00,0.2298
1965.00,0.2298
1964.00,0.2299
1963.00,0.2299
1962.00,0.2300
1961.00,0.2300
1960.00,0.2301
1959.00,0.2303
1958.00,0.2304
1957.00,0.2307
1956.00,0.2310
1955.00,0.2312
1954.00,0.2314
1953.00,0.2316
1952.00,0.2318
1951.00,0.2319
1950.00,0.2320
1949.00,0.2322
1948.00,0.2324
1947.00,0.2326
1946.00,0.2328
1945.00,0.2331
1944.00,0.2334
1943.00,0.2336
1942.00,0.2338
1941.00,0.2340
1940.00,0.2343
1939.00,0.2345
1938.00,0.2346
1937.00,0.2346
1936.00,0.2345
1935.00,0.2344
1934.00,0.2342
1933.00,0.2340
1932.00,0.2338
1931.00,0.2338
1930.00,0.2337
1929.00,0.2338
1928.00,0.2340
1927.00,0.2341
1926.00,0.2344
1925.00,0.2346
1924.00,0.2350
1923.00,0.2353
1922.00,0.2358
1921.00,0.2364
1920.00,0.2371
1919.00,0.2375
1918.00,0.2378
1917.00,0.2381
1916.00,0.2384
1915.00,0.2387
1914.00,0.2388
1913.00,0.2389
1912.00,0.2390
1911.00,0.2390
1910.00,0.2390
1909.00,0.2390
1908.00,0.2390
1907.00,0.2390
1906.00,0.2390
1905.00,0.2389
1904.00,0.2389
1903.00,0.2388
1902.00,0.2388
1901.00,0.2387
1900.00,0.2387
1899.00,0.2387
1898.00,0.2387
1897.00,0.2388
1896.00,0.2388
1895.00,0.2389
1894.00,0.2391
1893.00,0.2394
1892.00,0.2397
1891.00,0.2398
1890.00,0.2398
1889.00,0.2398
1888.00,0.2399
1887.00,0.2400
1886.00,0.2401
1885.00,0.2402
1884.00,0.2403
1883.00,0.2405
1882.00,0.2407
1881.00,0.2408
1880.00,0.2410
1879.00,0.2411
1878.00,0.2412
1877.00,0.2413
1876.00,0.2414
1875.00,0.2415
1874.00,0.2415
1873.00,0.2416
1872.00,0.2418
1871.00,0.2419
1870.00,0.2416
1869.00,0.2412
1868.00,0.2407
1867.00,0.2403
1866.00,0.2399
1865.00,0.2396
1864.00,0.2393
1863.00,0.2390
1862.00,0.2386
1861.00,0.2382
1860.00,0.2380
1859.00,0.2377
1858.00,0.2374
1857.00,0.2371
1856.00,0.2369
1855.00,0.2367
1854.00,0.2365
1853.00,0.2365
1852.00,0.2365
1851.00,0.2365
1850.00,0.2365
1849.00,0.2367
1848.00,0.2370
1847.00,0.2372
1846.00,0.2372
1845.00,0.2371
1844.00,0.2368
1843.00,0.2367
1842.00,0.2367
1841.00,0.2369
1840.00,0.2369
1839.00,0.2369
1838.00,0.2369
1837.00,0.2369
1836.00,0.2369
1835.00,0.2370
1834.00,0.2372
1833.00,0.2375
1832.00,0.2378
1831.00,0.2378
1830.00,0.2376
1829.00,0.2375
1828.00,0.2376
1827.00,0.2377
1826.00,0.2376
1825.00,0.2374
1824.00,0.2374
1823.00,0.2374
1822.00,0.2376
1821.00,0.2378
1820.00,0.2380
1819.00,0.2382
1818.00,0.2385
1817.00,0.2388
1816.00,0.2393
1815.00,0.2398
1814.00,0.2404
1813.00,0.2410
1812.00,0.2416
1811.00,0.2420
1810.00,0.2425
1809.00,0.2431
1808.00,0.2438
1807.00,0.2446
1806.00,0.2454
1805.00,0.2463
1804.00,0.2472
1803.00,0.2480
1802.00,0.2488
1801.00,0.2495
1800.00,0.2503
1799.00,0.2510
1798.00,0.2517
1797.00,0.2527
1796.00,0.2537
1795.00,0.2546
1794.00,0.2553
1793.00,0.2558
1792.00,0.2563
1791.00,0.2569
1790.00,0.2574
1789.00,0.2582
1788.00,0.2590
1787.00,0.2597
1786.00,0.2604
1785.00,0.2611
1784.00,0.2620
1783.00,0.2629
1782.00,0.2637
1781.00,0.2644
1780.00,0.2652
1779.00,0.2661
1778.00,0.2671
1777.00,0.2681
1776.00,0.2692
1775.00,0.2703
1774.00,0.2712
1773.00,0.2720
1772.00,0.2729
1771.00,0.2738
1770.00,0.2746
1769.00,0.2752
1768.00,0.2759
1767.00,0.2766
1766.00,0.2775
1765.00,0.2786
1764.00,0.2796
1763.00,0.2805
1762.00,0.2813
1761.00,0.2822
1760.00,0.2834
1759.00,0.2846
1758.00,0.2858
1757.00,0.2871
1756.00,0.2886
1755.00,0.2904
1754.00,0.2923
1753.00,0.2945
1752.00,0.2970
1751.00,0.3000
1750.00,0.3035
1749.00,0.3073
1748.00,0.3115
1747.00,0.3159
1746.00,0.3208
1745.00,0.3263
1744.00,0.3323
1743.00,0.3387
1742.00,0.3451
1741.00,0.3515
1740.00,0.3579
1739.00,0.3640
1738.00,0.3695
1737.00,0.3741
1736.00,0.3779
1735.00,0.3807
1734.00,0.3829
1733.00,0.3846
1732.00,0.3858
1731.00,0.3859
1730.00,0.3850
1729.00,0.3835
1728.00,0.3819
1727.00,0.3803
1726.00,0.3787
1725.00,0.3773
1724.00,0.3761
1723.00,0.3751
1722.00,0.3746
1721.00,0.3745
1720.00,0.3744
1719.00,0.3740
1718.00,0.3734
1717.00,0.3733
1716.00,0.3737
1715.00,0.3742
1714.00,0.3746
1713.00,0.3749
1712.00,0.3751
1711.00,0.3752
1710.00,0.3752
1709.00,0.3752
1708.00,0.3751
1707.00,0.3747
1706.00,0.3738
1705.00,0.3729
1704.00,0.3721
1703.00,0.3713
1702.00,0.3698
1701.00,0.3672
1700.00,0.3640
1699.00,0.3613
1698.00,0.3593
1697.00,0.3575
1696.00,0.3555
1695.00,0.3540
1694.00,0.3535
1693.00,0.3536
1692.00,0.3538
1691.00,0.3539
1690.00,0.3540
1689.00,0.3544
1688.00,0.3549
1687.00,0.3554
1686.00,0.3558
1685.00,0.3562
1684.00,0.3567
1683.00,0.3574
1682.00,0.3579
1681.00,0.3584
1680.00,0.3590
1679.00,0.3598
1678.00,0.3607
1677.00,0.3617
1676.00,0.3626
1675.00,0.3633
1674.00,0.3643
1673.00,0.3656
1672.00,0.3669
1671.00,0.3680
1670.00,0.3687
1669.00,0.3695
1668.00,0.3706
1667.00,0.3719
1666.00,0.3733
1665.00,0.3748
1664.00,0.3763
1663.00,0.3776
1662.00,0.3788
1661.00,0.3803
1660.00,0.3819
1659.00,0.3835
1658.00,0.3853
1657.00,0.3872
1656.00,0.3892
1655.00,0.3907
1654.00,0.3916
1653.00,0.3927
1652.00,0.3949
1651.00,0.3977
1650.00,0.4002
1649.00,0.4023
1648.00,0.4040
1647.00,0.4053
1646.00,0.4067
1645.00,0.4085
1644.00,0.4108
1643.00,0.4130
1642.00,0.4152
1641.00,0.4178
1640.00,0.4207
1639.00,0.4235
1638.00,0.4262
1637.00,0.4290
1636.00,0.4322
1635.00,0.4353
1634.00,0.4384
1633.00,0.4416
1632.00,0.4449
1631.00,0.4481
1630.00,0.4513
1629.00,0.4550
1628.00,0.4590
1627.00,0.4631
1626.00,0.4673
1625.00,0.4720
1624.00,0.4774
1623.00,0.4833
1622.00,0.4897
1621.00,0.4966
1620.00,0.5041
1619.00,0.5120
1618.00,0.5211
1617.00,0.5324
1616.00,0.5453
1615.00,0.5578
1614.00,0.5692
1613.00,0.5804
1612.00,0.5921
1611.00,0.6041
1610.00,0.6158
1609.00,0.6273
1608.00,0.6386
1607.00,0.6489
1606.00,0.6578
1605.00,0.6662
1604.00,0.6745
1603.00,0.6820
1602.00,0.6888
1601.00,0.6957
1600.00,0.7035
1599.00,0.7119
1598.00,0.7213
1597.00,0.7331
1596.00,0.7484
1595.00,0.7672
1594.00,0.7899
1593.00,0.8188
1592.00,0.8560
1591.00,0.9030
1590.00,0.9622
1589.00,1.0387
1588.00,1.1385
1587.00,1.2652
1586.00,1.4222
1585.00,1.6169
1584.00,1.8595
1583.00,2.1404
1582.00,2.3985
1581.00,2.5782
1580.00,2.6865
1579.00,2.6231
1578.00,2.3526
1577.00,2.0496
1576.00,1.7866
1575.00,1.5744
1574.00,1.4125
1573.00,1.2902
1572.00,1.1929
1571.00,1.1107
1570.00,1.0440
1569.00,0.9995
1568.00,0.9801
1567.00,0.9836
1566.00,1.0087
1565.00,1.0580
1564.00,1.1312
1563.00,1.2202
1562.00,1.3132
1561.00,1.3995
1560.00,1.4458
1559.00,1.3902
1558.00,1.2614
1557.00,1.1352
1556.00,1.0244
1555.00,0.9203
1554.00,0.8272
1553.00,0.7532
1552.00,0.6978
1551.00,0.6539
1550.00,0.6169
1549.00,0.5870
1548.00,0.5644
1547.00,0.5470
1546.00,0.5325
1545.00,0.5203
1544.00,0.5106
1543.00,0.5029
1542.00,0.4960
1541.00,0.4889
1540.00,0.4813
1539.00,0.4737
1538.00,0.4675
1537.00,0.4630
1536.00,0.4593
1535.00,0.4552
1534.00,0.4508
1533.00,0.4474
1532.00,0.4459
1531.00,0.4458
1530.00,0.4466
1529.00,0.4477
1528.00,0.4484
1527.00,0.4479
1526.00,0.4461
1525.00,0.4438
1524.00,0.4415
1523.00,0.4392
1522.00,0.4370
1521.00,0.4359
1520.00,0.4367
1519.00,0.4387
1518.00,0.4416
1517.00,0.4452
1516.00,0.4493
1515.00,0.4532
1514.00,0.4568
1513.00,0.4607
1512.00,0.4650
1511.00,0.4696
1510.00,0.4746
1509.00,0.4806
1508.00,0.4883
1507.00,0.4982
1506.00,0.5099
1505.00,0.5218
1504.00,0.5325
1503.00,0.5420
1502.00,0.5512
1501.00,0.5608
1500.00,0.5707
1499.00,0.5807
1498.00,0.5915
1497.00,0.6044
1496.00,0.6191
1495.00,0.6342
1494.00,0.6491
1493.00,0.6646
1492.00,0.6814
1491.00,0.6995
1490.00,0.7193
1489.00,0.7415
1488.00,0.7656
1487.00,0.7917
1486.00,0.8211
1485.00,0.8552
1484.00,0.8940
1483.00,0.9378
1482.00,0.9884
1481.00,1.0468
1480.00,1.1112
1479.00,1.1809
1478.00,1.2599
1477.00,1.3537
1476.00,1.4636
1475.00,1.5894
1474.00,1.7405
1473.00,1.9372
1472.00,2.1909
1471.00,2.4874
1470.00,2.8141
1469.00,3.1784
1468.00,3.4993
1467.00,3.5389
1466.00,3.6227
1465.00,4.1256
1464.00,4.0823
1463.00,4.0949
1462.00,4.2048
1461.00,3.8619
1460.00,3.8021
1459.00,3.9591
1458.00,3.9482
1457.00,3.7215
1456.00,3.7906
1455.00,4.1333
1454.00,3.8793
1453.00,3.7847
1452.00,3.8143
1451.00,3.7743
1450.00,3.6711
1449.00,3.6301
1448.00,3.4448
1447.00,3.1768
1446.00,3.0132
1445.00,2.9102
1444.00,2.7854
1443.00,2.6318
1442.00,2.4895
1441.00,2.3627
1440.00,2.2351
1439.00,2.1021
1438.00,1.9676
1437.00,1.8336
1436.00,1.7066
1435.00,1.5952
1434.00,1.4985
1433.00,1.4089
1432.00,1.3227
1431.00,1.2423
1430.00,1.1713
1429.00,1.1114
1428.00,1.0625
1427.00,1.0235
1426.00,0.9920
1425.00,0.9655
1424.00,0.9436
1423.00,0.9268
1422.00,0.9143
1421.00,0.9041
1420.00,0.8949
1419.00,0.8868
1418.00,0.8802
1417.00,0.8750
1416.00,0.8709
1415.00,0.8678
1414.00,0.8660
1413.00,0.8652
1412.00,0.8654
1411.00,0.8663
1410.00,0.8670
1409.00,0.8662
1408.00,0.8626
1407.00,0.8549
1406.00,0.8421
1405.00,0.8235
1404.00,0.8010
1403.00,0.7777
1402.00,0.7557
1401.00,0.7358
1400.00,0.7188
1399.00,0.7058
1398.00,0.6973
1397.00,0.6924
1396.00,0.6907
1395.00,0.6924
1394.00,0.6985
1393.00,0.7104
1392.00,0.7301
1391.00,0.7601
1390.00,0.8030
1389.00,0.8618
1388.00,0.9396
1387.00,1.0371
1386.00,1.1483
1385.00,1.2648
1384.00,1.3828
1383.00,1.5040
1382.00,1.6327
1381.00,1.7745
1380.00,1.9337
1379.00,2.1004
1378.00,2.2354
1377.00,2.2881
1376.00,2.2414
1375.00,2.1153
1374.00,1.9508
1373.00,1.7905
1372.00,1.6565
1371.00,1.5533
1370.00,1.4796
1369.00,1.4327
1368.00,1.4058
1367.00,1.3849
1366.00,1.3520
1365.00,1.2955
1364.00,1.2175
1363.00,1.1316
1362.00,1.0526
1361.00,0.9886
1360.00,0.9401
1359.00,0.9045
1358.00,0.8787
1357.00,0.8605
1356.00,0.8485
1355.00,0.8414
1354.00,0.8380
1353.00,0.8372
1352.00,0.8377
1351.00,0.8389
1350.00,0.8402
1349.00,0.8412
1348.00,0.8419
1347.00,0.8423
1346.00,0.8424
1345.00,0.8418
1344.00,0.8403
1343.00,0.8374
1342.00,0.8327
1341.00,0.8258
1340.00,0.8165
1339.00,0.8049
1338.00,0.7916
1337.00,0.7771
1336.00,0.7622
1335.00,0.7473
1334.00,0.7328
1333.00,0.7187
1332.00,0.7052
1331.00,0.6927
1330.00,0.6817
1329.00,0.6726
1328.00,0.6655
1327.00,0.6606
1326.00,0.6576
1325.00,0.6561
1324.00,0.6559
1323.00,0.6566
1322.00,0.6582
1321.00,0.6604
1320.00,0.6629
1319.00,0.6653
1318.00,0.6672
1317.00,0.6682
1316.00,0.6687
1315.00,0.6693
1314.00,0.6706
1313.00,0.6729
1312.00,0.6760
1311.00,0.6794
1310.00,0.6829
1309.00,0.6862
1308.00,0.6894
1307.00,0.6925
1306.00,0.6950
1305.00,0.6965
1304.00,0.6965
1303.00,0.6950
1302.00,0.6924
1301.00,0.6889
1300.00,0.6845
1299.00,0.6792
1298.00,0.6728
1297.00,0.6658
1296.00,0.6587
1295.00,0.6521
1294.00,0.6465
1293.00,0.6418
1292.00,0.6377
1291.00,0.6339
1290.00,0.6304
1289.00,0.6272
1288.00,0.6244
1287.00,0.6222
1286.00,0.6202
1285.00,0.6183
1284.00,0.6163
1283.00,0.6143
1282.00,0.6123
1281.00,0.6103
1280.00,0.6083
1279.00,0.6061
1278.00,0.6038
1277.00,0.6014
1276.00,0.5989
1275.00,0.5966
1274.00,0.5948
1273.00,0.5936
1272.00,0.5934
1271.00,0.5942
1270.00,0.5961
1269.00,0.5985
1268.00,0.6004
1267.00,0.6008
1266.00,0.5987
1265.00,0.5943
1264.00,0.5887
1263.00,0.5835
1262.00,0.5795
1261.00,0.5770
1260.00,0.5756
1259.00,0.5749
1258.00,0.5742
1257.00,0.5734
1256.00,0.5724
1255.00,0.5717
1254.00,0.5714
1253.00,0.5716
1252.00,0.5723
1251.00,0.5734
1250.00,0.5749
1249.00,0.5765
1248.00,0.5779
1247.00,0.5788
1246.00,0.5790
1245.00,0.5783
1244.00,0.5766
1243.00,0.5741
1242.00,0.5713
1241.00,0.5683
1240.00,0.5654
1239.00,0.5626
1238.00,0.5601
1237.00,0.5578
1236.00,0.5561
1235.00,0.5550
1234.00,0.5549
1233.00,0.5558
1232.00,0.5578
1231.00,0.5609
1230.00,0.5647
1229.00,0.5683
1228.00,0.5708
1227.00,0.5715
1226.00,0.5701
1225.00,0.5670
1224.00,0.5631
1223.00,0.5596
1222.00,0.5570
1221.00,0.5553
1220.00,0.5543
1219.00,0.5540
1218.00,0.5541
1217.00,0.5548
1216.00,0.5563
1215.00,0.5585
1214.00,0.5610
1213.00,0.5630
1212.00,0.5636
1211.00,0.5629
1210.00,0.5610
1209.00,0.5588
1208.00,0.5569
1207.00,0.5558
1206.00,0.5552
1205.00,0.5549
1204.00,0.5547
1203.00,0.5547
1202.00,0.5547
1201.00,0.5545
1200.00,0.5541
1199.00,0.5533
1198.00,0.5522
1197.00,0.5504
1196.00,0.5480
1195.00,0.5452
1194.00,0.5424
1193.00,0.5395
1192.00,0.5367
1191.00,0.5341
1190.00,0.5318
1189.00,0.5299
1188.00,0.5286
1187.00,0.5277
1186.00,0.5270
1185.00,0.5262
1184.00,0.5255
1183.00,0.5249
1182.00,0.5248
1181.00,0.5250
1180.00,0.5258
1179.00,0.5269
1178.00,0.5284
1177.00,0.5303
1176.00,0.5329
1175.00,0.5363
1174.00,0.5408
1173.00,0.5461
1172.00,0.5517
1171.00,0.5570
1170.00,0.5611
1169.00,0.5634
1168.00,0.5640
1167.00,0.5636
1166.00,0.5629
1165.00,0.5626
1164.00,0.5629
1163.00,0.5639
1162.00,0.5657
1161.00,0.5679
1160.00,0.5705
1159.00,0.5733
1158.00,0.5758
1157.00,0.5777
1156.00,0.5788
1155.00,0.5792
1154.00,0.5787
1153.00,0.5775
1152.00,0.5756
1151.00,0.5733
1150.00,0.5706
1149.00,0.5676
1148.00,0.5646
1147.00,0.5616
1146.00,0.5587
1145.00,0.5562
1144.00,0.5542
1143.00,0.5535
1142.00,0.5546
1141.00,0.5576
1140.00,0.5628
1139.00,0.5700
1138.00,0.5793
1137.00,0.5901
1136.00,0.6022
1135.00,0.6148
1134.00,0.6261
1133.00,0.6336
1132.00,0.6353
1131.00,0.6304
1130.00,0.6204
1129.00,0.6081
1128.00,0.5962
1127.00,0.5869
1126.00,0.5806
1125.00,0.5768
1124.00,0.5745
1123.00,0.5727
1122.00,0.5710
1121.00,0.5696
1120.00,0.5690
1119.00,0.5701
1118.00,0.5736
1117.00,0.5794
1116.00,0.5870
1115.00,0.5951
1114.00,0.6016
1113.00,0.6047
1112.00,0.6043
1111.00,0.6021
1110.00,0.6004
1109.00,0.6009
1108.00,0.6038
1107.00,0.6078
1106.00,0.6112
1105.00,0.6117
1104.00,0.6079
1103.00,0.5997
1102.00,0.5880
1101.00,0.5744
1100.00,0.5603
1099.00,0.5467
1098.00,0.5340
1097.00,0.5229
1096.00,0.5136
1095.00,0.5064
1094.00,0.5012
1093.00,0.4976
1092.00,0.4955
1091.00,0.4946
1090.00,0.4950
1089.00,0.4967
1088.00,0.4998
1087.00,0.5043
1086.00,0.5100
1085.00,0.5172
1084.00,0.5256
1083.00,0.5354
1082.00,0.5463
1081.00,0.5579
1080.00,0.5698
1079.00,0.5813
1078.00,0.5911
1077.00,0.5976
1076.00,0.5996
1075.00,0.5970
1074.00,0.5904
1073.00,0.5815
1072.00,0.5721
1071.00,0.5637
1070.00,0.5568
1069.00,0.5515
1068.00,0.5475
1067.00,0.5445
1066.00,0.5424
1065.00,0.5407
1064.00,0.5394
1063.00,0.5386
1062.00,0.5386
1061.00,0.5392
1060.00,0.5401
1059.00,0.5407
1058.00,0.5406
1057.00,0.5393
1056.00,0.5371
1055.00,0.5341
1054.00,0.5309
1053.00,0.5280
1052.00,0.5260
1051.00,0.5255
1050.00,0.5264
1049.00,0.5284
1048.00,0.5312
1047.00,0.5342
1046.00,0.5370
1045.00,0.5391
1044.00,0.5409
1043.00,0.5429
1042.00,0.5453
1041.00,0.5481
1040.00,0.5512
1039.00,0.5542
1038.00,0.5569
1037.00,0.5591
1036.00,0.5611
1035.00,0.5634
1034.00,0.5663
1033.00,0.5698
1032.00,0.5739
1031.00,0.5781
1030.00,0.5821
1029.00,0.5850
1028.00,0.5858
1027.00,0.5835
1026.00,0.5781
1025.00,0.5702
1024.00,0.5612
1023.00,0.5523
1022.00,0.5443
1021.00,0.5373
1020.00,0.5315
1019.00,0.5266
1018.00,0.5225
1017.00,0.5191
1016.00,0.5163
1015.00,0.5143
1014.00,0.5131
1013.00,0.5127
1012.00,0.5130
1011.00,0.5143
1010.00,0.5165
1009.00,0.5196
1008.00,0.5234
1007.00,0.5280
1006.00,0.5334
1005.00,0.5394
1004.00,0.5460
1003.00,0.5531
1002.00,0.5606
1001.00,0.5679
1000.00,0.5744
999.00,0.5794
998.00,0.5821
997.00,0.5823
996.00,0.5800
995.00,0.5759
994.00,0.5706
993.00,0.5645
992.00,0.5576
991.00,0.5502
990.00,0.5424
989.00,0.5346
988.00,0.5271
987.00,0.5207
986.00,0.5157
985.00,0.5125
984.00,0.5110
983.00,0.5108
982.00,0.5113
981.00,0.5117
980.00,0.5112
979.00,0.5100
978.00,0.5083
977.00,0.5065
976.00,0.5050
975.00,0.5038
974.00,0.5023
973.00,0.5005
972.00,0.4982
971.00,0.4956
970.00,0.4932
969.00,0.4911
968.00,0.4894
967.00,0.4881
966.00,0.4868
965.00,0.4853
964.00,0.4832
963.00,0.4805
962.00,0.4774
961.00,0.4741
960.00,0.4712
959.00,0.4690
958.00,0.4675
957.00,0.4662
956.00,0.4649
955.00,0.4632
954.00,0.4610
953.00,0.4582
952.00,0.4551
951.00,0.4522
950.00,0.4498
949.00,0.4481
948.00,0.4472
947.00,0.4471
946.00,0.4478
945.00,0.4489
944.00,0.4505
943.00,0.4523
942.00,0.4544
941.00,0.4565
940.00,0.4582
939.00,0.4592
938.00,0.4594
937.00,0.4587
936.00,0.4574
935.00,0.4557
934.00,0.4539
933.00,0.4517
932.00,0.4493
931.00,0.4472
930.00,0.4454
929.00,0.4443
928.00,0.4440
927.00,0.4452
926.00,0.4482
925.00,0.4532
924.00,0.4600
923.00,0.4683
922.00,0.4768
921.00,0.4831
920.00,0.4846
919.00,0.4802
918.00,0.4706
917.00,0.4583
916.00,0.4455
915.00,0.4338
914.00,0.4239
913.00,0.4157
912.00,0.4090
911.00,0.4036
910.00,0.3993
909.00,0.3958
908.00,0.3929
907.00,0.3904
906.00,0.3886
905.00,0.3873
904.00,0.3868
903.00,0.3871
902.00,0.3881
901.00,0.3894
900.00,0.3912
899.00,0.3936
898.00,0.3966
897.00,0.4000
896.00,0.4036
895.00,0.4075
894.00,0.4119
893.00,0.4165
892.00,0.4213
891.00,0.4259
890.00,0.4297
889.00,0.4320
888.00,0.4326
887.00,0.4313
886.00,0.4286
885.00,0.4252
884.00,0.4219
883.00,0.4194
882.00,0.4181
881.00,0.4181
880.00,0.4192
879.00,0.4208
878.00,0.4227
877.00,0.4245
876.00,0.4264
875.00,0.4287
874.00,0.4314
873.00,0.4342
872.00,0.4370
871.00,0.4398
870.00,0.4430
869.00,0.4468
868.00,0.4516
867.00,0.4577
866.00,0.4654
865.00,0.4743
864.00,0.4837
863.00,0.4918
862.00,0.4966
861.00,0.4961
860.00,0.4902
859.00,0.4806
858.00,0.4701
857.00,0.4606
856.00,0.4532
855.00,0.4477
854.00,0.4437
853.00,0.4407
852.00,0.4383
851.00,0.4361
850.00,0.4340
849.00,0.4316
848.00,0.4288
847.00,0.4256
846.00,0.4221
845.00,0.4186
844.00,0.4155
843.00,0.4134
842.00,0.4131
841.00,0.4152
840.00,0.4202
839.00,0.4280
838.00,0.4379
837.00,0.4477
836.00,0.4544
835.00,0.4556
834.00,0.4506
833.00,0.4410
832.00,0.4300
831.00,0.4206
830.00,0.4143
829.00,0.4112
828.00,0.4106
827.00,0.4119
826.00,0.4148
825.00,0.4189
824.00,0.4240
823.00,0.4302
822.00,0.4372
821.00,0.4447
820.00,0.4524
819.00,0.4599
818.00,0.4668
817.00,0.4725
816.00,0.4765
815.00,0.4784
814.00,0.4781
813.00,0.4753
812.00,0.4705
811.00,0.4642
810.00,0.4573
809.00,0.4504
808.00,0.4441
807.00,0.4387
806.00,0.4338
805.00,0.4291
804.00,0.4242
803.00,0.4189
802.00,0.4133
801.00,0.4077
800.00,0.4028
799.00,0.3990
798.00,0.3964
797.00,0.3946
796.00,0.3933
795.00,0.3927
794.00,0.3925
793.00,0.3927
792.00,0.3934
791.00,0.3947
790.00,0.3964
789.00,0.3980
788.00,0.3993
787.00,0.4006
786.00,0.4023
785.00,0.4049
784.00,0.4083
783.00,0.4122
782.00,0.4161
781.00,0.4198
780.00,0.4230
779.00,0.4258
778.00,0.4282
777.00,0.4303
776.00,0.4323
775.00,0.4342
774.00,0.4362
773.00,0.4380
772.00,0.4397
771.00,0.4416
770.00,0.4440
769.00,0.4468
768.00,0.4499
767.00,0.4530
766.00,0.4558
765.00,0.4581
764.00,0.4601
763.00,0.4623
762.00,0.4650
761.00,0.4683
760.00,0.4721
759.00,0.4760
758.00,0.4791
757.00,0.4808
756.00,0.4812
755.00,0.4814
754.00,0.4821
753.00,0.4839
752.00,0.4865
751.00,0.4896
750.00,0.4929
749.00,0.4963
748.00,0.4997
747.00,0.5032
746.00,0.5072
745.00,0.5120
744.00,0.5180
743.00,0.5251
742.00,0.5331
741.00,0.5412
740.00,0.5489
739.00,0.5559
738.00,0.5620
737.00,0.5676
736.00,0.5731
735.00,0.5788
734.00,0.5850
733.00,0.5919
732.00,0.5997
731.00,0.6090
730.00,0.6203
729.00,0.6343
728.00,0.6517
727.00,0.6740
726.00,0.7017
725.00,0.7344
724.00,0.7689
723.00,0.7986
722.00,0.8139
721.00,0.8064
720.00,0.7756
719.00,0.7303
718.00,0.6818
717.00,0.6379
716.00,0.6019
715.00,0.5740
714.00,0.5529
713.00,0.5367
712.00,0.5241
711.00,0.5145
710.00,0.5073
709.00,0.5019
708.00,0.4974
707.00,0.4936
706.00,0.4902
705.00,0.4867
704.00,0.4829
703.00,0.4791
702.00,0.4755
701.00,0.4719
700.00,0.4679
699.00,0.4625
698.00,0.4551
697.00,0.4457
696.00,0.4355
695.00,0.4259
694.00,0.4182
693.00,0.4121
692.00,0.4074
691.00,0.4035
690.00,0.4003
689.00,0.3974
688.00,0.3948
687.00,0.3926
686.00,0.3908
685.00,0.3896
684.00,0.3891
683.00,0.3891
682.00,0.3896
681.00,0.3908
680.00,0.3924
679.00,0.3946
678.00,0.3971
677.00,0.3997
676.00,0.4022
675.00,0.4046
674.00,0.4069
673.00,0.4091
672.00,0.4110
671.00,0.4128
670.00,0.4141
669.00,0.4147
668.00,0.4140
667.00,0.4125
666.00,0.4113
665.00,0.4103
664.00,0.4092
663.00,0.4080
662.00,0.4068
661.00,0.4059
660.00,0.4051
659.00,0.4043
658.00,0.4037
657.00,0.4031
656.00,0.4027
655.00,0.4024
654.00,0.4021
653.00,0.4018
652.00,0.4017
651.00,0.4020
650.00,0.4025
649.00,0.4032
648.00,0.4040
647.00,0.4052
646.00,0.4070
645.00,0.4092
644.00,0.4114
643.00,0.4134
642.00,0.4154
641.00,0.4174
640.00,0.4194
639.00,0.4213
638.00,0.4228
637.00,0.4237
636.00,0.4242
635.00,0.4243
634.00,0.4242
633.00,0.4241
632.00,0.4240
631.00,0.4243
630.00,0.4249
629.00,0.4258
628.00,0.4270
627.00,0.4284
626.00,0.4297
625.00,0.4308
624.00,0.4314
623.00,0.4321
622.00,0.4328
621.00,0.4334
620.00,0.4335
619.00,0.4334
618.00,0.4334
617.00,0.4334
616.00,0.4331
615.00,0.4323
614.00,0.4310
613.00,0.4295
612.00,0.4279
611.00,0.4264
610.00,0.4249
609.00,0.4235
608.00,0.4221
607.00,0.4207
606.00,0.4195
605.00,0.4186
604.00,0.4181
603.00,0.4178
602.00,0.4178
601.00,0.4178
600.00,0.4181
599.00,0.4190
598.00,0.4203
597.00,0.4216
596.00,0.4230
595.00,0.4246
594.00,0.4267
593.00,0.4291
592.00,0.4315
591.00,0.4337
590.00,0.4357
589.00,0.4377
588.00,0.4397
587.00,0.4416
586.00,0.4437
585.00,0.4458
584.00,0.4482
583.00,0.4509
582.00,0.4536
581.00,0.4561
580.00,0.4582
579.00,0.4601
578.00,0.4621
577.00,0.4644
576.00,0.4671
575.00,0.4700
574.00,0.4728
573.00,0.4749
572.00,0.4765
571.00,0.4777
570.00,0.4792
569.00,0.4812
568.00,0.4840
567.00,0.4873
566.00,0.4903
565.00,0.4923
564.00,0.4935
563.00,0.4945
562.00,0.4959
561.00,0.4976
560.00,0.4993
559.00,0.5008
558.00,0.5020
557.00,0.5030
556.00,0.5038
555.00,0.5044
554.00,0.5047
553.00,0.5051
552.00,0.5058
551.00,0.5067
550.00,0.5073
