Created as New Dataset,
cm-1,A
4000.00,0.3063
3999.00,0.3060
3998.00,0.3057
3997.00,0.3054
3996.00,0.3051
3995.00,0.3048
3994.00,0.3045
3993.00,0.3042
3992.00,0.3039
3991.00,0.3036
3990.00,0.3032
3989.00,0.3029
3988.00,0.3027
3987.00,0.3024
3986.00,0.3021
3985.00,0.3017
3984.00,0.3013
3983.00,0.3010
3982.00,0.3006
3981.00,0.3002
3980.00,0.2999
3979.00,0.2996
3978.00,0.2993
3977.00,0.2991
3976.00,0.2988
3975.00,0.2985
3974.00,0.2982
3973.00,0.2979
3972.00,0.2976
3971.00,0.2974
3970.00,0.2972
3969.00,0.2970
3968.00,0.2968
3967.00,0.2966
3966.00,0.2964
3965.00,0.2962
3964.00,0.2960
3963.00,0.2958
3962.00,0.2956
3961.00,0.2955
3960.00,0.2953
3959.00,0.2952
3958.00,0.2951
3957.00,0.2949
3956.00,0.2948
3955.00,0.2947
3954.00,0.2946
3953.00,0.2945
3952.00,0.2945
3951.00,0.2944
3950.00,0.2942
3949.00,0.2940
3948.00,0.2939
3947.00,0.2937
3946.00,0.2936
3945.00,0.2935
3944.00,0.2933
3943.00,0.2932
3942.00,0.2930
3941.00,0.2929
3940.00,0.2927
3939.00,0.2926
3938.00,0.2925
3937.00,0.2924
3936.00,0.2924
3935.00,0.2924
3934.00,0.2924
3933.00,0.2923
3932.00,0.2922
3931.00,0.2922
3930.00,0.2923
3929.00,0.2924
3928.00,0.2924
3927.00,0.2924
3926.00,0.2924
3925.00,0.2924
3924.00,0.2924
3923.00,0.2925
3922.00,0.2925
3921.00,0.2925
3920.00,0.2925
3919.00,0.2925
3918.00,0.2925
3917.00,0.2924
3916.00,0.2924
3915.00,0.2923
3914.00,0.2922
3913.00,0.2921
3912.00,0.2920
3911.00,0.2919
3910.00,0.2919
3909.00,0.2919
3908.00,0.2920
3907.00,0.2921
3906.00,0.2923
3905.00,0.2924
3904.00,0.2925
3903.00,0.2926
3902.00,0.2927
3901.00,0.2928
3900.00,0.2927
3899.00,0.2926
3898.00,0.2925
3897.00,0.2923
3896.00,0.2921
3895.00,0.2920
3894.00,0.2919
3893.00,0.2918
3892.00,0.2917
3891.00,0.2917
3890.00,0.2918
3889.00,0.2918
3888.00,0.2918
3887.00,0.2918
3886.00,0.2917
3885.00,0.2917
3884.00,0.2918
3883.00,0.2918
3882.00,0.2917
3881.00,0.2916
3880.00,0.2914
3879.00,0.2912
3878.00,0.2911
3877.00,0.2910
3876.00,0.2910
3875.00,0.2910
3874.00,0.2910
3873.00,0.2910
3872.00,0.2910
3871.00,0.2908
3870.00,0.2907
3869.00,0.2906
3868.00,0.2906
3867.00,0.2904
3866.00,0.2902
3865.00,0.2901
3864.00,0.2899
3863.00,0.2897
3862.00,0.2896
3861.00,0.2894
3860.00,0.2893
3859.00,0.2893
3858.00,0.2894
3857.00,0.2895
3856.00,0.2896
3855.00,0.2896
3854.00,0.2897
3853.00,0.2899
3852.00,0.2900
3851.00,0.2900
3850.00,0.2897
3849.00,0.2894
3848.00,0.2891
3847.00,0.2889
3846.00,0.2886
3845.00,0.2885
3844.00,0.2885
3843.00,0.2886
3842.00,0.2888
3841.00,0.2889
3840.00,0.2890
3839.00,0.2891
3838.00,0.2891
3837.00,0.2890
3836.00,0.2889
3835.00,0.2888
3834.00,0.2886
3833.00,0.2884
3832.00,0.2882
3831.00,0.2879
3830.00,0.2877
3829.00,0.2876
3828.00,0.2875
3827.00,0.2874
3826.00,0.2874
3825.00,0.2875
3824.00,0.2875
3823.00,0.2875
3822.00,0.2875
3821.00,0.2876
3820.00,0.2877
3819.00,0.2878
3818.00,0.2877
3817.00,0.2875
3816.00,0.2872
3815.00,0.2868
3814.00,0.2864
3813.00,0.2860
3812.00,0.2857
3811.00,0.2855
3810.00,0.2853
3809.00,0.2851
3808.00,0.2850
3807.00,0.2848
3806.00,0.2848
3805.00,0.2847
3804.00,0.2846
3803.00,0.2845
3802.00,0.2844
3801.00,0.2843
3800.00,0.2842
3799.00,0.2840
3798.00,0.2837
3797.00,0.2834
3796.00,0.2830
3795.00,0.2827
3794.00,0.2824
3793.00,0.2822
3792.00,0.2820
3791.00,0.2818
3790.00,0.2816
3789.00,0.2815
3788.00,0.2813
3787.00,0.2813
3786.00,0.2812
3785.00,0.2811
3784.00,0.2810
3783.00,0.2810
3782.00,0.2810
3781.00,0.2809
3780.00,0.2807
3779.00,0.2805
3778.00,0.2803
3777.00,0.2801
3776.00,0.2800
3775.00,0.2798
3774.00,0.2797
3773.00,0.2796
3772.00,0.2795
3771.00,0.2794
3770.00,0.2793
3769.00,0.2792
3768.00,0.2791
3767.00,0.2789
3766.00,0.2787
3765.00,0.2786
3764.00,0.2784
3763.00,0.2783
3762.00,0.2781
3761.00,0.2780
3760.00,0.2778
3759.00,0.2777
3758.00,0.2777
3757.00,0.2776
3756.00,0.2775
3755.00,0.2775
3754.00,0.2775
3753.00,0.2775
3752.00,0.2776
3751.00,0.2776
3750.00,0.2777
3749.00,0.2778
3748.00,0.2779
3747.00,0.2779
3746.00,0.2777
3745.00,0.2775
3744.00,0.2773
3743.00,0.2771
3742.00,0.2769
3741.00,0.2766
3740.00,0.2764
3739.00,0.2763
3738.00,0.2763
3737.00,0.2763
3736.00,0.2763
3735.00,0.2762
3734.00,0.2760
3733.00,0.2758
3732.00,0.2756
3731.00,0.2754
3730.00,0.2751
3729.00,0.2748
3728.00,0.2744
3727.00,0.2742
3726.00,0.2740
3725.00,0.2739
3724.00,0.2738
3723.00,0.2737
3722.00,0.2735
3721.00,0.2734
3720.00,0.2733
3719.00,0.2732
3718.00,0.2731
3717.00,0.2730
3716.00,0.2729
3715.00,0.2729
3714.00,0.2730
3713.00,0.2732
3712.00,0.2734
3711.00,0.2736
3710.00,0.2737
3709.00,0.2737
3708.00,0.2736
3707.00,0.2734
3706.00,0.2732
3705.00,0.2731
3704.00,0.2730
3703.00,0.2731
3702.00,0.2731
3701.00,0.2732
3700.00,0.2733
3699.00,0.2733
3698.00,0.2733
3697.00,0.2733
3696.00,0.2733
3695.00,0.2735
3694.00,0.2737
3693.00,0.2739
3692.00,0.2742
3691.00,0.2745
3690.00,0.2747
3689.00,0.2748
3688.00,0.2750
3687.00,0.2751
3686.00,0.2750
3685.00,0.2749
3684.00,0.2749
3683.00,0.2748
3682.00,0.2749
3681.00,0.2750
3680.00,0.2753
3679.00,0.2756
3678.00,0.2758
3677.00,0.2761
3676.00,0.2763
3675.00,0.2766
3674.00,0.2768
3673.00,0.2769
3672.00,0.2770
3671.00,0.2771
3670.00,0.2771
3669.00,0.2771
3668.00,0.2770
3667.00,0.2769
3666.00,0.2768
3665.00,0.2768
3664.00,0.2768
3663.00,0.2769
3662.00,0.2771
3661.00,0.2775
3660.00,0.2778
3659.00,0.2782
3658.00,0.2786
3657.00,0.2790
3656.00,0.2795
3655.00,0.2800
3654.00,0.2806
3653.00,0.2811
3652.00,0.2817
3651.00,0.2823
3650.00,0.2830
3649.00,0.2836
3648.00,0.2841
3647.00,0.2845
3646.00,0.2847
3645.00,0.2849
3644.00,0.2851
3643.00,0.2854
3642.00,0.2858
3641.00,0.2863
3640.00,0.2868
3639.00,0.2874
3638.00,0.2881
3637.00,0.2888
3636.00,0.2896
3635.00,0.2903
3634.00,0.2911
3633.00,0.2920
3632.00,0.2930
3631.00,0.2943
3630.00,0.2959
3629.00,0.2977
3628.00,0.2995
3627.00,0.3010
3626.00,0.3021
3625.00,0.3028
3624.00,0.3032
3623.00,0.3032
3622.00,0.3029
3621.00,0.3023
3620.00,0.3016
3619.00,0.3008
3618.00,0.3001
3617.00,0.2995
3616.00,0.2991
3615.00,0.2989
3614.00,0.2988
3613.00,0.2989
3612.00,0.2991
3611.00,0.2993
3610.00,0.2996
3609.00,0.3000
3608.00,0.3004
3607.00,0.3007
3606.00,0.3009
3605.00,0.3011
3604.00,0.3012
3603.00,0.3013
3602.00,0.3013
3601.00,0.3013
3600.00,0.3013
3599.00,0.3012
3598.00,0.3011
3597.00,0.3010
3596.00,0.3008
3595.00,0.3005
3594.00,0.3003
3593.00,0.3002
3592.00,0.3003
3591.00,0.3004
3590.00,0.3006
3589.00,0.3007
3588.00,0.3009
3587.00,0.3011
3586.00,0.3012
3585.00,0.3014
3584.00,0.3016
3583.00,0.3017
3582.00,0.3019
3581.00,0.3020
3580.00,0.3022
3579.00,0.3025
3578.00,0.3028
3577.00,0.3031
3576.00,0.3035
3575.00,0.3039
3574.00,0.3044
3573.00,0.3049
3572.00,0.3055
3571.00,0.3060
3570.00,0.3066
3569.00,0.3072
3568.00,0.3078
3567.00,0.3083
3566.00,0.3089
3565.00,0.3094
3564.00,0.3099
3563.00,0.3104
3562.00,0.3109
3561.00,0.3114
3560.00,0.3119
3559.00,0.3124
3558.00,0.3131
3557.00,0.3137
3556.00,0.3144
3555.00,0.3151
3554.00,0.3157
3553.00,0.3164
3552.00,0.3171
3551.00,0.3178
3550.00,0.3185
3549.00,0.3193
3548.00,0.3200
3547.00,0.3208
3546.00,0.3215
3545.00,0.3222
3544.00,0.3230
3543.00,0.3237
3542.00,0.3245
3541.00,0.3252
3540.00,0.3260
3539.00,0.3267
3538.00,0.3274
3537.00,0.3281
3536.00,0.3289
3535.00,0.3297
3534.00,0.3305
3533.00,0.3312
3532.00,0.3320
3531.00,0.3328
3530.00,0.3336
3529.00,0.3345
3528.00,0.3353
3527.00,0.3361
3526.00,0.3368
3525.00,0.3376
3524.00,0.3384
3523.00,0.3392
3522.00,0.3400
3521.00,0.3409
3520.00,0.3417
3519.00,0.3426
3518.00,0.3434
3517.00,0.3442
3516.00,0.3450
3515.00,0.3458
3514.00,0.3466
3513.00,0.3475
3512.00,0.3485
3511.00,0.3495
3510.00,0.3505
3509.00,0.3514
3508.00,0.3524
3507.00,0.3533
3506.00,0.3542
3505.00,0.3551
3504.00,0.3561
3503.00,0.3570
3502.00,0.3580
3501.00,0.3590
3500.00,0.3600
3499.00,0.3610
3498.00,0.3619
3497.00,0.3629
3496.00,0.3639
3495.00,0.3650
3494.00,0.3660
3493.00,0.3671
3492.00,0.3682
3491.00,0.3693
3490.00,0.3705
3489.00,0.3716
3488.00,0.3728
3487.00,0.3740
3486.00,0.3750
3485.00,0.3761
3484.00,0.3772
3483.00,0.3783
3482.00,0.3793
3481.00,0.3803
3480.00,0.3812
3479.00,0.3821
3478.00,0.3830
3477.00,0.3840
3476.00,0.3849
3475.00,0.3858
3474.00,0.3867
3473.00,0.3877
3472.00,0.3888
3471.00,0.3898
3470.00,0.3909
3469.00,0.3920
3468.00,0.3930
3467.00,0.3941
3466.00,0.3951
3465.00,0.3962
3464.00,0.3972
3463.00,0.3983
3462.00,0.3994
3461.00,0.4005
3460.00,0.4017
3459.00,0.4029
3458.00,0.4041
3457.00,0.4053
3456.00,0.4065
3455.00,0.4077
3454.00,0.4090
3453.00,0.4102
3452.00,0.4115
3451.00,0.4128
3450.00,0.4141
3449.00,0.4154
3448.00,0.4168
3447.00,0.4181
3446.00,0.4194
3445.00,0.4207
3444.00,0.4220
3443.00,0.4234
3442.00,0.4248
3441.00,0.4262
3440.00,0.4276
3439.00,0.4290
3438.00,0.4304
3437.00,0.4317
3436.00,0.4331
3435.00,0.4344
3434.00,0.4358
3433.00,0.4373
3432.00,0.4388
3431.00,0.4402
3430.00,0.4416
3429.00,0.4430
3428.00,0.4444
3427.00,0.4459
3426.00,0.4474
3425.00,0.4489
3424.00,0.4504
3423.00,0.4519
3422.00,0.4533
3421.00,0.4549
3420.00,0.4565
3419.00,0.4582
3418.00,0.4599
3417.00,0.4616
3416.00,0.4632
3415.00,0.4648
3414.00,0.4664
3413.00,0.4680
3412.00,0.4697
3411.00,0.4713
3410.00,0.4730
3409.00,0.4746
3408.00,0.4763
3407.00,0.4779
3406.00,0.4796
3405.00,0.4813
3404.00,0.4830
3403.00,0.4848
3402.00,0.4866
3401.00,0.4884
3400.00,0.4902
3399.00,0.4920
3398.00,0.4938
3397.00,0.4956
3396.00,0.4974
3395.00,0.4992
3394.00,0.5010
3393.00,0.5028
3392.00,0.5046
3391.00,0.5063
3390.00,0.5082
3389.00,0.5100
3388.00,0.5118
3387.00,0.5137
3386.00,0.5156
3385.00,0.5175
3384.00,0.5195
3383.00,0.5215
3382.00,0.5234
3381.00,0.5253
3380.00,0.5273
3379.00,0.5293
3378.00,0.5313
3377.00,0.5334
3376.00,0.5355
3375.00,0.5376
3374.00,0.5397
3373.00,0.5417
3372.00,0.5438
3371.00,0.5458
3370.00,0.5480
3369.00,0.5502
3368.00,0.5525
3367.00,0.5549
3366.00,0.5572
3365.00,0.5596
3364.00,0.5620
3363.00,0.5644
3362.00,0.5669
3361.00,0.5693
3360.00,0.5718
3359.00,0.5742
3358.00,0.5767
3357.00,0.5791
3356.00,0.5816
3355.00,0.5841
3354.00,0.5865
3353.00,0.5891
3352.00,0.5916
3351.00,0.5940
3350.00,0.5963
3349.00,0.5986
3348.00,0.6009
3347.00,0.6033
3346.00,0.6056
3345.00,0.6079
3344.00,0.6102
3343.00,0.6125
3342.00,0.6146
3341.00,0.6168
3340.00,0.6189
3339.00,0.6209
3338.00,0.6229
3337.00,0.6247
3336.00,0.6265
3335.00,0.6281
3334.00,0.6296
3333.00,0.6311
3332.00,0.6325
3331.00,0.6338
3330.00,0.6350
3329.00,0.6362
3328.00,0.6373
3327.00,0.6383
3326.00,0.6391
3325.00,0.6399
3324.00,0.6405
3323.00,0.6410
3322.00,0.6415
3321.00,0.6418
3320.00,0.6421
3319.00,0.6423
3318.00,0.6426
3317.00,0.6428
3316.00,0.6430
3315.00,0.6429
3314.00,0.6428
3313.00,0.6428
3312.00,0.6428
3311.00,0.6428
3310.00,0.6427
3309.00,0.6425
3308.00,0.6422
3307.00,0.6419
3306.00,0.6416
3305.00,0.6413
3304.00,0.6409
3303.00,0.6405
3302.00,0.6402
3301.00,0.6400
3300.00,0.6398
3299.00,0.6396
3298.00,0.6393
3297.00,0.6389
3296.00,0.6385
3295.00,0.6380
3294.00,0.6376
3293.00,0.6372
3292.00,0.6369
3291.00,0.6367
3290.00,0.6364
3289.00,0.6362
3288.00,0.6360
3287.00,0.6356
3286.00,0.6354
3285.00,0.6352
3284.00,0.6352
3283.00,0.6353
3282.00,0.6354
3281.00,0.6354
3280.00,0.6353
3279.00,0.6353
3278.00,0.6354
3277.00,0.6356
3276.00,0.6358
3275.00,0.6359
3274.00,0.6361
3273.00,0.6362
3272.00,0.6365
3271.00,0.6367
3270.00,0.6370
3269.00,0.6372
3268.00,0.6375
3267.00,0.6379
3266.00,0.6382
3265.00,0.6386
3264.00,0.6388
3263.00,0.6390
3262.00,0.6392
3261.00,0.6395
3260.00,0.6398
3259.00,0.6401
3258.00,0.6405
3257.00,0.6408
3256.00,0.6411
3255.00,0.6415
3254.00,0.6418
3253.00,0.6420
3252.00,0.6422
3251.00,0.6423
3250.00,0.6423
3249.00,0.6424
3248.00,0.6424
3247.00,0.6425
3246.00,0.6426
3245.00,0.6427
3244.00,0.6427
3243.00,0.6425
3242.00,0.6423
3241.00,0.6420
3240.00,0.6417
3239.00,0.6414
3238.00,0.6411
3237.00,0.6407
3236.00,0.6403
3235.00,0.6399
3234.00,0.6394
3233.00,0.6390
3232.00,0.6386
3231.00,0.6380
3230.00,0.6373
3229.00,0.6366
3228.00,0.6357
3227.00,0.6348
3226.00,0.6341
3225.00,0.6334
3224.00,0.6328
3223.00,0.6320
3222.00,0.6312
3221.00,0.6304
3220.00,0.6294
3219.00,0.6284
3218.00,0.6274
3217.00,0.6264
3216.00,0.6254
3215.00,0.6243
3214.00,0.6232
3213.00,0.6222
3212.00,0.6211
3211.00,0.6200
3210.00,0.6187
3209.00,0.6174
3208.00,0.6161
3207.00,0.6148
3206.00,0.6135
3205.00,0.6123
3204.00,0.6111
3203.00,0.6099
3202.00,0.6086
3201.00,0.6073
3200.00,0.6059
3199.00,0.6045
3198.00,0.6030
3197.00,0.6015
3196.00,0.5999
3195.00,0.5983
3194.00,0.5967
3193.00,0.5951
3192.00,0.5935
3191.00,0.5919
3190.00,0.5902
3189.00,0.5885
3188.00,0.5868
3187.00,0.5850
3186.00,0.5832
3185.00,0.5813
3184.00,0.5794
3183.00,0.5775
3182.00,0.5756
3181.00,0.5737
3180.00,0.5717
3179.00,0.5697
3178.00,0.5677
3177.00,0.5657
3176.00,0.5637
3175.00,0.5616
3174.00,0.5595
3173.00,0.5573
3172.00,0.5551
3171.00,0.5529
3170.00,0.5507
3169.00,0.5485
3168.00,0.5465
3167.00,0.5444
3166.00,0.5424
3165.00,0.5403
3164.00,0.5382
3163.00,0.5360
3162.00,0.5339
3161.00,0.5317
3160.00,0.5296
3159.00,0.5275
3158.00,0.5254
3157.00,0.5234
3156.00,0.5214
3155.00,0.5195
3154.00,0.5176
3153.00,0.5156
3152.00,0.5137
3151.00,0.5118
3150.00,0.5098
3149.00,0.5078
3148.00,0.5059
3147.00,0.5041
3146.00,0.5023
3145.00,0.5006
3144.00,0.4989
3143.00,0.4971
3142.00,0.4954
3141.00,0.4937
3140.00,0.4921
3139.00,0.4905
3138.00,0.4890
3137.00,0.4875
3136.00,0.4862
3135.00,0.4848
3134.00,0.4835
3133.00,0.4820
3132.00,0.4806
3131.00,0.4792
3130.00,0.4780
3129.00,0.4769
3128.00,0.4759
3127.00,0.4750
3126.00,0.4740
3125.00,0.4730
3124.00,0.4721
3123.00,0.4712
3122.00,0.4703
3121.00,0.4696
3120.00,0.4689
3119.00,0.4683
3118.00,0.4678
3117.00,0.4672
3116.00,0.4666
3115.00,0.4661
3114.00,0.4656
3113.00,0.4652
3112.00,0.4649
3111.00,0.4647
3110.00,0.4645
3109.00,0.4644
3108.00,0.4642
3107.00,0.4641
3106.00,0.4641
3105.00,0.4641
3104.00,0.4642
3103.00,0.4642
3102.00,0.4642
3101.00,0.4643
3100.00,0.4645
3099.00,0.4649
3098.00,0.4654
3097.00,0.4660
3096.00,0.4667
3095.00,0.4675
3094.00,0.4683
3093.00,0.4693
3092.00,0.4705
3091.00,0.4718
3090.00,0.4733
3089.00,0.4749
3088.00,0.4765
3087.00,0.4783
3086.00,0.4802
3085.00,0.4822
3084.00,0.4843
3083.00,0.4865
3082.00,0.4889
3081.00,0.4915
3080.00,0.4942
3079.00,0.4971
3078.00,0.5001
3077.00,0.5032
3076.00,0.5065
3075.00,0.5100
3074.00,0.5136
3073.00,0.5173
3072.00,0.5209
3071.00,0.5245
3070.00,0.5280
3069.00,0.5314
3068.00,0.5347
3067.00,0.5379
3066.00,0.5409
3065.00,0.5438
3064.00,0.5465
3063.00,0.5490
3062.00,0.5514
3061.00,0.5536
3060.00,0.5558
3059.00,0.5578
3058.00,0.5599
3057.00,0.5620
3056.00,0.5644
3055.00,0.5670
3054.00,0.5698
3053.00,0.5729
3052.00,0.5761
3051.00,0.5795
3050.00,0.5832
3049.00,0.5872
3048.00,0.5914
3047.00,0.5957
3046.00,0.6002
3045.00,0.6046
3044.00,0.6090
3043.00,0.6135
3042.00,0.6180
3041.00,0.6226
3040.00,0.6271
3039.00,0.6315
3038.00,0.6360
3037.00,0.6408
3036.00,0.6458
3035.00,0.6511
3034.00,0.6568
3033.00,0.6629
3032.00,0.6694
3031.00,0.6764
3030.00,0.6837
3029.00,0.6915
3028.00,0.6997
3027.00,0.7083
3026.00,0.7174
3025.00,0.7268
3024.00,0.7367
3023.00,0.7470
3022.00,0.7578
3021.00,0.7692
3020.00,0.7809
3019.00,0.7929
3018.00,0.8052
3017.00,0.8177
3016.00,0.8303
3015.00,0.8432
3014.00,0.8566
3013.00,0.8704
3012.00,0.8850
3011.00,0.9002
3010.00,0.9164
3009.00,0.9335
3008.00,0.9515
3007.00,0.9705
3006.00,0.9903
3005.00,1.0110
3004.00,1.0322
3003.00,1.0541
3002.00,1.0768
3001.00,1.1004
3000.00,1.1251
2999.00,1.1513
2998.00,1.1794
2997.00,1.2096
2996.00,1.2424
2995.00,1.2781
2994.00,1.3171
2993.00,1.3599
2992.00,1.4070
2991.00,1.4589
2990.00,1.5166
2989.00,1.5807
2988.00,1.6518
2987.00,1.7307
2986.00,1.8181
2985.00,1.9142
2984.00,2.0192
2983.00,2.1341
2982.00,2.2607
2981.00,2.4007
2980.00,2.5548
2979.00,2.7257
2978.00,2.9168
2977.00,3.1191
2976.00,3.3021
2975.00,3.4435
2974.00,3.5658
2973.00,3.6988
2972.00,3.8334
2971.00,3.9524
2970.00,4.0477
2969.00,4.0859
2968.00,4.0582
2967.00,4.0253
2966.00,3.9994
2965.00,3.9686
2964.00,3.9211
2963.00,3.8601
2962.00,3.8189
2961.00,3.8626
2960.00,4.0948
2959.00,4.3834
2958.00,4.1567
2957.00,4.0960
2956.00,4.2631
2955.00,4.2396
2954.00,4.0294
2953.00,3.9005
2952.00,3.9552
2951.00,3.9262
2950.00,3.8677
2949.00,3.8919
2948.00,3.9547
2947.00,4.1189
2946.00,4.1014
2945.00,3.8878
2944.00,3.7412
2943.00,3.7459
2942.00,3.8298
2941.00,3.7937
2940.00,3.7194
2939.00,3.7403
2938.00,3.9104
2937.00,4.1439
2936.00,4.1213
2935.00,3.9382
2934.00,3.7797
2933.00,3.7231
2932.00,3.7598
2931.00,3.9576
2930.00,4.2581
2929.00,4.0813
2928.00,3.8383
2927.00,3.7537
2926.00,3.8891
2925.00,4.1620
2924.00,4.3694
2923.00,4.4740
2922.00,4.6225
2921.00,4.6543
2920.00,4.2825
2919.00,4.0655
2918.00,3.9913
2917.00,3.9745
2916.00,3.9535
2915.00,4.0015
2914.00,4.0596
2913.00,4.0369
2912.00,3.9926
2911.00,4.0521
2910.00,4.1236
2909.00,3.9769
2908.00,3.7982
2907.00,3.7918
2906.00,4.0588
2905.00,4.3177
2904.00,4.0609
2903.00,3.9405
2902.00,4.1187
2901.00,4.1895
2900.00,3.9365
2899.00,3.8829
2898.00,4.1767
2897.00,4.4676
2896.00,4.1356
2895.00,4.0464
2894.00,4.3057
2893.00,4.4808
2892.00,4.2063
2891.00,4.1182
2890.00,4.3634
2889.00,4.4538
2888.00,4.3835
2887.00,4.4245
2886.00,4.2578
2885.00,4.1611
2884.00,4.1656
2883.00,4.3376
2882.00,4.3068
2881.00,4.0979
2880.00,3.9875
2879.00,3.9625
2878.00,4.0733
2877.00,4.1879
2876.00,4.1039
2875.00,3.9463
2874.00,3.9741
2873.00,4.2050
2872.00,4.1879
2871.00,3.9739
2870.00,3.8194
2869.00,3.8069
2868.00,3.8260
2867.00,3.8435
2866.00,3.8794
2865.00,3.8882
2864.00,3.9158
2863.00,4.0242
2862.00,4.1521
2861.00,4.0637
2860.00,3.9444
2859.00,3.9192
2858.00,3.9379
2857.00,3.8635
2856.00,3.7877
2855.00,3.8128
2854.00,3.8821
2853.00,3.9072
2852.00,3.8961
2851.00,3.8993
2850.00,3.8979
2849.00,3.8753
2848.00,3.8801
2847.00,3.9506
2846.00,4.0325
2845.00,4.0705
2844.00,4.0342
2843.00,3.9111
2842.00,3.7746
2841.00,3.6715
2840.00,3.5755
2839.00,3.4424
2838.00,3.2883
2837.00,3.1333
2836.00,2.9777
2835.00,2.8165
2834.00,2.6492
2833.00,2.4824
2832.00,2.3251
2831.00,2.1829
2830.00,2.0563
2829.00,1.9435
2828.00,1.8426
2827.00,1.7519
2826.00,1.6699
2825.00,1.5952
2824.00,1.5271
2823.00,1.4650
2822.00,1.4083
2821.00,1.3562
2820.00,1.3082
2819.00,1.2638
2818.00,1.2226
2817.00,1.1843
2816.00,1.1487
2815.00,1.1156
2814.00,1.0847
2813.00,1.0556
2812.00,1.0282
2811.00,1.0024
2810.00,0.9780
2809.00,0.9547
2808.00,0.9327
2807.00,0.9119
2806.00,0.8922
2805.00,0.8735
2804.00,0.8556
2803.00,0.8385
2802.00,0.8222
2801.00,0.8067
2800.00,0.7920
2799.00,0.7781
2798.00,0.7649
2797.00,0.7523
2796.00,0.7401
2795.00,0.7282
2794.00,0.7166
2793.00,0.7054
2792.00,0.6946
2791.00,0.6840
2790.00,0.6738
2789.00,0.6638
2788.00,0.6538
2787.00,0.6440
2786.00,0.6344
2785.00,0.6251
2784.00,0.6161
2783.00,0.6074
2782.00,0.5991
2781.00,0.5912
2780.00,0.5836
2779.00,0.5763
2778.00,0.5693
2777.00,0.5627
2776.00,0.5565
2775.00,0.5506
2774.00,0.5450
2773.00,0.5397
2772.00,0.5349
2771.00,0.5304
2770.00,0.5263
2769.00,0.5225
2768.00,0.5189
2767.00,0.5156
2766.00,0.5126
2765.00,0.5100
2764.00,0.5078
2763.00,0.5058
2762.00,0.5040
2761.00,0.5024
2760.00,0.5009
2759.00,0.4995
2758.00,0.4982
2757.00,0.4970
2756.00,0.4958
2755.00,0.4948
2754.00,0.4938
2753.00,0.4930
2752.00,0.4924
2751.00,0.4920
2750.00,0.4918
2749.00,0.4918
2748.00,0.4920
2747.00,0.4924
2746.00,0.4930
2745.00,0.4939
2744.00,0.4950
2743.00,0.4965
2742.00,0.4983
2741.00,0.5005
2740.00,0.5032
2739.00,0.5064
2738.00,0.5100
2737.00,0.5141
2736.00,0.5188
2735.00,0.5238
2734.00,0.5291
2733.00,0.5344
2732.00,0.5393
2731.00,0.5435
2730.00,0.5467
2729.00,0.5489
2728.00,0.5499
2727.00,0.5500
2726.00,0.5494
2725.00,0.5483
2724.00,0.5467
2723.00,0.5447
2722.00,0.5423
2721.00,0.5393
2720.00,0.5358
2719.00,0.5319
2718.00,0.5276
2717.00,0.5230
2716.00,0.5183
2715.00,0.5134
2714.00,0.5085
2713.00,0.5038
2712.00,0.4993
2711.00,0.4951
2710.00,0.4913
2709.00,0.4879
2708.00,0.4850
2707.00,0.4825
2706.00,0.4804
2705.00,0.4786
2704.00,0.4771
2703.00,0.4759
2702.00,0.4750
2701.00,0.4743
2700.00,0.4738
2699.00,0.4735
2698.00,0.4733
2697.00,0.4734
2696.00,0.4736
2695.00,0.4739
2694.00,0.4744
2693.00,0.4751
2692.00,0.4758
2691.00,0.4765
2690.00,0.4772
2689.00,0.4779
2688.00,0.4784
2687.00,0.4790
2686.00,0.4795
2685.00,0.4799
2684.00,0.4803
2683.00,0.4806
2682.00,0.4809
2681.00,0.4813
2680.00,0.4817
2679.00,0.4821
2678.00,0.4826
2677.00,0.4830
2676.00,0.4835
2675.00,0.4842
2674.00,0.4849
2673.00,0.4856
2672.00,0.4861
2671.00,0.4864
2670.00,0.4864
2669.00,0.4862
2668.00,0.4856
2667.00,0.4847
2666.00,0.4835
2665.00,0.4821
2664.00,0.4805
2663.00,0.4787
2662.00,0.4767
2661.00,0.4746
2660.00,0.4724
2659.00,0.4702
2658.00,0.4680
2657.00,0.4658
2656.00,0.4636
2655.00,0.4615
2654.00,0.4595
2653.00,0.4576
2652.00,0.4557
2651.00,0.4540
2650.00,0.4523
2649.00,0.4507
2648.00,0.4491
2647.00,0.4476
2646.00,0.4461
2645.00,0.4447
2644.00,0.4435
2643.00,0.4423
2642.00,0.4412
2641.00,0.4402
2640.00,0.4391
2639.00,0.4381
2638.00,0.4370
2637.00,0.4361
2636.00,0.4351
2635.00,0.4343
2634.00,0.4334
2633.00,0.4326
2632.00,0.4316
2631.00,0.4306
2630.00,0.4296
2629.00,0.4285
2628.00,0.4275
2627.00,0.4265
2626.00,0.4254
2625.00,0.4244
2624.00,0.4234
2623.00,0.4225
2622.00,0.4215
2621.00,0.4206
2620.00,0.4197
2619.00,0.4187
2618.00,0.4178
2617.00,0.4168
2616.00,0.4158
2615.00,0.4147
2614.00,0.4136
2613.00,0.4124
2612.00,0.4112
2611.00,0.4101
2610.00,0.4090
2609.00,0.4079
2608.00,0.4068
2607.00,0.4058
2606.00,0.4047
2605.00,0.4037
2604.00,0.4026
2603.00,0.4015
2602.00,0.4005
2601.00,0.3994
2600.00,0.3982
2599.00,0.3969
2598.00,0.3955
2597.00,0.3940
2596.00,0.3924
2595.00,0.3908
2594.00,0.3892
2593.00,0.3875
2592.00,0.3858
2591.00,0.3841
2590.00,0.3824
2589.00,0.3807
2588.00,0.3790
2587.00,0.3773
2586.00,0.3756
2585.00,0.3738
2584.00,0.3718
2583.00,0.3699
2582.00,0.3680
2581.00,0.3661
2580.00,0.3642
2579.00,0.3624
2578.00,0.3605
2577.00,0.3587
2576.00,0.3569
2575.00,0.3552
2574.00,0.3536
2573.00,0.3520
2572.00,0.3504
2571.00,0.3489
2570.00,0.3474
2569.00,0.3460
2568.00,0.3446
2567.00,0.3432
2566.00,0.3418
2565.00,0.3403
2564.00,0.3389
2563.00,0.3374
2562.00,0.3360
2561.00,0.3346
2560.00,0.3332
2559.00,0.3319
2558.00,0.3307
2557.00,0.3295
2556.00,0.3282
2555.00,0.3270
2554.00,0.3258
2553.00,0.3246
2552.00,0.3234
2551.00,0.3222
2550.00,0.3211
2549.00,0.3200
2548.00,0.3190
2547.00,0.3180
2546.00,0.3170
2545.00,0.3160
2544.00,0.3150
2543.00,0.3142
2542.00,0.3133
2541.00,0.3126
2540.00,0.3118
2539.00,0.3110
2538.00,0.3103
2537.00,0.3096
2536.00,0.3090
2535.00,0.3083
2534.00,0.3076
2533.00,0.3069
2532.00,0.3063
2531.00,0.3055
2530.00,0.3048
2529.00,0.3040
2528.00,0.3032
2527.00,0.3023
2526.00,0.3014
2525.00,0.3004
2524.00,0.2994
2523.00,0.2984
2522.00,0.2974
2521.00,0.2965
2520.00,0.2956
2519.00,0.2947
2518.00,0.2938
2517.00,0.2929
2516.00,0.2921
2515.00,0.2912
2514.00,0.2904
2513.00,0.2896
2512.00,0.2889
2511.00,0.2882
2510.00,0.2875
2509.00,0.2869
2508.00,0.2863
2507.00,0.2857
2506.00,0.2852
2505.00,0.2848
2504.00,0.2845
2503.00,0.2841
2502.00,0.2837
2501.00,0.2833
2500.00,0.2829
2499.00,0.2826
2498.00,0.2823
2497.00,0.2821
2496.00,0.2818
2495.00,0.2816
2494.00,0.2813
2493.00,0.2811
2492.00,0.2808
2491.00,0.2805
2490.00,0.2801
2489.00,0.2798
2488.00,0.2794
2487.00,0.2791
2486.00,0.2787
2485.00,0.2784
2484.00,0.2780
2483.00,0.2776
2482.00,0.2772
2481.00,0.2768
2480.00,0.2764
2479.00,0.2760
2478.00,0.2756
2477.00,0.2753
2476.00,0.2750
2475.00,0.2746
2474.00,0.2744
2473.00,0.2741
2472.00,0.2738
2471.00,0.2735
2470.00,0.2733
2469.00,0.2730
2468.00,0.2727
2467.00,0.2725
2466.00,0.2722
2465.00,0.2719
2464.00,0.2716
2463.00,0.2714
2462.00,0.2711
2461.00,0.2709
2460.00,0.2707
2459.00,0.2705
2458.00,0.2703
2457.00,0.2701
2456.00,0.2699
2455.00,0.2698
2454.00,0.2697
2453.00,0.2696
2452.00,0.2695
2451.00,0.2693
2450.00,0.2692
2449.00,0.2691
2448.00,0.2691
2447.00,0.2690
2446.00,0.2690
2445.00,0.2689
2444.00,0.2689
2443.00,0.2688
2442.00,0.2689
2441.00,0.2690
2440.00,0.2691
2439.00,0.2692
2438.00,0.2693
2437.00,0.2694
2436.00,0.2696
2435.00,0.2696
2434.00,0.2697
2433.00,0.2698
2432.00,0.2699
2431.00,0.2701
2430.00,0.2703
2429.00,0.2704
2428.00,0.2706
2427.00,0.2707
2426.00,0.2709
2425.00,0.2710
2424.00,0.2712
2423.00,0.2713
2422.00,0.2713
2421.00,0.2714
2420.00,0.2714
2419.00,0.2715
2418.00,0.2716
2417.00,0.2716
2416.00,0.2716
2415.00,0.2716
2414.00,0.2716
2413.00,0.2717
2412.00,0.2717
2411.00,0.2716
2410.00,0.2716
2409.00,0.2716
2408.00,0.2715
2407.00,0.2715
2406.00,0.2714
2405.00,0.2713
2404.00,0.2712
2403.00,0.2711
2402.00,0.2710
2401.00,0.2709
2400.00,0.2708
2399.00,0.2708
2398.00,0.2707
2397.00,0.2706
2396.00,0.2705
2395.00,0.2704
2394.00,0.2703
2393.00,0.2703
2392.00,0.2703
2391.00,0.2703
2390.00,0.2702
2389.00,0.2702
2388.00,0.2703
2387.00,0.2703
2386.00,0.2703
2385.00,0.2703
2384.00,0.2703
2383.00,0.2703
2382.00,0.2703
2381.00,0.2703
2380.00,0.2703
2379.00,0.2703
2378.00,0.2703
2377.00,0.2702
2376.00,0.2702
2375.00,0.2701
2374.00,0.2701
2373.00,0.2701
2372.00,0.2700
2371.00,0.2699
2370.00,0.2698
2369.00,0.2697
2368.00,0.2696
2367.00,0.2694
2366.00,0.2694
2365.00,0.2694
2364.00,0.2696
2363.00,0.2697
2362.00,0.2697
2361.00,0.2697
2360.00,0.2697
2359.00,0.2696
2358.00,0.2696
2357.00,0.2695
2356.00,0.2695
2355.00,0.2695
2354.00,0.2694
2353.00,0.2693
2352.00,0.2693
2351.00,0.2693
2350.00,0.2695
2349.00,0.2697
2348.00,0.2697
2347.00,0.2694
2346.00,0.2691
2345.00,0.2688
2344.00,0.2687
2343.00,0.2688
2342.00,0.2688
2341.00,0.2688
2340.00,0.2687
2339.00,0.2686
2338.00,0.2685
2337.00,0.2683
2336.00,0.2681
2335.00,0.2678
2334.00,0.2676
2333.00,0.2674
2332.00,0.2672
2331.00,0.2669
2330.00,0.2667
2329.00,0.2665
2328.00,0.2664
2327.00,0.2663
2326.00,0.2661
2325.00,0.2659
2324.00,0.2657
2323.00,0.2653
2322.00,0.2650
2321.00,0.2647
2320.00,0.2645
2319.00,0.2643
2318.00,0.2641
2317.00,0.2639
2316.00,0.2637
2315.00,0.2635
2314.00,0.2633
2313.00,0.2631
2312.00,0.2628
2311.00,0.2625
2310.00,0.2621
2309.00,0.2617
2308.00,0.2614
2307.00,0.2610
2306.00,0.2608
2305.00,0.2605
2304.00,0.2603
2303.00,0.2600
2302.00,0.2597
2301.00,0.2593
2300.00,0.2591
2299.00,0.2589
2298.00,0.2587
2297.00,0.2585
2296.00,0.2582
2295.00,0.2580
2294.00,0.2578
2293.00,0.2575
2292.00,0.2573
2291.00,0.2571
2290.00,0.2569
2289.00,0.2567
2288.00,0.2564
2287.00,0.2562
2286.00,0.2559
2285.00,0.2557
2284.00,0.2555
2283.00,0.2553
2282.00,0.2550
2281.00,0.2548
2280.00,0.2545
2279.00,0.2541
2278.00,0.2538
2277.00,0.2534
2276.00,0.2531
2275.00,0.2529
2274.00,0.2526
2273.00,0.2524
2272.00,0.2521
2271.00,0.2519
2270.00,0.2517
2269.00,0.2516
2268.00,0.2514
2267.00,0.2513
2266.00,0.2511
2265.00,0.2509
2264.00,0.2507
2263.00,0.2505
2262.00,0.2502
2261.00,0.2500
2260.00,0.2497
2259.00,0.2495
2258.00,0.2492
2257.00,0.2490
2256.00,0.2487
2255.00,0.2485
2254.00,0.2483
2253.00,0.2480
2252.00,0.2478
2251.00,0.2475
2250.00,0.2472
2249.00,0.2470
2248.00,0.2468
2247.00,0.2465
2246.00,0.2464
2245.00,0.2462
2244.00,0.2460
2243.00,0.2458
2242.00,0.2456
2241.00,0.2454
2240.00,0.2453
2239.00,0.2451
2238.00,0.2449
2237.00,0.2448
2236.00,0.2447
2235.00,0.2446
2234.00,0.2445
2233.00,0.2444
2232.00,0.2443
2231.00,0.2442
2230.00,0.2441
2229.00,0.2439
2228.00,0.2438
2227.00,0.2436
2226.00,0.2434
2225.00,0.2433
2224.00,0.2432
2223.00,0.2431
2222.00,0.2430
2221.00,0.2429
2220.00,0.2428
2219.00,0.2427
2218.00,0.2426
2217.00,0.2425
2216.00,0.2425
2215.00,0.2425
2214.00,0.2424
2213.00,0.2424
2212.00,0.2423
2211.00,0.2423
2210.00,0.2422
2209.00,0.2422
2208.00,0.2421
2207.00,0.2420
2206.00,0.2420
2205.00,0.2420
2204.00,0.2420
2203.00,0.2420
2202.00,0.2420
2201.00,0.2421
2200.00,0.2421
2199.00,0.2421
2198.00,0.2422
2197.00,0.2422
2196.00,0.2423
2195.00,0.2422
2194.00,0.2422
2193.00,0.2422
2192.00,0.2422
2191.00,0.2421
2190.00,0.2421
2189.00,0.2421
2188.00,0.2421
2187.00,0.2421
2186.00,0.2421
2185.00,0.2420
2184.00,0.2419
2183.00,0.2418
2182.00,0.2417
2181.00,0.2417
2180.00,0.2416
2179.00,0.2415
2178.00,0.2413
2177.00,0.2412
2176.00,0.2410
2175.00,0.2409
2174.00,0.2408
2173.00,0.2407
2172.00,0.2406
2171.00,0.2405
2170.00,0.2405
2169.00,0.2404
2168.00,0.2403
2167.00,0.2402
2166.00,0.2401
2165.00,0.2399
2164.00,0.2399
2163.00,0.2398
2162.00,0.2397
2161.00,0.2396
2160.00,0.2395
2159.00,0.2393
2158.00,0.2391
2157.00,0.2389
2156.00,0.2388
2155.00,0.2385
2154.00,0.2383
2153.00,0.2381
2152.00,0.2379
2151.00,0.2377
2150.00,0.2375
2149.00,0.2371
2148.00,0.2368
2147.00,0.2364
2146.00,0.2359
2145.00,0.2355
2144.00,0.2350
2143.00,0.2345
2142.00,0.2341
2141.00,0.2337
2140.00,0.2333
2139.00,0.2330
2138.00,0.2327
2137.00,0.2325
2136.00,0.2323
2135.00,0.2321
2134.00,0.2319
2133.00,0.2317
2132.00,0.2316
2131.00,0.2314
2130.00,0.2313
2129.00,0.2311
2128.00,0.2310
2127.00,0.2309
2126.00,0.2308
2125.00,0.2307
2124.00,0.2307
2123.00,0.2306
2122.00,0.2305
2121.00,0.2303
2120.00,0.2302
2119.00,0.2301
2118.00,0.2299
2117.00,0.2297
2116.00,0.2296
2115.00,0.2294
2114.00,0.2293
2113.00,0.2291
2112.00,0.2290
2111.00,0.2288
2110.00,0.2286
2109.00,0.2285
2108.00,0.2283
2107.00,0.2282
2106.00,0.2281
2105.00,0.2280
2104.00,0.2280
2103.00,0.2279
2102.00,0.2278
2101.00,0.2277
2100.00,0.2277
2099.00,0.2277
2098.00,0.2277
2097.00,0.2277
2096.00,0.2277
2095.00,0.2277
2094.00,0.2277
2093.00,0.2277
2092.00,0.2278
2091.00,0.2278
2090.00,0.2278
2089.00,0.2278
2088.00,0.2279
2087.00,0.2279
2086.00,0.2279
2085.00,0.2279
2084.00,0.2279
2083.00,0.2279
2082.00,0.2278
2081.00,0.2278
2080.00,0.2277
2079.00,0.2275
2078.00,0.2273
2077.00,0.2272
2076.00,0.2271
2075.00,0.2270
2074.00,0.2269
2073.00,0.2269
2072.00,0.2268
2071.00,0.2268
2070.00,0.2267
2069.00,0.2267
2068.00,0.2266
2067.00,0.2265
2066.00,0.2265
2065.00,0.2266
2064.00,0.2268
2063.00,0.2269
2062.00,0.2271
2061.00,0.2272
2060.00,0.2274
2059.00,0.2275
2058.00,0.2277
2057.00,0.2279
2056.00,0.2281
2055.00,0.2282
2054.00,0.2284
2053.00,0.2285
2052.00,0.2286
2051.00,0.2287
2050.00,0.2288
2049.00,0.2290
2048.00,0.2291
2047.00,0.2293
2046.00,0.2294
2045.00,0.2295
2044.00,0.2296
2043.00,0.2296
2042.00,0.2296
2041.00,0.2297
2040.00,0.2298
2039.00,0.2298
2038.00,0.2298
2037.00,0.2298
2036.00,0.2298
2035.00,0.2298
2034.00,0.2298
2033.00,0.2298
2032.00,0.2297
2031.00,0.2297
2030.00,0.2296
2029.00,0.2296
2028.00,0.2296
2027.00,0.2296
2026.00,0.2296
2025.00,0.2295
2024.00,0.2294
2023.00,0.2292
2022.00,0.2289
2021.00,0.2286
2020.00,0.2282
2019.00,0.2277
2018.00,0.2272
2017.00,0.2268
2016.00,0.2264
2015.00,0.2261
2014.00,0.2257
2013.00,0.2252
2012.00,0.2247
2011.00,0.2242
2010.00,0.2237
2009.00,0.2233
2008.00,0.2230
2007.00,0.2227
2006.00,0.2224
2005.00,0.2221
2004.00,0.2219
2003.00,0.2216
2002.00,0.2213
2001.00,0.2211
2000.00,0.2210
1999.00,0.2208
1998.00,0.2207
1997.00,0.2206
1996.00,0.2204
1995.00,0.2200
1994.00,0.2196
1993.00,0.2194
1992.00,0.2193
1991.00,0.2193
1990.00,0.2194
1989.00,0.2194
1988.00,0.2194
1987.00,0.2194
1986.00,0.2195
1985.00,0.2195
1984.00,0.2196
1983.00,0.2196
1982.00,0.2195
1981.00,0.2195
1980.00,0.2195
1979.00,0.2195
1978.00,0.2196
1977.00,0.2196
1976.00,0.2197
1975.00,0.2197
1974.00,0.2198
1973.00,0.2198
1972.00,0.2197
1971.00,0.2196
1970.00,0.2194
1969.00,0.2192
1968.00,0.2191
1967.00,0.2191
1966.00,0.2193
1965.00,0.2195
1964.00,0.2195
1963.00,0.2195
1962.00,0.2195
1961.00,0.2194
1960.00,0.2195
1959.00,0.2195
1958.00,0.2195
1957.00,0.2195
1956.00,0.2196
1955.00,0.2197
1954.00,0.2199
1953.00,0.2201
1952.00,0.2202
1951.00,0.2202
1950.00,0.2203
1949.00,0.2203
1948.00,0.2203
1947.00,0.2203
1946.00,0.2203
1945.00,0.2203
1944.00,0.2205
1943.00,0.2209
1942.00,0.2216
1941.00,0.2223
1940.00,0.2230
1939.00,0.2234
1938.00,0.2236
1937.00,0.2237
1936.00,0.2238
1935.00,0.2237
1934.00,0.2236
1933.00,0.2236
1932.00,0.2236
1931.00,0.2236
1930.00,0.2236
1929.00,0.2236
1928.00,0.2237
1927.00,0.2236
1926.00,0.2234
1925.00,0.2231
1924.00,0.2230
1923.00,0.2233
1922.00,0.2239
1921.00,0.2247
1920.00,0.2253
1919.00,0.2259
1918.00,0.2263
1917.00,0.2268
1916.00,0.2271
1915.00,0.2272
1914.00,0.2271
1913.00,0.2269
1912.00,0.2267
1911.00,0.2265
1910.00,0.2264
1909.00,0.2266
1908.00,0.2269
1907.00,0.2271
1906.00,0.2273
1905.00,0.2275
1904.00,0.2276
1903.00,0.2277
1902.00,0.2278
1901.00,0.2280
1900.00,0.2282
1899.00,0.2282
1898.00,0.2281
1897.00,0.2281
1896.00,0.2281
1895.00,0.2283
1894.00,0.2286
1893.00,0.2288
1892.00,0.2288
1891.00,0.2287
1890.00,0.2287
1889.00,0.2289
1888.00,0.2293
1887.00,0.2294
1886.00,0.2294
1885.00,0.2294
1884.00,0.2295
1883.00,0.2296
1882.00,0.2297
1881.00,0.2298
1880.00,0.2299
1879.00,0.2299
1878.00,0.2299
1877.00,0.2299
1876.00,0.2300
1875.00,0.2300
1874.00,0.2299
1873.00,0.2296
1872.00,0.2293
1871.00,0.2288
1870.00,0.2283
1869.00,0.2280
1868.00,0.2281
1867.00,0.2283
1866.00,0.2286
1865.00,0.2286
1864.00,0.2286
1863.00,0.2283
1862.00,0.2279
1861.00,0.2276
1860.00,0.2274
1859.00,0.2271
1858.00,0.2268
1857.00,0.2267
1856.00,0.2265
1855.00,0.2263
1854.00,0.2261
1853.00,0.2260
1852.00,0.2258
1851.00,0.2254
1850.00,0.2249
1849.00,0.2244
1848.00,0.2242
1847.00,0.2242
1846.00,0.2244
1845.00,0.2247
1844.00,0.2249
1843.00,0.2249
1842.00,0.2248
1841.00,0.2246
1840.00,0.2243
1839.00,0.2241
1838.00,0.2239
1837.00,0.2239
1836.00,0.2241
1835.00,0.2241
1834.00,0.2241
1833.00,0.2240
1832.00,0.2237
1831.00,0.2235
1830.00,0.2234
1829.00,0.2236
1828.00,0.2238
1827.00,0.2238
1826.00,0.2237
1825.00,0.2237
1824.00,0.2239
1823.00,0.2241
1822.00,0.2242
1821.00,0.2243
1820.00,0.2243
1819.00,0.2242
1818.00,0.2242
1817.00,0.2243
1816.00,0.2244
1815.00,0.2244
1814.00,0.2242
1813.00,0.2239
1812.00,0.2239
1811.00,0.2241
1810.00,0.2244
1809.00,0.2249
1808.00,0.2254
1807.00,0.2258
1806.00,0.2261
1805.00,0.2264
1804.00,0.2265
1803.00,0.2266
1802.00,0.2269
1801.00,0.2276
1800.00,0.2284
1799.00,0.2289
1798.00,0.2292
1797.00,0.2295
1796.00,0.2299
1795.00,0.2304
1794.00,0.2310
1793.00,0.2317
1792.00,0.2325
1791.00,0.2333
1790.00,0.2341
1789.00,0.2347
1788.00,0.2351
1787.00,0.2355
1786.00,0.2359
1785.00,0.2363
1784.00,0.2367
1783.00,0.2369
1782.00,0.2370
1781.00,0.2374
1780.00,0.2381
1779.00,0.2389
1778.00,0.2394
1777.00,0.2398
1776.00,0.2401
1775.00,0.2404
1774.00,0.2408
1773.00,0.2416
1772.00,0.2427
1771.00,0.2437
1770.00,0.2444
1769.00,0.2450
1768.00,0.2457
1767.00,0.2464
1766.00,0.2470
1765.00,0.2475
1764.00,0.2482
1763.00,0.2489
1762.00,0.2498
1761.00,0.2509
1760.00,0.2518
1759.00,0.2527
1758.00,0.2539
1757.00,0.2554
1756.00,0.2572
1755.00,0.2587
1754.00,0.2600
1753.00,0.2614
1752.00,0.2631
1751.00,0.2651
1750.00,0.2678
1749.00,0.2711
1748.00,0.2751
1747.00,0.2794
1746.00,0.2840
1745.00,0.2890
1744.00,0.2945
1743.00,0.3007
1742.00,0.3071
1741.00,0.3136
1740.00,0.3199
1739.00,0.3255
1738.00,0.3301
1737.00,0.3339
1736.00,0.3372
1735.00,0.3398
1734.00,0.3417
1733.00,0.3427
1732.00,0.3428
1731.00,0.3421
1730.00,0.3410
1729.00,0.3396
1728.00,0.3380
1727.00,0.3360
1726.00,0.3336
1725.00,0.3312
1724.00,0.3290
1723.00,0.3270
1722.00,0.3252
1721.00,0.3237
1720.00,0.3221
1719.00,0.3200
1718.00,0.3181
1717.00,0.3174
1716.00,0.3176
1715.00,0.3180
1714.00,0.3182
1713.00,0.3183
1712.00,0.3183
1711.00,0.3183
1710.00,0.3184
1709.00,0.3186
1708.00,0.3189
1707.00,0.3190
1706.00,0.3190
1705.00,0.3192
1704.00,0.3195
1703.00,0.3201
1702.00,0.3194
1701.00,0.3180
1700.00,0.3168
1699.00,0.3154
1698.00,0.3145
1697.00,0.3108
1696.00,0.3105
1695.00,0.3113
1694.00,0.3113
1693.00,0.3113
1692.00,0.3112
1691.00,0.3111
1690.00,0.3112
1689.00,0.3117
1688.00,0.3123
1687.00,0.3131
1686.00,0.3140
1685.00,0.3153
1684.00,0.3176
1683.00,0.3197
1682.00,0.3207
1681.00,0.3216
1680.00,0.3229
1679.00,0.3248
1678.00,0.3268
1677.00,0.3290
1676.00,0.3310
1675.00,0.3325
1674.00,0.3333
1673.00,0.3341
1672.00,0.3352
1671.00,0.3365
1670.00,0.3382
1669.00,0.3403
1668.00,0.3424
1667.00,0.3439
1666.00,0.3453
1665.00,0.3470
1664.00,0.3488
1663.00,0.3507
1662.00,0.3525
1661.00,0.3543
1660.00,0.3560
1659.00,0.3574
1658.00,0.3587
1657.00,0.3601
1656.00,0.3617
1655.00,0.3634
1654.00,0.3657
1653.00,0.3695
1652.00,0.3723
1651.00,0.3731
1650.00,0.3736
1649.00,0.3743
1648.00,0.3758
1647.00,0.3786
1646.00,0.3821
1645.00,0.3850
1644.00,0.3873
1643.00,0.3892
1642.00,0.3911
1641.00,0.3932
1640.00,0.3954
1639.00,0.3975
1638.00,0.3998
1637.00,0.4030
1636.00,0.4076
1635.00,0.4123
1634.00,0.4156
1633.00,0.4182
1632.00,0.4207
1631.00,0.4234
1630.00,0.4263
1629.00,0.4295
1628.00,0.4332
1627.00,0.4370
1626.00,0.4409
1625.00,0.4452
1624.00,0.4503
1623.00,0.4562
1622.00,0.4624
1621.00,0.4690
1620.00,0.4760
1619.00,0.4837
1618.00,0.4931
1617.00,0.5051
1616.00,0.5189
1615.00,0.5317
1614.00,0.5432
1613.00,0.5545
1612.00,0.5665
1611.00,0.5786
1610.00,0.5904
1609.00,0.6024
1608.00,0.6145
1607.00,0.6258
1606.00,0.6359
1605.00,0.6454
1604.00,0.6546
1603.00,0.6632
1602.00,0.6712
1601.00,0.6797
1600.00,0.6891
1599.00,0.6991
1598.00,0.7100
1597.00,0.7237
1596.00,0.7413
1595.00,0.7629
1594.00,0.7891
1593.00,0.8222
1592.00,0.8643
1591.00,0.9170
1590.00,0.9829
1589.00,1.0678
1588.00,1.1787
1587.00,1.3200
1586.00,1.4957
1585.00,1.7158
1584.00,1.9992
1583.00,2.3528
1582.00,2.7209
1581.00,3.0397
1580.00,3.3692
1579.00,3.2541
1578.00,2.6812
1577.00,2.2462
1576.00,1.9265
1575.00,1.6813
1574.00,1.4976
1573.00,1.3605
1572.00,1.2522
1571.00,1.1608
1570.00,1.0870
1569.00,1.0384
1568.00,1.0177
1567.00,1.0218
1566.00,1.0499
1565.00,1.1052
1564.00,1.1879
1563.00,1.2893
1562.00,1.3971
1561.00,1.5002
1560.00,1.5594
1559.00,1.4972
1558.00,1.3495
1557.00,1.2062
1556.00,1.0805
1555.00,0.9632
1554.00,0.8592
1553.00,0.7768
1552.00,0.7146
1551.00,0.6654
1550.00,0.6245
1549.00,0.5920
1548.00,0.5672
1547.00,0.5476
1546.00,0.5306
1545.00,0.5161
1544.00,0.5047
1543.00,0.4958
1542.00,0.4879
1541.00,0.4804
1540.00,0.4741
1539.00,0.4680
1538.00,0.4616
1537.00,0.4557
1536.00,0.4507
1535.00,0.4456
1534.00,0.4407
1533.00,0.4375
1532.00,0.4364
1531.00,0.4363
1530.00,0.4368
1529.00,0.4376
1528.00,0.4379
1527.00,0.4371
1526.00,0.4349
1525.00,0.4320
1524.00,0.4288
1523.00,0.4257
1522.00,0.4234
1521.00,0.4229
1520.00,0.4238
1519.00,0.4251
1518.00,0.4271
1517.00,0.4307
1516.00,0.4355
1515.00,0.4401
1514.00,0.4440
1513.00,0.4474
1512.00,0.4506
1511.00,0.4536
1510.00,0.4567
1509.00,0.4609
1508.00,0.4682
1507.00,0.4810
1506.00,0.4969
1505.00,0.5104
1504.00,0.5207
1503.00,0.5294
1502.00,0.5380
1501.00,0.5474
1500.00,0.5573
1499.00,0.5671
1498.00,0.5778
1497.00,0.5911
1496.00,0.6064
1495.00,0.6215
1494.00,0.6359
1493.00,0.6506
1492.00,0.6664
1491.00,0.6836
1490.00,0.7032
1489.00,0.7262
1488.00,0.7516
1487.00,0.7787
1486.00,0.8087
1485.00,0.8427
1484.00,0.8812
1483.00,0.9248
1482.00,0.9753
1481.00,1.0338
1480.00,1.0983
1479.00,1.1676
1478.00,1.2458
1477.00,1.3388
1476.00,1.4483
1475.00,1.5741
1474.00,1.7261
1473.00,1.9243
1472.00,2.1777
1471.00,2.4673
1470.00,2.7772
1469.00,3.1309
1468.00,3.4849
1467.00,3.5818
1466.00,3.5750
1465.00,3.6952
1464.00,3.7536
1463.00,3.6326
1462.00,3.6494
1461.00,4.0068
1460.00,4.2315
1459.00,3.8527
1458.00,3.7312
1457.00,3.6873
1456.00,3.6824
1455.00,3.8414
1454.00,3.9665
1453.00,4.3133
1452.00,4.3983
1451.00,3.8278
1450.00,3.5987
1449.00,3.5719
1448.00,3.4633
1447.00,3.2439
1446.00,3.0985
1445.00,3.0041
1444.00,2.8598
1443.00,2.6688
1442.00,2.4962
1441.00,2.3527
1440.00,2.2197
1439.00,2.0881
1438.00,1.9567
1437.00,1.8242
1436.00,1.6964
1435.00,1.5834
1434.00,1.4857
1433.00,1.3964
1432.00,1.3108
1431.00,1.2305
1430.00,1.1594
1429.00,1.0992
1428.00,1.0497
1427.00,1.0098
1426.00,0.9774
1425.00,0.9503
1424.00,0.9285
1423.00,0.9121
1422.00,0.9001
1421.00,0.8903
1420.00,0.8811
1419.00,0.8729
1418.00,0.8664
1417.00,0.8615
1416.00,0.8577
1415.00,0.8552
1414.00,0.8537
1413.00,0.8535
1412.00,0.8548
1411.00,0.8572
1410.00,0.8596
1409.00,0.8603
1408.00,0.8577
1407.00,0.8503
1406.00,0.8371
1405.00,0.8178
1404.00,0.7943
1403.00,0.7694
1402.00,0.7454
1401.00,0.7232
1400.00,0.7040
1399.00,0.6892
1398.00,0.6792
1397.00,0.6733
1396.00,0.6709
1395.00,0.6725
1394.00,0.6785
1393.00,0.6899
1392.00,0.7087
1391.00,0.7376
1390.00,0.7789
1389.00,0.8359
1388.00,0.9122
1387.00,1.0082
1386.00,1.1182
1385.00,1.2335
1384.00,1.3501
1383.00,1.4694
1382.00,1.5946
1381.00,1.7310
1380.00,1.8838
1379.00,2.0459
1378.00,2.1827
1377.00,2.2436
1376.00,2.2021
1375.00,2.0744
1374.00,1.9080
1373.00,1.7493
1372.00,1.6186
1371.00,1.5183
1370.00,1.4464
1369.00,1.4007
1368.00,1.3745
1367.00,1.3537
1366.00,1.3205
1365.00,1.2636
1364.00,1.1858
1363.00,1.1008
1362.00,1.0232
1361.00,0.9605
1360.00,0.9132
1359.00,0.8784
1358.00,0.8533
1357.00,0.8357
1356.00,0.8242
1355.00,0.8176
1354.00,0.8148
1353.00,0.8146
1352.00,0.8157
1351.00,0.8171
1350.00,0.8184
1349.00,0.8194
1348.00,0.8203
1347.00,0.8210
1346.00,0.8215
1345.00,0.8212
1344.00,0.8197
1343.00,0.8166
1342.00,0.8111
1341.00,0.8033
1340.00,0.7933
1339.00,0.7817
1338.00,0.7688
1337.00,0.7546
1336.00,0.7395
1335.00,0.7240
1334.00,0.7086
1333.00,0.6937
1332.00,0.6796
1331.00,0.6669
1330.00,0.6558
1329.00,0.6466
1328.00,0.6394
1327.00,0.6344
1326.00,0.6313
1325.00,0.6297
1324.00,0.6291
1323.00,0.6295
1322.00,0.6307
1321.00,0.6324
1320.00,0.6343
1319.00,0.6363
1318.00,0.6378
1317.00,0.6386
1316.00,0.6391
1315.00,0.6397
1314.00,0.6411
1313.00,0.6437
1312.00,0.6473
1311.00,0.6514
1310.00,0.6555
1309.00,0.6593
1308.00,0.6626
1307.00,0.6657
1306.00,0.6682
1305.00,0.6696
1304.00,0.6693
1303.00,0.6675
1302.00,0.6645
1301.00,0.6606
1300.00,0.6559
1299.00,0.6503
1298.00,0.6438
1297.00,0.6366
1296.00,0.6292
1295.00,0.6224
1294.00,0.6165
1293.00,0.6116
1292.00,0.6073
1291.00,0.6036
1290.00,0.6002
1289.00,0.5971
1288.00,0.5944
1287.00,0.5921
1286.00,0.5900
1285.00,0.5879
1284.00,0.5857
1283.00,0.5834
1282.00,0.5811
1281.00,0.5789
1280.00,0.5767
1279.00,0.5744
1278.00,0.5720
1277.00,0.5694
1276.00,0.5666
1275.00,0.5641
1274.00,0.5622
1273.00,0.5610
1272.00,0.5609
1271.00,0.5620
1270.00,0.5643
1269.00,0.5672
1268.00,0.5693
1267.00,0.5695
1266.00,0.5670
1265.00,0.5620
1264.00,0.5561
1263.00,0.5507
1262.00,0.5468
1261.00,0.5444
1260.00,0.5432
1259.00,0.5426
1258.00,0.5420
1257.00,0.5412
1256.00,0.5400
1255.00,0.5390
1254.00,0.5385
1253.00,0.5386
1252.00,0.5394
1251.00,0.5406
1250.00,0.5421
1249.00,0.5436
1248.00,0.5449
1247.00,0.5458
1246.00,0.5458
1245.00,0.5449
1244.00,0.5431
1243.00,0.5405
1242.00,0.5376
1241.00,0.5344
1240.00,0.5313
1239.00,0.5285
1238.00,0.5259
1237.00,0.5236
1236.00,0.5218
1235.00,0.5207
1234.00,0.5204
1233.00,0.5211
1232.00,0.5229
1231.00,0.5260
1230.00,0.5297
1229.00,0.5330
1228.00,0.5349
1227.00,0.5344
1226.00,0.5316
1225.00,0.5271
1224.00,0.5220
1223.00,0.5172
1222.00,0.5134
1221.00,0.5107
1220.00,0.5089
1219.00,0.5079
1218.00,0.5075
1217.00,0.5080
1216.00,0.5093
1215.00,0.5115
1214.00,0.5141
1213.00,0.5161
1212.00,0.5170
1211.00,0.5163
1210.00,0.5147
1209.00,0.5128
1208.00,0.5112
1207.00,0.5103
1206.00,0.5102
1205.00,0.5105
1204.00,0.5111
1203.00,0.5117
1202.00,0.5121
1201.00,0.5120
1200.00,0.5115
1199.00,0.5108
1198.00,0.5098
1197.00,0.5081
1196.00,0.5057
1195.00,0.5027
1194.00,0.4995
1193.00,0.4965
1192.00,0.4938
1191.00,0.4915
1190.00,0.4895
1189.00,0.4880
1188.00,0.4868
1187.00,0.4860
1186.00,0.4854
1185.00,0.4849
1184.00,0.4845
1183.00,0.4842
1182.00,0.4843
1181.00,0.4848
1180.00,0.4857
1179.00,0.4871
1178.00,0.4889
1177.00,0.4911
1176.00,0.4938
1175.00,0.4973
1174.00,0.5018
1173.00,0.5071
1172.00,0.5129
1171.00,0.5183
1170.00,0.5225
1169.00,0.5250
1168.00,0.5258
1167.00,0.5257
1166.00,0.5253
1165.00,0.5252
1164.00,0.5257
1163.00,0.5269
1162.00,0.5287
1161.00,0.5310
1160.00,0.5336
1159.00,0.5363
1158.00,0.5389
1157.00,0.5408
1156.00,0.5421
1155.00,0.5425
1154.00,0.5419
1153.00,0.5404
1152.00,0.5382
1151.00,0.5354
1150.00,0.5323
1149.00,0.5292
1148.00,0.5260
1147.00,0.5232
1146.00,0.5206
1145.00,0.5186
1144.00,0.5174
1143.00,0.5175
1142.00,0.5194
1141.00,0.5232
1140.00,0.5291
1139.00,0.5370
1138.00,0.5469
1137.00,0.5584
1136.00,0.5711
1135.00,0.5841
1134.00,0.5954
1133.00,0.6024
1132.00,0.6031
1131.00,0.5972
1130.00,0.5861
1129.00,0.5728
1128.00,0.5600
1127.00,0.5499
1126.00,0.5429
1125.00,0.5383
1124.00,0.5352
1123.00,0.5328
1122.00,0.5305
1121.00,0.5285
1120.00,0.5271
1119.00,0.5271
1118.00,0.5294
1117.00,0.5341
1116.00,0.5409
1115.00,0.5481
1114.00,0.5531
1113.00,0.5539
1112.00,0.5505
1111.00,0.5448
1110.00,0.5393
1109.00,0.5359
1108.00,0.5348
1107.00,0.5353
1106.00,0.5358
1105.00,0.5347
1104.00,0.5308
1103.00,0.5243
1102.00,0.5161
1101.00,0.5073
1100.00,0.4985
1099.00,0.4901
1098.00,0.4824
1097.00,0.4754
1096.00,0.4696
1095.00,0.4652
1094.00,0.4624
1093.00,0.4608
1092.00,0.4604
1091.00,0.4611
1090.00,0.4629
1089.00,0.4660
1088.00,0.4702
1087.00,0.4758
1086.00,0.4828
1085.00,0.4910
1084.00,0.5004
1083.00,0.5110
1082.00,0.5226
1081.00,0.5349
1080.00,0.5475
1079.00,0.5595
1078.00,0.5695
1077.00,0.5760
1076.00,0.5777
1075.00,0.5746
1074.00,0.5673
1073.00,0.5577
1072.00,0.5477
1071.00,0.5390
1070.00,0.5321
1069.00,0.5268
1068.00,0.5229
1067.00,0.5199
1066.00,0.5177
1065.00,0.5160
1064.00,0.5148
1063.00,0.5144
1062.00,0.5147
1061.00,0.5154
1060.00,0.5161
1059.00,0.5163
1058.00,0.5158
1057.00,0.5143
1056.00,0.5117
1055.00,0.5085
1054.00,0.5051
1053.00,0.5020
1052.00,0.4998
1051.00,0.4991
1050.00,0.4999
1049.00,0.5020
1048.00,0.5049
1047.00,0.5080
1046.00,0.5108
1045.00,0.5133
1044.00,0.5153
1043.00,0.5172
1042.00,0.5194
1041.00,0.5219
1040.00,0.5248
1039.00,0.5277
1038.00,0.5305
1037.00,0.5330
1036.00,0.5353
1035.00,0.5380
1034.00,0.5412
1033.00,0.5451
1032.00,0.5495
1031.00,0.5541
1030.00,0.5584
1029.00,0.5615
1028.00,0.5623
1027.00,0.5601
1026.00,0.5547
1025.00,0.5466
1024.00,0.5372
1023.00,0.5278
1022.00,0.5192
1021.00,0.5117
1020.00,0.5054
1019.00,0.5003
1018.00,0.4960
1017.00,0.4926
1016.00,0.4899
1015.00,0.4879
1014.00,0.4867
1013.00,0.4863
1012.00,0.4867
1011.00,0.4881
1010.00,0.4903
1009.00,0.4933
1008.00,0.4973
1007.00,0.5022
1006.00,0.5079
1005.00,0.5142
1004.00,0.5212
1003.00,0.5286
1002.00,0.5364
1001.00,0.5440
1000.00,0.5508
999.00,0.5560
998.00,0.5591
997.00,0.5595
996.00,0.5574
995.00,0.5533
994.00,0.5478
993.00,0.5414
992.00,0.5342
991.00,0.5264
990.00,0.5183
989.00,0.5102
988.00,0.5027
987.00,0.4962
986.00,0.4912
985.00,0.4877
984.00,0.4857
983.00,0.4852
982.00,0.4855
981.00,0.4858
980.00,0.4856
979.00,0.4846
978.00,0.4831
977.00,0.4814
976.00,0.4794
975.00,0.4776
974.00,0.4757
973.00,0.4738
972.00,0.4716
971.00,0.4693
970.00,0.4670
969.00,0.4649
968.00,0.4633
967.00,0.4622
966.00,0.4612
965.00,0.4600
964.00,0.4581
963.00,0.4556
962.00,0.4527
961.00,0.4497
960.00,0.4470
959.00,0.4449
958.00,0.4432
957.00,0.4419
956.00,0.4406
955.00,0.4390
954.00,0.4369
953.00,0.4341
952.00,0.4309
951.00,0.4276
950.00,0.4249
949.00,0.4231
948.00,0.4222
947.00,0.4221
946.00,0.4229
945.00,0.4242
944.00,0.4259
943.00,0.4279
942.00,0.4301
941.00,0.4321
940.00,0.4338
939.00,0.4349
938.00,0.4354
937.00,0.4350
936.00,0.4339
935.00,0.4323
934.00,0.4303
933.00,0.4281
932.00,0.4259
931.00,0.4240
930.00,0.4226
929.00,0.4217
928.00,0.4217
927.00,0.4231
926.00,0.4263
925.00,0.4317
924.00,0.4393
923.00,0.4483
922.00,0.4573
921.00,0.4637
920.00,0.4651
919.00,0.4605
918.00,0.4508
917.00,0.4383
916.00,0.4252
915.00,0.4132
914.00,0.4029
913.00,0.3943
912.00,0.3874
911.00,0.3819
910.00,0.3775
909.00,0.3738
908.00,0.3707
907.00,0.3682
906.00,0.3663
905.00,0.3649
904.00,0.3642
903.00,0.3642
902.00,0.3651
901.00,0.3666
900.00,0.3686
899.00,0.3711
898.00,0.3741
897.00,0.3776
896.00,0.3814
895.00,0.3856
894.00,0.3903
893.00,0.3954
892.00,0.4005
891.00,0.4053
890.00,0.4094
889.00,0.4122
888.00,0.4130
887.00,0.4119
886.00,0.4091
885.00,0.4055
884.00,0.4020
883.00,0.3996
882.00,0.3985
881.00,0.3987
880.00,0.3997
879.00,0.4012
878.00,0.4030
877.00,0.4051
876.00,0.4074
875.00,0.4100
874.00,0.4127
873.00,0.4155
872.00,0.4183
871.00,0.4212
870.00,0.4245
869.00,0.4285
868.00,0.4335
867.00,0.4399
866.00,0.4479
865.00,0.4573
864.00,0.4673
863.00,0.4762
862.00,0.4817
861.00,0.4815
860.00,0.4756
859.00,0.4657
858.00,0.4546
857.00,0.4446
856.00,0.4368
855.00,0.4310
854.00,0.4270
853.00,0.4240
852.00,0.4218
851.00,0.4199
850.00,0.4178
849.00,0.4153
848.00,0.4123
847.00,0.4092
846.00,0.4060
845.00,0.4029
844.00,0.4001
843.00,0.3983
842.00,0.3983
841.00,0.4007
840.00,0.4063
839.00,0.4150
838.00,0.4258
837.00,0.4363
836.00,0.4433
835.00,0.4444
834.00,0.4387
833.00,0.4280
832.00,0.4157
831.00,0.4050
830.00,0.3977
829.00,0.3941
828.00,0.3934
827.00,0.3949
826.00,0.3981
825.00,0.4026
824.00,0.4080
823.00,0.4144
822.00,0.4214
821.00,0.4289
820.00,0.4364
819.00,0.4438
818.00,0.4508
817.00,0.4568
816.00,0.4612
815.00,0.4634
814.00,0.4630
813.00,0.4601
812.00,0.4551
811.00,0.4489
810.00,0.4421
809.00,0.4355
808.00,0.4294
807.00,0.4239
806.00,0.4189
805.00,0.4143
804.00,0.4097
803.00,0.4046
802.00,0.3991
801.00,0.3935
800.00,0.3884
799.00,0.3846
798.00,0.3820
797.00,0.3805
796.00,0.3795
795.00,0.3789
794.00,0.3785
793.00,0.3784
792.00,0.3787
791.00,0.3797
790.00,0.3812
789.00,0.3827
788.00,0.3841
787.00,0.3854
786.00,0.3871
785.00,0.3894
784.00,0.3926
783.00,0.3964
782.00,0.4004
781.00,0.4042
780.00,0.4076
779.00,0.4104
778.00,0.4128
777.00,0.4148
776.00,0.4167
775.00,0.4186
774.00,0.4206
773.00,0.4226
772.00,0.4244
771.00,0.4265
770.00,0.4289
769.00,0.4318
768.00,0.4351
767.00,0.4384
766.00,0.4414
765.00,0.4439
764.00,0.4462
763.00,0.4486
762.00,0.4517
761.00,0.4553
760.00,0.4593
759.00,0.4632
758.00,0.4662
757.00,0.4677
756.00,0.4677
755.00,0.4674
754.00,0.4677
753.00,0.4691
752.00,0.4716
751.00,0.4747
750.00,0.4784
749.00,0.4824
748.00,0.4865
747.00,0.4904
746.00,0.4947
745.00,0.4996
744.00,0.5055
743.00,0.5125
742.00,0.5206
741.00,0.5290
740.00,0.5373
739.00,0.5449
738.00,0.5520
737.00,0.5586
736.00,0.5648
735.00,0.5708
734.00,0.5769
733.00,0.5837
732.00,0.5913
731.00,0.6005
730.00,0.6120
729.00,0.6265
728.00,0.6452
727.00,0.6691
726.00,0.6990
725.00,0.7340
724.00,0.7706
723.00,0.8017
722.00,0.8177
721.00,0.8100
720.00,0.7777
719.00,0.7299
718.00,0.6786
717.00,0.6324
716.00,0.5949
715.00,0.5665
714.00,0.5455
713.00,0.5295
712.00,0.5171
711.00,0.5073
710.00,0.4999
709.00,0.4943
708.00,0.4897
707.00,0.4858
706.00,0.4822
705.00,0.4787
704.00,0.4749
703.00,0.4712
702.00,0.4677
701.00,0.4644
700.00,0.4605
699.00,0.4553
698.00,0.4479
697.00,0.4385
696.00,0.4281
695.00,0.4182
694.00,0.4096
693.00,0.4027
692.00,0.3972
691.00,0.3930
690.00,0.3897
689.00,0.3868
688.00,0.3843
687.00,0.3823
686.00,0.3808
685.00,0.3799
684.00,0.3793
683.00,0.3792
682.00,0.3797
681.00,0.3809
680.00,0.3824
679.00,0.3842
678.00,0.3861
677.00,0.3881
676.00,0.3900
675.00,0.3919
674.00,0.3937
673.00,0.3956
672.00,0.3975
671.00,0.3993
670.00,0.4008
669.00,0.4015
668.00,0.4009
667.00,0.3995
666.00,0.3981
665.00,0.3970
664.00,0.3958
663.00,0.3945
662.00,0.3931
661.00,0.3915
660.00,0.3898
659.00,0.3883
658.00,0.3874
657.00,0.3869
656.00,0.3867
655.00,0.3862
654.00,0.3855
653.00,0.3846
652.00,0.3838
651.00,0.3834
650.00,0.3835
649.00,0.3836
648.00,0.3839
647.00,0.3845
646.00,0.3857
645.00,0.3874
644.00,0.3892
643.00,0.3909
642.00,0.3926
641.00,0.3942
640.00,0.3956
639.00,0.3968
638.00,0.3976
637.00,0.3979
636.00,0.3981
635.00,0.3985
634.00,0.3991
633.00,0.3997
632.00,0.4003
631.00,0.4012
630.00,0.4026
629.00,0.4042
628.00,0.4058
627.00,0.4072
626.00,0.4086
625.00,0.4100
624.00,0.4116
623.00,0.4132
622.00,0.4147
621.00,0.4159
620.00,0.4166
619.00,0.4168
618.00,0.4167
617.00,0.4165
616.00,0.4161
615.00,0.4154
614.00,0.4145
613.00,0.4134
612.00,0.4119
611.00,0.4102
610.00,0.4086
609.00,0.4072
608.00,0.4056
607.00,0.4038
606.00,0.4020
605.00,0.4007
604.00,0.4000
603.00,0.3998
602.00,0.3996
601.00,0.3994
600.00,0.3995
599.00,0.4003
598.00,0.4017
597.00,0.4033
596.00,0.4050
595.00,0.4068
594.00,0.4088
593.00,0.4111
592.00,0.4132
591.00,0.4150
590.00,0.4165
589.00,0.4179
588.00,0.4196
587.00,0.4217
586.00,0.4241
585.00,0.4270
584.00,0.4302
583.00,0.4336
582.00,0.4369
581.00,0.4398
580.00,0.4424
579.00,0.4447
578.00,0.4469
577.00,0.4489
576.00,0.4506
575.00,0.4524
574.00,0.4546
573.00,0.4570
572.00,0.4597
571.00,0.4623
570.00,0.4648
569.00,0.4674
568.00,0.4700
567.00,0.4728
566.00,0.4755
565.00,0.4778
564.00,0.4796
563.00,0.4813
562.00,0.4831
561.00,0.4854
560.00,0.4879
559.00,0.4900
558.00,0.4915
557.00,0.4927
556.00,0.4937
555.00,0.4941
554.00,0.4935
553.00,0.4922
552.00,0.4915
551.00,0.4917
550.00,0.4921
