Created as New Dataset,
cm-1,A
4000.00,0.3060
3999.00,0.3057
3998.00,0.3054
3997.00,0.3051
3996.00,0.3048
3995.00,0.3045
3994.00,0.3041
3993.00,0.3037
3992.00,0.3032
3991.00,0.3028
3990.00,0.3024
3989.00,0.3020
3988.00,0.3017
3987.00,0.3013
3986.00,0.3008
3985.00,0.3005
3984.00,0.3001
3983.00,0.2998
3982.00,0.2994
3981.00,0.2990
3980.00,0.2986
3979.00,0.2983
3978.00,0.2980
3977.00,0.2977
3976.00,0.2976
3975.00,0.2973
3974.00,0.2971
3973.00,0.2968
3972.00,0.2966
3971.00,0.2964
3970.00,0.2963
3969.00,0.2961
3968.00,0.2960
3967.00,0.2959
3966.00,0.2958
3965.00,0.2957
3964.00,0.2955
3963.00,0.2953
3962.00,0.2950
3961.00,0.2949
3960.00,0.2948
3959.00,0.2946
3958.00,0.2945
3957.00,0.2944
3956.00,0.2943
3955.00,0.2941
3954.00,0.2939
3953.00,0.2937
3952.00,0.2936
3951.00,0.2934
3950.00,0.2932
3949.00,0.2930
3948.00,0.2928
3947.00,0.2926
3946.00,0.2924
3945.00,0.2923
3944.00,0.2921
3943.00,0.2920
3942.00,0.2918
3941.00,0.2917
3940.00,0.2916
3939.00,0.2914
3938.00,0.2914
3937.00,0.2914
3936.00,0.2915
3935.00,0.2915
3934.00,0.2915
3933.00,0.2915
3932.00,0.2916
3931.00,0.2916
3930.00,0.2916
3929.00,0.2917
3928.00,0.2917
3927.00,0.2917
3926.00,0.2918
3925.00,0.2917
3924.00,0.2917
3923.00,0.2917
3922.00,0.2917
3921.00,0.2916
3920.00,0.2916
3919.00,0.2915
3918.00,0.2914
3917.00,0.2913
3916.00,0.2911
3915.00,0.2910
3914.00,0.2909
3913.00,0.2907
3912.00,0.2906
3911.00,0.2906
3910.00,0.2906
3909.00,0.2906
3908.00,0.2908
3907.00,0.2910
3906.00,0.2912
3905.00,0.2913
3904.00,0.2915
3903.00,0.2917
3902.00,0.2918
3901.00,0.2918
3900.00,0.2918
3899.00,0.2917
3898.00,0.2915
3897.00,0.2913
3896.00,0.2912
3895.00,0.2910
3894.00,0.2910
3893.00,0.2909
3892.00,0.2908
3891.00,0.2908
3890.00,0.2908
3889.00,0.2908
3888.00,0.2908
3887.00,0.2908
3886.00,0.2907
3885.00,0.2907
3884.00,0.2907
3883.00,0.2906
3882.00,0.2905
3881.00,0.2903
3880.00,0.2902
3879.00,0.2900
3878.00,0.2899
3877.00,0.2898
3876.00,0.2896
3875.00,0.2895
3874.00,0.2895
3873.00,0.2895
3872.00,0.2895
3871.00,0.2895
3870.00,0.2894
3869.00,0.2894
3868.00,0.2894
3867.00,0.2894
3866.00,0.2893
3865.00,0.2891
3864.00,0.2890
3863.00,0.2888
3862.00,0.2886
3861.00,0.2884
3860.00,0.2883
3859.00,0.2882
3858.00,0.2883
3857.00,0.2884
3856.00,0.2885
3855.00,0.2885
3854.00,0.2885
3853.00,0.2886
3852.00,0.2887
3851.00,0.2887
3850.00,0.2884
3849.00,0.2881
3848.00,0.2877
3847.00,0.2874
3846.00,0.2872
3845.00,0.2870
3844.00,0.2870
3843.00,0.2871
3842.00,0.2873
3841.00,0.2875
3840.00,0.2876
3839.00,0.2877
3838.00,0.2877
3837.00,0.2878
3836.00,0.2878
3835.00,0.2877
3834.00,0.2876
3833.00,0.2874
3832.00,0.2871
3831.00,0.2869
3830.00,0.2868
3829.00,0.2866
3828.00,0.2865
3827.00,0.2864
3826.00,0.2863
3825.00,0.2863
3824.00,0.2863
3823.00,0.2863
3822.00,0.2862
3821.00,0.2862
3820.00,0.2862
3819.00,0.2863
3818.00,0.2862
3817.00,0.2860
3816.00,0.2856
3815.00,0.2852
3814.00,0.2848
3813.00,0.2845
3812.00,0.2842
3811.00,0.2840
3810.00,0.2839
3809.00,0.2837
3808.00,0.2835
3807.00,0.2834
3806.00,0.2834
3805.00,0.2834
3804.00,0.2833
3803.00,0.2832
3802.00,0.2830
3801.00,0.2829
3800.00,0.2829
3799.00,0.2828
3798.00,0.2826
3797.00,0.2824
3796.00,0.2821
3795.00,0.2817
3794.00,0.2814
3793.00,0.2811
3792.00,0.2809
3791.00,0.2806
3790.00,0.2805
3789.00,0.2803
3788.00,0.2801
3787.00,0.2800
3786.00,0.2798
3785.00,0.2796
3784.00,0.2795
3783.00,0.2794
3782.00,0.2793
3781.00,0.2792
3780.00,0.2790
3779.00,0.2787
3778.00,0.2785
3777.00,0.2783
3776.00,0.2782
3775.00,0.2781
3774.00,0.2780
3773.00,0.2779
3772.00,0.2778
3771.00,0.2777
3770.00,0.2776
3769.00,0.2776
3768.00,0.2776
3767.00,0.2776
3766.00,0.2774
3765.00,0.2773
3764.00,0.2771
3763.00,0.2771
3762.00,0.2770
3761.00,0.2768
3760.00,0.2767
3759.00,0.2765
3758.00,0.2763
3757.00,0.2762
3756.00,0.2762
3755.00,0.2762
3754.00,0.2761
3753.00,0.2761
3752.00,0.2760
3751.00,0.2760
3750.00,0.2761
3749.00,0.2761
3748.00,0.2762
3747.00,0.2761
3746.00,0.2759
3745.00,0.2755
3744.00,0.2752
3743.00,0.2750
3742.00,0.2749
3741.00,0.2747
3740.00,0.2745
3739.00,0.2744
3738.00,0.2744
3737.00,0.2744
3736.00,0.2743
3735.00,0.2743
3734.00,0.2743
3733.00,0.2742
3732.00,0.2740
3731.00,0.2737
3730.00,0.2735
3729.00,0.2733
3728.00,0.2731
3727.00,0.2729
3726.00,0.2728
3725.00,0.2726
3724.00,0.2725
3723.00,0.2723
3722.00,0.2722
3721.00,0.2720
3720.00,0.2718
3719.00,0.2716
3718.00,0.2715
3717.00,0.2714
3716.00,0.2714
3715.00,0.2714
3714.00,0.2714
3713.00,0.2714
3712.00,0.2715
3711.00,0.2717
3710.00,0.2717
3709.00,0.2717
3708.00,0.2715
3707.00,0.2713
3706.00,0.2712
3705.00,0.2711
3704.00,0.2711
3703.00,0.2710
3702.00,0.2710
3701.00,0.2711
3700.00,0.2713
3699.00,0.2714
3698.00,0.2715
3697.00,0.2716
3696.00,0.2717
3695.00,0.2718
3694.00,0.2720
3693.00,0.2723
3692.00,0.2726
3691.00,0.2729
3690.00,0.2732
3689.00,0.2734
3688.00,0.2736
3687.00,0.2737
3686.00,0.2736
3685.00,0.2735
3684.00,0.2734
3683.00,0.2733
3682.00,0.2733
3681.00,0.2733
3680.00,0.2734
3679.00,0.2736
3678.00,0.2739
3677.00,0.2741
3676.00,0.2742
3675.00,0.2743
3674.00,0.2745
3673.00,0.2746
3672.00,0.2746
3671.00,0.2746
3670.00,0.2746
3669.00,0.2747
3668.00,0.2747
3667.00,0.2748
3666.00,0.2748
3665.00,0.2748
3664.00,0.2749
3663.00,0.2751
3662.00,0.2753
3661.00,0.2757
3660.00,0.2761
3659.00,0.2765
3658.00,0.2769
3657.00,0.2773
3656.00,0.2778
3655.00,0.2784
3654.00,0.2790
3653.00,0.2796
3652.00,0.2801
3651.00,0.2806
3650.00,0.2811
3649.00,0.2817
3648.00,0.2822
3647.00,0.2826
3646.00,0.2829
3645.00,0.2830
3644.00,0.2832
3643.00,0.2834
3642.00,0.2837
3641.00,0.2841
3640.00,0.2846
3639.00,0.2853
3638.00,0.2860
3637.00,0.2867
3636.00,0.2875
3635.00,0.2882
3634.00,0.2889
3633.00,0.2898
3632.00,0.2908
3631.00,0.2920
3630.00,0.2935
3629.00,0.2953
3628.00,0.2972
3627.00,0.2989
3626.00,0.3001
3625.00,0.3009
3624.00,0.3013
3623.00,0.3013
3622.00,0.3009
3621.00,0.3004
3620.00,0.2996
3619.00,0.2988
3618.00,0.2981
3617.00,0.2976
3616.00,0.2973
3615.00,0.2972
3614.00,0.2971
3613.00,0.2971
3612.00,0.2972
3611.00,0.2975
3610.00,0.2977
3609.00,0.2980
3608.00,0.2984
3607.00,0.2987
3606.00,0.2989
3605.00,0.2990
3604.00,0.2991
3603.00,0.2991
3602.00,0.2990
3601.00,0.2989
3600.00,0.2989
3599.00,0.2988
3598.00,0.2987
3597.00,0.2986
3596.00,0.2984
3595.00,0.2982
3594.00,0.2981
3593.00,0.2981
3592.00,0.2982
3591.00,0.2984
3590.00,0.2985
3589.00,0.2987
3588.00,0.2988
3587.00,0.2990
3586.00,0.2992
3585.00,0.2994
3584.00,0.2996
3583.00,0.2998
3582.00,0.3001
3581.00,0.3002
3580.00,0.3004
3579.00,0.3006
3578.00,0.3009
3577.00,0.3012
3576.00,0.3016
3575.00,0.3020
3574.00,0.3024
3573.00,0.3028
3572.00,0.3032
3571.00,0.3038
3570.00,0.3043
3569.00,0.3049
3568.00,0.3054
3567.00,0.3059
3566.00,0.3065
3565.00,0.3070
3564.00,0.3075
3563.00,0.3079
3562.00,0.3084
3561.00,0.3089
3560.00,0.3094
3559.00,0.3100
3558.00,0.3106
3557.00,0.3113
3556.00,0.3121
3555.00,0.3128
3554.00,0.3136
3553.00,0.3143
3552.00,0.3150
3551.00,0.3157
3550.00,0.3165
3549.00,0.3172
3548.00,0.3179
3547.00,0.3187
3546.00,0.3194
3545.00,0.3202
3544.00,0.3210
3543.00,0.3218
3542.00,0.3225
3541.00,0.3232
3540.00,0.3240
3539.00,0.3247
3538.00,0.3254
3537.00,0.3261
3536.00,0.3268
3535.00,0.3276
3534.00,0.3283
3533.00,0.3291
3532.00,0.3299
3531.00,0.3307
3530.00,0.3315
3529.00,0.3322
3528.00,0.3330
3527.00,0.3338
3526.00,0.3346
3525.00,0.3354
3524.00,0.3363
3523.00,0.3370
3522.00,0.3378
3521.00,0.3387
3520.00,0.3396
3519.00,0.3404
3518.00,0.3413
3517.00,0.3421
3516.00,0.3429
3515.00,0.3437
3514.00,0.3446
3513.00,0.3455
3512.00,0.3465
3511.00,0.3475
3510.00,0.3485
3509.00,0.3494
3508.00,0.3503
3507.00,0.3512
3506.00,0.3521
3505.00,0.3531
3504.00,0.3541
3503.00,0.3551
3502.00,0.3561
3501.00,0.3571
3500.00,0.3580
3499.00,0.3589
3498.00,0.3599
3497.00,0.3609
3496.00,0.3619
3495.00,0.3629
3494.00,0.3639
3493.00,0.3650
3492.00,0.3661
3491.00,0.3672
3490.00,0.3684
3489.00,0.3696
3488.00,0.3707
3487.00,0.3718
3486.00,0.3729
3485.00,0.3740
3484.00,0.3751
3483.00,0.3761
3482.00,0.3772
3481.00,0.3782
3480.00,0.3792
3479.00,0.3801
3478.00,0.3810
3477.00,0.3819
3476.00,0.3829
3475.00,0.3838
3474.00,0.3848
3473.00,0.3858
3472.00,0.3868
3471.00,0.3878
3470.00,0.3888
3469.00,0.3899
3468.00,0.3911
3467.00,0.3923
3466.00,0.3935
3465.00,0.3946
3464.00,0.3956
3463.00,0.3967
3462.00,0.3978
3461.00,0.3989
3460.00,0.4001
3459.00,0.4012
3458.00,0.4024
3457.00,0.4036
3456.00,0.4048
3455.00,0.4061
3454.00,0.4073
3453.00,0.4086
3452.00,0.4099
3451.00,0.4112
3450.00,0.4124
3449.00,0.4138
3448.00,0.4152
3447.00,0.4166
3446.00,0.4180
3445.00,0.4193
3444.00,0.4206
3443.00,0.4219
3442.00,0.4233
3441.00,0.4247
3440.00,0.4261
3439.00,0.4276
3438.00,0.4290
3437.00,0.4305
3436.00,0.4319
3435.00,0.4334
3434.00,0.4349
3433.00,0.4363
3432.00,0.4378
3431.00,0.4392
3430.00,0.4407
3429.00,0.4422
3428.00,0.4437
3427.00,0.4452
3426.00,0.4467
3425.00,0.4483
3424.00,0.4498
3423.00,0.4513
3422.00,0.4529
3421.00,0.4545
3420.00,0.4561
3419.00,0.4577
3418.00,0.4593
3417.00,0.4609
3416.00,0.4626
3415.00,0.4643
3414.00,0.4660
3413.00,0.4676
3412.00,0.4693
3411.00,0.4710
3410.00,0.4728
3409.00,0.4746
3408.00,0.4763
3407.00,0.4780
3406.00,0.4796
3405.00,0.4813
3404.00,0.4831
3403.00,0.4850
3402.00,0.4868
3401.00,0.4886
3400.00,0.4903
3399.00,0.4921
3398.00,0.4939
3397.00,0.4958
3396.00,0.4977
3395.00,0.4996
3394.00,0.5015
3393.00,0.5033
3392.00,0.5052
3391.00,0.5071
3390.00,0.5090
3389.00,0.5109
3388.00,0.5128
3387.00,0.5148
3386.00,0.5167
3385.00,0.5187
3384.00,0.5207
3383.00,0.5227
3382.00,0.5247
3381.00,0.5267
3380.00,0.5287
3379.00,0.5308
3378.00,0.5329
3377.00,0.5350
3376.00,0.5371
3375.00,0.5392
3374.00,0.5414
3373.00,0.5436
3372.00,0.5459
3371.00,0.5481
3370.00,0.5503
3369.00,0.5527
3368.00,0.5550
3367.00,0.5575
3366.00,0.5599
3365.00,0.5623
3364.00,0.5647
3363.00,0.5671
3362.00,0.5696
3361.00,0.5720
3360.00,0.5745
3359.00,0.5771
3358.00,0.5797
3357.00,0.5823
3356.00,0.5848
3355.00,0.5874
3354.00,0.5900
3353.00,0.5926
3352.00,0.5952
3351.00,0.5978
3350.00,0.6004
3349.00,0.6031
3348.00,0.6057
3347.00,0.6083
3346.00,0.6108
3345.00,0.6132
3344.00,0.6155
3343.00,0.6177
3342.00,0.6198
3341.00,0.6220
3340.00,0.6242
3339.00,0.6263
3338.00,0.6283
3337.00,0.6302
3336.00,0.6319
3335.00,0.6335
3334.00,0.6351
3333.00,0.6366
3332.00,0.6381
3331.00,0.6394
3330.00,0.6408
3329.00,0.6421
3328.00,0.6433
3327.00,0.6443
3326.00,0.6451
3325.00,0.6458
3324.00,0.6464
3323.00,0.6469
3322.00,0.6474
3321.00,0.6479
3320.00,0.6483
3319.00,0.6486
3318.00,0.6488
3317.00,0.6489
3316.00,0.6490
3315.00,0.6492
3314.00,0.6493
3313.00,0.6494
3312.00,0.6493
3311.00,0.6491
3310.00,0.6488
3309.00,0.6487
3308.00,0.6485
3307.00,0.6483
3306.00,0.6480
3305.00,0.6477
3304.00,0.6473
3303.00,0.6469
3302.00,0.6466
3301.00,0.6463
3300.00,0.6459
3299.00,0.6455
3298.00,0.6450
3297.00,0.6446
3296.00,0.6443
3295.00,0.6439
3294.00,0.6436
3293.00,0.6433
3292.00,0.6430
3291.00,0.6427
3290.00,0.6423
3289.00,0.6421
3288.00,0.6418
3287.00,0.6416
3286.00,0.6413
3285.00,0.6411
3284.00,0.6409
3283.00,0.6407
3282.00,0.6406
3281.00,0.6406
3280.00,0.6407
3279.00,0.6408
3278.00,0.6409
3277.00,0.6410
3276.00,0.6411
3275.00,0.6412
3274.00,0.6414
3273.00,0.6415
3272.00,0.6416
3271.00,0.6417
3270.00,0.6419
3269.00,0.6422
3268.00,0.6425
3267.00,0.6428
3266.00,0.6431
3265.00,0.6434
3264.00,0.6437
3263.00,0.6441
3262.00,0.6445
3261.00,0.6448
3260.00,0.6451
3259.00,0.6454
3258.00,0.6458
3257.00,0.6462
3256.00,0.6466
3255.00,0.6468
3254.00,0.6469
3253.00,0.6470
3252.00,0.6471
3251.00,0.6471
3250.00,0.6473
3249.00,0.6474
3248.00,0.6474
3247.00,0.6475
3246.00,0.6475
3245.00,0.6475
3244.00,0.6475
3243.00,0.6475
3242.00,0.6474
3241.00,0.6473
3240.00,0.6471
3239.00,0.6468
3238.00,0.6465
3237.00,0.6462
3236.00,0.6458
3235.00,0.6453
3234.00,0.6447
3233.00,0.6441
3232.00,0.6437
3231.00,0.6431
3230.00,0.6425
3229.00,0.6417
3228.00,0.6409
3227.00,0.6401
3226.00,0.6394
3225.00,0.6387
3224.00,0.6380
3223.00,0.6371
3222.00,0.6362
3221.00,0.6352
3220.00,0.6341
3219.00,0.6330
3218.00,0.6320
3217.00,0.6310
3216.00,0.6298
3215.00,0.6286
3214.00,0.6273
3213.00,0.6261
3212.00,0.6249
3211.00,0.6238
3210.00,0.6227
3209.00,0.6216
3208.00,0.6203
3207.00,0.6190
3206.00,0.6177
3205.00,0.6163
3204.00,0.6150
3203.00,0.6136
3202.00,0.6121
3201.00,0.6107
3200.00,0.6092
3199.00,0.6078
3198.00,0.6064
3197.00,0.6049
3196.00,0.6033
3195.00,0.6016
3194.00,0.5999
3193.00,0.5982
3192.00,0.5965
3191.00,0.5948
3190.00,0.5931
3189.00,0.5913
3188.00,0.5895
3187.00,0.5876
3186.00,0.5855
3185.00,0.5835
3184.00,0.5815
3183.00,0.5795
3182.00,0.5776
3181.00,0.5757
3180.00,0.5736
3179.00,0.5715
3178.00,0.5694
3177.00,0.5672
3176.00,0.5651
3175.00,0.5629
3174.00,0.5607
3173.00,0.5585
3172.00,0.5563
3171.00,0.5541
3170.00,0.5519
3169.00,0.5497
3168.00,0.5475
3167.00,0.5453
3166.00,0.5431
3165.00,0.5410
3164.00,0.5389
3163.00,0.5367
3162.00,0.5344
3161.00,0.5321
3160.00,0.5299
3159.00,0.5277
3158.00,0.5256
3157.00,0.5236
3156.00,0.5215
3155.00,0.5195
3154.00,0.5174
3153.00,0.5154
3152.00,0.5134
3151.00,0.5114
3150.00,0.5094
3149.00,0.5074
3148.00,0.5055
3147.00,0.5036
3146.00,0.5017
3145.00,0.4999
3144.00,0.4981
3143.00,0.4963
3142.00,0.4945
3141.00,0.4928
3140.00,0.4912
3139.00,0.4897
3138.00,0.4882
3137.00,0.4867
3136.00,0.4853
3135.00,0.4838
3134.00,0.4824
3133.00,0.4810
3132.00,0.4796
3131.00,0.4783
3130.00,0.4770
3129.00,0.4759
3128.00,0.4747
3127.00,0.4737
3126.00,0.4726
3125.00,0.4716
3124.00,0.4707
3123.00,0.4698
3122.00,0.4690
3121.00,0.4682
3120.00,0.4674
3119.00,0.4666
3118.00,0.4660
3117.00,0.4653
3116.00,0.4647
3115.00,0.4641
3114.00,0.4636
3113.00,0.4632
3112.00,0.4629
3111.00,0.4626
3110.00,0.4624
3109.00,0.4623
3108.00,0.4622
3107.00,0.4621
3106.00,0.4621
3105.00,0.4621
3104.00,0.4622
3103.00,0.4624
3102.00,0.4625
3101.00,0.4628
3100.00,0.4630
3099.00,0.4632
3098.00,0.4635
3097.00,0.4639
3096.00,0.4643
3095.00,0.4649
3094.00,0.4658
3093.00,0.4668
3092.00,0.4681
3091.00,0.4695
3090.00,0.4710
3089.00,0.4725
3088.00,0.4742
3087.00,0.4760
3086.00,0.4778
3085.00,0.4796
3084.00,0.4816
3083.00,0.4838
3082.00,0.4861
3081.00,0.4887
3080.00,0.4914
3079.00,0.4943
3078.00,0.4974
3077.00,0.5006
3076.00,0.5039
3075.00,0.5073
3074.00,0.5109
3073.00,0.5144
3072.00,0.5180
3071.00,0.5216
3070.00,0.5251
3069.00,0.5285
3068.00,0.5318
3067.00,0.5351
3066.00,0.5382
3065.00,0.5411
3064.00,0.5437
3063.00,0.5461
3062.00,0.5483
3061.00,0.5505
3060.00,0.5526
3059.00,0.5547
3058.00,0.5568
3057.00,0.5589
3056.00,0.5612
3055.00,0.5638
3054.00,0.5666
3053.00,0.5697
3052.00,0.5729
3051.00,0.5763
3050.00,0.5800
3049.00,0.5840
3048.00,0.5883
3047.00,0.5927
3046.00,0.5971
3045.00,0.6016
3044.00,0.6061
3043.00,0.6105
3042.00,0.6149
3041.00,0.6194
3040.00,0.6238
3039.00,0.6283
3038.00,0.6328
3037.00,0.6376
3036.00,0.6425
3035.00,0.6479
3034.00,0.6536
3033.00,0.6596
3032.00,0.6661
3031.00,0.6730
3030.00,0.6803
3029.00,0.6881
3028.00,0.6963
3027.00,0.7049
3026.00,0.7141
3025.00,0.7236
3024.00,0.7336
3023.00,0.7441
3022.00,0.7550
3021.00,0.7663
3020.00,0.7780
3019.00,0.7899
3018.00,0.8020
3017.00,0.8143
3016.00,0.8268
3015.00,0.8396
3014.00,0.8529
3013.00,0.8669
3012.00,0.8815
3011.00,0.8969
3010.00,0.9129
3009.00,0.9297
3008.00,0.9473
3007.00,0.9659
3006.00,0.9855
3005.00,1.0060
3004.00,1.0274
3003.00,1.0498
3002.00,1.0730
3001.00,1.0970
3000.00,1.1220
2999.00,1.1483
2998.00,1.1763
2997.00,1.2064
2996.00,1.2389
2995.00,1.2744
2994.00,1.3135
2993.00,1.3565
2992.00,1.4038
2991.00,1.4560
2990.00,1.5139
2989.00,1.5781
2988.00,1.6490
2987.00,1.7271
2986.00,1.8130
2985.00,1.9072
2984.00,2.0108
2983.00,2.1254
2982.00,2.2522
2981.00,2.3907
2980.00,2.5380
2979.00,2.6922
2978.00,2.8552
2977.00,3.0310
2976.00,3.2278
2975.00,3.4610
2974.00,3.7559
2973.00,4.1280
2972.00,4.4582
2971.00,4.5221
2970.00,4.6036
2969.00,4.5609
2968.00,4.2280
2967.00,3.9757
2966.00,3.8564
2965.00,3.8454
2964.00,3.8780
2963.00,3.9635
2962.00,4.0956
2961.00,4.1369
2960.00,4.0531
2959.00,3.9533
2958.00,3.8878
2957.00,3.8641
2956.00,3.8912
2955.00,4.0525
2954.00,4.4091
2953.00,4.7196
2952.00,4.5232
2951.00,4.1729
2950.00,4.0401
2949.00,4.0008
2948.00,3.9576
2947.00,3.9098
2946.00,3.9017
2945.00,4.0670
2944.00,4.3368
2943.00,4.2160
2942.00,3.9789
2941.00,3.9283
2940.00,3.9899
2939.00,3.9979
2938.00,3.8944
2937.00,3.9828
2936.00,4.2858
2935.00,4.0325
2934.00,3.7615
2933.00,3.6467
2932.00,3.7432
2931.00,3.8995
2930.00,4.0710
2929.00,4.2996
2928.00,4.1351
2927.00,4.0038
2926.00,4.0038
2925.00,4.1053
2924.00,4.2555
2923.00,4.5324
2922.00,4.6096
2921.00,4.3203
2920.00,4.1596
2919.00,4.3412
2918.00,4.4076
2917.00,4.0439
2916.00,3.7977
2915.00,3.6906
2914.00,3.7188
2913.00,3.8578
2912.00,4.1712
2911.00,4.5701
2910.00,4.2878
2909.00,3.9822
2908.00,3.8480
2907.00,3.9189
2906.00,4.2004
2905.00,4.3710
2904.00,4.0890
2903.00,3.8568
2902.00,3.7930
2901.00,3.8955
2900.00,4.2198
2899.00,4.3033
2898.00,4.0218
2897.00,3.8586
2896.00,4.0066
2895.00,4.2988
2894.00,4.1350
2893.00,3.9788
2892.00,3.9027
2891.00,3.9308
2890.00,3.9396
2889.00,3.9746
2888.00,4.0973
2887.00,4.3057
2886.00,4.4300
2885.00,4.0686
2884.00,3.8070
2883.00,3.7217
2882.00,3.7868
2881.00,3.9039
2880.00,3.9785
2879.00,4.0727
2878.00,4.1463
2877.00,4.0786
2876.00,3.9672
2875.00,3.9892
2874.00,4.1545
2873.00,4.3409
2872.00,4.5098
2871.00,4.3159
2870.00,4.0730
2869.00,3.9637
2868.00,4.1121
2867.00,4.3900
2866.00,4.1662
2865.00,3.9186
2864.00,3.8105
2863.00,3.8449
2862.00,3.8934
2861.00,3.8699
2860.00,3.8230
2859.00,3.8071
2858.00,3.8317
2857.00,3.8431
2856.00,3.8653
2855.00,3.9603
2854.00,4.0386
2853.00,3.8979
2852.00,3.7190
2851.00,3.6587
2850.00,3.7343
2849.00,3.8840
2848.00,4.0049
2847.00,4.0123
2846.00,3.9770
2845.00,4.0057
2844.00,4.0925
2843.00,4.1525
2842.00,4.0938
2841.00,3.9771
2840.00,3.9134
2839.00,3.8993
2838.00,3.7666
2837.00,3.4598
2836.00,3.1568
2835.00,2.9145
2834.00,2.7124
2833.00,2.5301
2832.00,2.3619
2831.00,2.2095
2830.00,2.0741
2829.00,1.9549
2828.00,1.8497
2827.00,1.7562
2826.00,1.6721
2825.00,1.5959
2824.00,1.5271
2823.00,1.4649
2822.00,1.4083
2821.00,1.3563
2820.00,1.3082
2819.00,1.2636
2818.00,1.2220
2817.00,1.1832
2816.00,1.1473
2815.00,1.1142
2814.00,1.0836
2813.00,1.0549
2812.00,1.0277
2811.00,1.0017
2810.00,0.9771
2809.00,0.9537
2808.00,0.9316
2807.00,0.9107
2806.00,0.8910
2805.00,0.8722
2804.00,0.8544
2803.00,0.8375
2802.00,0.8213
2801.00,0.8059
2800.00,0.7913
2799.00,0.7772
2798.00,0.7639
2797.00,0.7511
2796.00,0.7388
2795.00,0.7271
2794.00,0.7157
2793.00,0.7045
2792.00,0.6936
2791.00,0.6830
2790.00,0.6726
2789.00,0.6624
2788.00,0.6525
2787.00,0.6428
2786.00,0.6333
2785.00,0.6242
2784.00,0.6153
2783.00,0.6068
2782.00,0.5985
2781.00,0.5906
2780.00,0.5829
2779.00,0.5756
2778.00,0.5687
2777.00,0.5620
2776.00,0.5557
2775.00,0.5497
2774.00,0.5441
2773.00,0.5390
2772.00,0.5342
2771.00,0.5296
2770.00,0.5252
2769.00,0.5212
2768.00,0.5175
2767.00,0.5142
2766.00,0.5114
2765.00,0.5089
2764.00,0.5068
2763.00,0.5050
2762.00,0.5033
2761.00,0.5019
2760.00,0.5005
2759.00,0.4991
2758.00,0.4978
2757.00,0.4966
2756.00,0.4954
2755.00,0.4943
2754.00,0.4934
2753.00,0.4926
2752.00,0.4920
2751.00,0.4916
2750.00,0.4913
2749.00,0.4912
2748.00,0.4914
2747.00,0.4917
2746.00,0.4923
2745.00,0.4932
2744.00,0.4944
2743.00,0.4959
2742.00,0.4977
2741.00,0.4998
2740.00,0.5024
2739.00,0.5055
2738.00,0.5092
2737.00,0.5134
2736.00,0.5181
2735.00,0.5232
2734.00,0.5286
2733.00,0.5338
2732.00,0.5388
2731.00,0.5430
2730.00,0.5463
2729.00,0.5484
2728.00,0.5495
2727.00,0.5496
2726.00,0.5490
2725.00,0.5478
2724.00,0.5462
2723.00,0.5440
2722.00,0.5415
2721.00,0.5386
2720.00,0.5353
2719.00,0.5315
2718.00,0.5273
2717.00,0.5227
2716.00,0.5177
2715.00,0.5127
2714.00,0.5077
2713.00,0.5029
2712.00,0.4984
2711.00,0.4942
2710.00,0.4905
2709.00,0.4872
2708.00,0.4844
2707.00,0.4820
2706.00,0.4799
2705.00,0.4781
2704.00,0.4767
2703.00,0.4756
2702.00,0.4747
2701.00,0.4740
2700.00,0.4735
2699.00,0.4732
2698.00,0.4731
2697.00,0.4732
2696.00,0.4735
2695.00,0.4739
2694.00,0.4744
2693.00,0.4750
2692.00,0.4756
2691.00,0.4763
2690.00,0.4770
2689.00,0.4776
2688.00,0.4781
2687.00,0.4785
2686.00,0.4789
2685.00,0.4793
2684.00,0.4797
2683.00,0.4801
2682.00,0.4805
2681.00,0.4809
2680.00,0.4812
2679.00,0.4815
2678.00,0.4819
2677.00,0.4824
2676.00,0.4831
2675.00,0.4838
2674.00,0.4845
2673.00,0.4853
2672.00,0.4858
2671.00,0.4861
2670.00,0.4862
2669.00,0.4859
2668.00,0.4852
2667.00,0.4843
2666.00,0.4831
2665.00,0.4818
2664.00,0.4802
2663.00,0.4785
2662.00,0.4766
2661.00,0.4745
2660.00,0.4724
2659.00,0.4702
2658.00,0.4680
2657.00,0.4658
2656.00,0.4637
2655.00,0.4616
2654.00,0.4596
2653.00,0.4578
2652.00,0.4560
2651.00,0.4542
2650.00,0.4525
2649.00,0.4508
2648.00,0.4491
2647.00,0.4475
2646.00,0.4460
2645.00,0.4445
2644.00,0.4432
2643.00,0.4420
2642.00,0.4409
2641.00,0.4399
2640.00,0.4389
2639.00,0.4380
2638.00,0.4371
2637.00,0.4361
2636.00,0.4352
2635.00,0.4343
2634.00,0.4334
2633.00,0.4326
2632.00,0.4317
2631.00,0.4308
2630.00,0.4298
2629.00,0.4287
2628.00,0.4277
2627.00,0.4266
2626.00,0.4256
2625.00,0.4246
2624.00,0.4236
2623.00,0.4226
2622.00,0.4216
2621.00,0.4207
2620.00,0.4198
2619.00,0.4189
2618.00,0.4179
2617.00,0.4170
2616.00,0.4160
2615.00,0.4149
2614.00,0.4138
2613.00,0.4126
2612.00,0.4114
2611.00,0.4103
2610.00,0.4091
2609.00,0.4079
2608.00,0.4068
2607.00,0.4058
2606.00,0.4047
2605.00,0.4037
2604.00,0.4027
2603.00,0.4016
2602.00,0.4005
2601.00,0.3994
2600.00,0.3982
2599.00,0.3970
2598.00,0.3957
2597.00,0.3942
2596.00,0.3927
2595.00,0.3911
2594.00,0.3895
2593.00,0.3878
2592.00,0.3861
2591.00,0.3844
2590.00,0.3827
2589.00,0.3809
2588.00,0.3791
2587.00,0.3774
2586.00,0.3756
2585.00,0.3739
2584.00,0.3721
2583.00,0.3703
2582.00,0.3684
2581.00,0.3665
2580.00,0.3645
2579.00,0.3626
2578.00,0.3607
2577.00,0.3589
2576.00,0.3571
2575.00,0.3554
2574.00,0.3538
2573.00,0.3522
2572.00,0.3506
2571.00,0.3491
2570.00,0.3476
2569.00,0.3462
2568.00,0.3448
2567.00,0.3434
2566.00,0.3420
2565.00,0.3405
2564.00,0.3390
2563.00,0.3376
2562.00,0.3361
2561.00,0.3348
2560.00,0.3334
2559.00,0.3321
2558.00,0.3309
2557.00,0.3297
2556.00,0.3284
2555.00,0.3272
2554.00,0.3260
2553.00,0.3248
2552.00,0.3236
2551.00,0.3225
2550.00,0.3214
2549.00,0.3203
2548.00,0.3193
2547.00,0.3183
2546.00,0.3173
2545.00,0.3163
2544.00,0.3154
2543.00,0.3145
2542.00,0.3136
2541.00,0.3128
2540.00,0.3121
2539.00,0.3113
2538.00,0.3105
2537.00,0.3098
2536.00,0.3091
2535.00,0.3084
2534.00,0.3077
2533.00,0.3071
2532.00,0.3064
2531.00,0.3056
2530.00,0.3048
2529.00,0.3040
2528.00,0.3032
2527.00,0.3023
2526.00,0.3014
2525.00,0.3005
2524.00,0.2995
2523.00,0.2985
2522.00,0.2976
2521.00,0.2966
2520.00,0.2957
2519.00,0.2948
2518.00,0.2939
2517.00,0.2930
2516.00,0.2923
2515.00,0.2915
2514.00,0.2908
2513.00,0.2900
2512.00,0.2893
2511.00,0.2886
2510.00,0.2879
2509.00,0.2874
2508.00,0.2868
2507.00,0.2862
2506.00,0.2857
2505.00,0.2852
2504.00,0.2847
2503.00,0.2843
2502.00,0.2840
2501.00,0.2836
2500.00,0.2833
2499.00,0.2829
2498.00,0.2826
2497.00,0.2823
2496.00,0.2820
2495.00,0.2817
2494.00,0.2814
2493.00,0.2811
2492.00,0.2808
2491.00,0.2805
2490.00,0.2802
2489.00,0.2798
2488.00,0.2795
2487.00,0.2792
2486.00,0.2788
2485.00,0.2785
2484.00,0.2782
2483.00,0.2778
2482.00,0.2775
2481.00,0.2772
2480.00,0.2768
2479.00,0.2765
2478.00,0.2761
2477.00,0.2758
2476.00,0.2755
2475.00,0.2752
2474.00,0.2748
2473.00,0.2745
2472.00,0.2742
2471.00,0.2739
2470.00,0.2736
2469.00,0.2734
2468.00,0.2731
2467.00,0.2728
2466.00,0.2725
2465.00,0.2721
2464.00,0.2718
2463.00,0.2714
2462.00,0.2711
2461.00,0.2708
2460.00,0.2706
2459.00,0.2704
2458.00,0.2701
2457.00,0.2699
2456.00,0.2697
2455.00,0.2696
2454.00,0.2695
2453.00,0.2693
2452.00,0.2692
2451.00,0.2692
2450.00,0.2691
2449.00,0.2691
2448.00,0.2691
2447.00,0.2691
2446.00,0.2692
2445.00,0.2692
2444.00,0.2693
2443.00,0.2693
2442.00,0.2693
2441.00,0.2694
2440.00,0.2695
2439.00,0.2696
2438.00,0.2698
2437.00,0.2699
2436.00,0.2700
2435.00,0.2700
2434.00,0.2701
2433.00,0.2701
2432.00,0.2702
2431.00,0.2704
2430.00,0.2705
2429.00,0.2706
2428.00,0.2707
2427.00,0.2708
2426.00,0.2708
2425.00,0.2709
2424.00,0.2710
2423.00,0.2710
2422.00,0.2711
2421.00,0.2711
2420.00,0.2712
2419.00,0.2712
2418.00,0.2713
2417.00,0.2713
2416.00,0.2714
2415.00,0.2714
2414.00,0.2715
2413.00,0.2716
2412.00,0.2716
2411.00,0.2717
2410.00,0.2717
2409.00,0.2717
2408.00,0.2717
2407.00,0.2717
2406.00,0.2716
2405.00,0.2716
2404.00,0.2716
2403.00,0.2715
2402.00,0.2714
2401.00,0.2713
2400.00,0.2712
2399.00,0.2711
2398.00,0.2711
2397.00,0.2710
2396.00,0.2709
2395.00,0.2708
2394.00,0.2707
2393.00,0.2706
2392.00,0.2704
2391.00,0.2703
2390.00,0.2702
2389.00,0.2702
2388.00,0.2702
2387.00,0.2701
2386.00,0.2700
2385.00,0.2700
2384.00,0.2699
2383.00,0.2699
2382.00,0.2700
2381.00,0.2700
2380.00,0.2701
2379.00,0.2702
2378.00,0.2702
2377.00,0.2702
2376.00,0.2702
2375.00,0.2702
2374.00,0.2701
2373.00,0.2699
2372.00,0.2698
2371.00,0.2697
2370.00,0.2696
2369.00,0.2695
2368.00,0.2694
2367.00,0.2693
2366.00,0.2693
2365.00,0.2693
2364.00,0.2693
2363.00,0.2694
2362.00,0.2694
2361.00,0.2694
2360.00,0.2694
2359.00,0.2694
2358.00,0.2693
2357.00,0.2693
2356.00,0.2692
2355.00,0.2691
2354.00,0.2690
2353.00,0.2690
2352.00,0.2690
2351.00,0.2689
2350.00,0.2688
2349.00,0.2687
2348.00,0.2687
2347.00,0.2686
2346.00,0.2685
2345.00,0.2684
2344.00,0.2683
2343.00,0.2682
2342.00,0.2681
2341.00,0.2680
2340.00,0.2679
2339.00,0.2678
2338.00,0.2678
2337.00,0.2678
2336.00,0.2677
2335.00,0.2676
2334.00,0.2675
2333.00,0.2674
2332.00,0.2673
2331.00,0.2671
2330.00,0.2668
2329.00,0.2666
2328.00,0.2664
2327.00,0.2662
2326.00,0.2661
2325.00,0.2659
2324.00,0.2658
2323.00,0.2655
2322.00,0.2652
2321.00,0.2648
2320.00,0.2645
2319.00,0.2642
2318.00,0.2640
2317.00,0.2637
2316.00,0.2635
2315.00,0.2632
2314.00,0.2629
2313.00,0.2626
2312.00,0.2623
2311.00,0.2621
2310.00,0.2618
2309.00,0.2615
2308.00,0.2611
2307.00,0.2608
2306.00,0.2605
2305.00,0.2603
2304.00,0.2601
2303.00,0.2599
2302.00,0.2596
2301.00,0.2594
2300.00,0.2592
2299.00,0.2589
2298.00,0.2587
2297.00,0.2585
2296.00,0.2583
2295.00,0.2581
2294.00,0.2578
2293.00,0.2576
2292.00,0.2574
2291.00,0.2571
2290.00,0.2568
2289.00,0.2565
2288.00,0.2563
2287.00,0.2560
2286.00,0.2557
2285.00,0.2555
2284.00,0.2552
2283.00,0.2549
2282.00,0.2547
2281.00,0.2543
2280.00,0.2540
2279.00,0.2536
2278.00,0.2532
2277.00,0.2529
2276.00,0.2525
2275.00,0.2522
2274.00,0.2519
2273.00,0.2517
2272.00,0.2515
2271.00,0.2513
2270.00,0.2511
2269.00,0.2510
2268.00,0.2508
2267.00,0.2507
2266.00,0.2506
2265.00,0.2504
2264.00,0.2503
2263.00,0.2500
2262.00,0.2498
2261.00,0.2496
2260.00,0.2494
2259.00,0.2492
2258.00,0.2490
2257.00,0.2487
2256.00,0.2485
2255.00,0.2482
2254.00,0.2478
2253.00,0.2476
2252.00,0.2473
2251.00,0.2470
2250.00,0.2468
2249.00,0.2465
2248.00,0.2463
2247.00,0.2461
2246.00,0.2458
2245.00,0.2456
2244.00,0.2454
2243.00,0.2451
2242.00,0.2448
2241.00,0.2446
2240.00,0.2445
2239.00,0.2443
2238.00,0.2442
2237.00,0.2440
2236.00,0.2439
2235.00,0.2438
2234.00,0.2437
2233.00,0.2436
2232.00,0.2435
2231.00,0.2434
2230.00,0.2433
2229.00,0.2433
2228.00,0.2432
2227.00,0.2431
2226.00,0.2429
2225.00,0.2428
2224.00,0.2427
2223.00,0.2426
2222.00,0.2424
2221.00,0.2423
2220.00,0.2421
2219.00,0.2420
2218.00,0.2419
2217.00,0.2419
2216.00,0.2418
2215.00,0.2418
2214.00,0.2417
2213.00,0.2417
2212.00,0.2416
2211.00,0.2416
2210.00,0.2415
2209.00,0.2415
2208.00,0.2415
2207.00,0.2414
2206.00,0.2414
2205.00,0.2414
2204.00,0.2414
2203.00,0.2413
2202.00,0.2413
2201.00,0.2413
2200.00,0.2413
2199.00,0.2413
2198.00,0.2414
2197.00,0.2414
2196.00,0.2415
2195.00,0.2415
2194.00,0.2415
2193.00,0.2415
2192.00,0.2415
2191.00,0.2414
2190.00,0.2414
2189.00,0.2414
2188.00,0.2413
2187.00,0.2413
2186.00,0.2412
2185.00,0.2411
2184.00,0.2410
2183.00,0.2410
2182.00,0.2409
2181.00,0.2408
2180.00,0.2407
2179.00,0.2406
2178.00,0.2405
2177.00,0.2404
2176.00,0.2403
2175.00,0.2402
2174.00,0.2401
2173.00,0.2400
2172.00,0.2399
2171.00,0.2399
2170.00,0.2399
2169.00,0.2398
2168.00,0.2397
2167.00,0.2396
2166.00,0.2394
2165.00,0.2393
2164.00,0.2391
2163.00,0.2390
2162.00,0.2388
2161.00,0.2386
2160.00,0.2385
2159.00,0.2384
2158.00,0.2382
2157.00,0.2380
2156.00,0.2378
2155.00,0.2375
2154.00,0.2372
2153.00,0.2371
2152.00,0.2370
2151.00,0.2368
2150.00,0.2365
2149.00,0.2362
2148.00,0.2359
2147.00,0.2355
2146.00,0.2351
2145.00,0.2346
2144.00,0.2342
2143.00,0.2338
2142.00,0.2333
2141.00,0.2330
2140.00,0.2327
2139.00,0.2324
2138.00,0.2321
2137.00,0.2319
2136.00,0.2317
2135.00,0.2316
2134.00,0.2314
2133.00,0.2313
2132.00,0.2311
2131.00,0.2309
2130.00,0.2306
2129.00,0.2305
2128.00,0.2303
2127.00,0.2301
2126.00,0.2300
2125.00,0.2299
2124.00,0.2297
2123.00,0.2296
2122.00,0.2294
2121.00,0.2292
2120.00,0.2290
2119.00,0.2289
2118.00,0.2287
2117.00,0.2285
2116.00,0.2283
2115.00,0.2282
2114.00,0.2280
2113.00,0.2279
2112.00,0.2278
2111.00,0.2277
2110.00,0.2275
2109.00,0.2274
2108.00,0.2273
2107.00,0.2272
2106.00,0.2271
2105.00,0.2272
2104.00,0.2272
2103.00,0.2272
2102.00,0.2272
2101.00,0.2272
2100.00,0.2272
2099.00,0.2272
2098.00,0.2273
2097.00,0.2273
2096.00,0.2273
2095.00,0.2273
2094.00,0.2273
2093.00,0.2273
2092.00,0.2272
2091.00,0.2272
2090.00,0.2271
2089.00,0.2271
2088.00,0.2271
2087.00,0.2270
2086.00,0.2270
2085.00,0.2270
2084.00,0.2269
2083.00,0.2268
2082.00,0.2266
2081.00,0.2265
2080.00,0.2264
2079.00,0.2262
2078.00,0.2261
2077.00,0.2260
2076.00,0.2259
2075.00,0.2259
2074.00,0.2258
2073.00,0.2258
2072.00,0.2258
2071.00,0.2258
2070.00,0.2258
2069.00,0.2259
2068.00,0.2259
2067.00,0.2259
2066.00,0.2260
2065.00,0.2262
2064.00,0.2265
2063.00,0.2267
2062.00,0.2269
2061.00,0.2270
2060.00,0.2272
2059.00,0.2274
2058.00,0.2275
2057.00,0.2276
2056.00,0.2277
2055.00,0.2278
2054.00,0.2279
2053.00,0.2280
2052.00,0.2281
2051.00,0.2282
2050.00,0.2283
2049.00,0.2284
2048.00,0.2284
2047.00,0.2285
2046.00,0.2285
2045.00,0.2285
2044.00,0.2285
2043.00,0.2285
2042.00,0.2285
2041.00,0.2286
2040.00,0.2288
2039.00,0.2289
2038.00,0.2290
2037.00,0.2290
2036.00,0.2290
2035.00,0.2290
2034.00,0.2290
2033.00,0.2291
2032.00,0.2292
2031.00,0.2293
2030.00,0.2294
2029.00,0.2295
2028.00,0.2297
2027.00,0.2297
2026.00,0.2297
2025.00,0.2297
2024.00,0.2296
2023.00,0.2294
2022.00,0.2292
2021.00,0.2288
2020.00,0.2283
2019.00,0.2277
2018.00,0.2271
2017.00,0.2266
2016.00,0.2262
2015.00,0.2258
2014.00,0.2253
2013.00,0.2248
2012.00,0.2242
2011.00,0.2236
2010.00,0.2230
2009.00,0.2225
2008.00,0.2221
2007.00,0.2218
2006.00,0.2214
2005.00,0.2211
2004.00,0.2209
2003.00,0.2206
2002.00,0.2204
2001.00,0.2203
2000.00,0.2202
1999.00,0.2201
1998.00,0.2200
1997.00,0.2200
1996.00,0.2199
1995.00,0.2196
1994.00,0.2199
1993.00,0.2200
1992.00,0.2200
1991.00,0.2201
1990.00,0.2195
1989.00,0.2196
1988.00,0.2197
1987.00,0.2198
1986.00,0.2198
1985.00,0.2198
1984.00,0.2198
1983.00,0.2197
1982.00,0.2197
1981.00,0.2196
1980.00,0.2195
1979.00,0.2194
1978.00,0.2193
1977.00,0.2192
1976.00,0.2191
1975.00,0.2191
1974.00,0.2190
1973.00,0.2190
1972.00,0.2189
1971.00,0.2189
1970.00,0.2188
1969.00,0.2188
1968.00,0.2188
1967.00,0.2188
1966.00,0.2188
1965.00,0.2185
1964.00,0.2186
1963.00,0.2187
1962.00,0.2187
1961.00,0.2188
1960.00,0.2189
1959.00,0.2190
1958.00,0.2191
1957.00,0.2193
1956.00,0.2196
1955.00,0.2198
1954.00,0.2200
1953.00,0.2202
1952.00,0.2204
1951.00,0.2205
1950.00,0.2205
1949.00,0.2206
1948.00,0.2206
1947.00,0.2205
1946.00,0.2204
1945.00,0.2204
1944.00,0.2204
1943.00,0.2206
1942.00,0.2212
1941.00,0.2220
1940.00,0.2226
1939.00,0.2230
1938.00,0.2231
1937.00,0.2230
1936.00,0.2230
1935.00,0.2228
1934.00,0.2226
1933.00,0.2225
1932.00,0.2225
1931.00,0.2225
1930.00,0.2226
1929.00,0.2227
1928.00,0.2227
1927.00,0.2227
1926.00,0.2226
1925.00,0.2224
1924.00,0.2223
1923.00,0.2227
1922.00,0.2235
1921.00,0.2244
1920.00,0.2252
1919.00,0.2259
1918.00,0.2264
1917.00,0.2269
1916.00,0.2273
1915.00,0.2274
1914.00,0.2273
1913.00,0.2272
1912.00,0.2269
1911.00,0.2266
1910.00,0.2265
1909.00,0.2265
1908.00,0.2268
1907.00,0.2270
1906.00,0.2271
1905.00,0.2271
1904.00,0.2271
1903.00,0.2271
1902.00,0.2271
1901.00,0.2272
1900.00,0.2273
1899.00,0.2273
1898.00,0.2273
1897.00,0.2274
1896.00,0.2276
1895.00,0.2278
1894.00,0.2275
1893.00,0.2277
1892.00,0.2278
1891.00,0.2276
1890.00,0.2277
1889.00,0.2280
1888.00,0.2284
1887.00,0.2286
1886.00,0.2287
1885.00,0.2289
1884.00,0.2291
1883.00,0.2293
1882.00,0.2295
1881.00,0.2296
1880.00,0.2298
1879.00,0.2298
1878.00,0.2299
1877.00,0.2300
1876.00,0.2301
1875.00,0.2301
1874.00,0.2301
1873.00,0.2300
1872.00,0.2299
1871.00,0.2296
1870.00,0.2295
1869.00,0.2294
1868.00,0.2293
1867.00,0.2290
1866.00,0.2288
1865.00,0.2278
1864.00,0.2276
1863.00,0.2273
1862.00,0.2268
1861.00,0.2265
1860.00,0.2261
1859.00,0.2259
1858.00,0.2257
1857.00,0.2255
1856.00,0.2254
1855.00,0.2252
1854.00,0.2250
1853.00,0.2249
1852.00,0.2248
1851.00,0.2245
1850.00,0.2241
1849.00,0.2237
1848.00,0.2236
1847.00,0.2237
1846.00,0.2238
1845.00,0.2240
1844.00,0.2241
1843.00,0.2242
1842.00,0.2243
1841.00,0.2243
1840.00,0.2241
1839.00,0.2238
1838.00,0.2235
1837.00,0.2235
1836.00,0.2235
1835.00,0.2236
1834.00,0.2235
1833.00,0.2233
1832.00,0.2230
1831.00,0.2224
1830.00,0.2221
1829.00,0.2222
1828.00,0.2224
1827.00,0.2223
1826.00,0.2221
1825.00,0.2221
1824.00,0.2223
1823.00,0.2226
1822.00,0.2227
1821.00,0.2227
1820.00,0.2227
1819.00,0.2226
1818.00,0.2226
1817.00,0.2228
1816.00,0.2231
1815.00,0.2231
1814.00,0.2230
1813.00,0.2228
1812.00,0.2228
1811.00,0.2229
1810.00,0.2234
1809.00,0.2239
1808.00,0.2245
1807.00,0.2250
1806.00,0.2254
1805.00,0.2256
1804.00,0.2258
1803.00,0.2258
1802.00,0.2260
1801.00,0.2264
1800.00,0.2271
1799.00,0.2276
1798.00,0.2279
1797.00,0.2281
1796.00,0.2285
1795.00,0.2290
1794.00,0.2294
1793.00,0.2297
1792.00,0.2302
1791.00,0.2309
1790.00,0.2317
1789.00,0.2324
1788.00,0.2330
1787.00,0.2334
1786.00,0.2337
1785.00,0.2340
1784.00,0.2344
1783.00,0.2346
1782.00,0.2347
1781.00,0.2350
1780.00,0.2357
1779.00,0.2364
1778.00,0.2371
1777.00,0.2375
1776.00,0.2379
1775.00,0.2383
1774.00,0.2387
1773.00,0.2392
1772.00,0.2401
1771.00,0.2412
1770.00,0.2420
1769.00,0.2427
1768.00,0.2434
1767.00,0.2441
1766.00,0.2448
1765.00,0.2454
1764.00,0.2460
1763.00,0.2465
1762.00,0.2472
1761.00,0.2481
1760.00,0.2490
1759.00,0.2499
1758.00,0.2510
1757.00,0.2524
1756.00,0.2541
1755.00,0.2557
1754.00,0.2571
1753.00,0.2585
1752.00,0.2600
1751.00,0.2618
1750.00,0.2643
1749.00,0.2677
1748.00,0.2719
1747.00,0.2765
1746.00,0.2814
1745.00,0.2866
1744.00,0.2926
1743.00,0.2991
1742.00,0.3060
1741.00,0.3129
1740.00,0.3195
1739.00,0.3254
1738.00,0.3305
1737.00,0.3348
1736.00,0.3384
1735.00,0.3408
1734.00,0.3424
1733.00,0.3432
1732.00,0.3433
1731.00,0.3426
1730.00,0.3414
1729.00,0.3400
1728.00,0.3381
1727.00,0.3357
1726.00,0.3331
1725.00,0.3303
1724.00,0.3278
1723.00,0.3254
1722.00,0.3235
1721.00,0.3218
1720.00,0.3197
1719.00,0.3168
1718.00,0.3141
1717.00,0.3128
1716.00,0.3129
1715.00,0.3133
1714.00,0.3135
1713.00,0.3136
1712.00,0.3137
1711.00,0.3136
1710.00,0.3137
1709.00,0.3139
1708.00,0.3142
1707.00,0.3138
1706.00,0.3159
1705.00,0.3165
1704.00,0.3161
1703.00,0.3154
1702.00,0.3142
1701.00,0.3130
1700.00,0.3116
1699.00,0.3103
1698.00,0.3087
1697.00,0.3081
1696.00,0.3051
1695.00,0.3049
1694.00,0.3055
1693.00,0.3055
1692.00,0.3056
1691.00,0.3054
1690.00,0.3055
1689.00,0.3060
1688.00,0.3069
1687.00,0.3078
1686.00,0.3086
1685.00,0.3094
1684.00,0.3113
1683.00,0.3134
1682.00,0.3146
1681.00,0.3156
1680.00,0.3171
1679.00,0.3190
1678.00,0.3212
1677.00,0.3234
1676.00,0.3253
1675.00,0.3265
1674.00,0.3274
1673.00,0.3282
1672.00,0.3293
1671.00,0.3306
1670.00,0.3323
1669.00,0.3346
1668.00,0.3367
1667.00,0.3385
1666.00,0.3400
1665.00,0.3417
1664.00,0.3435
1663.00,0.3452
1662.00,0.3470
1661.00,0.3490
1660.00,0.3508
1659.00,0.3525
1658.00,0.3540
1657.00,0.3557
1656.00,0.3575
1655.00,0.3591
1654.00,0.3609
1653.00,0.3643
1652.00,0.3673
1651.00,0.3686
1650.00,0.3694
1649.00,0.3703
1648.00,0.3717
1647.00,0.3744
1646.00,0.3779
1645.00,0.3811
1644.00,0.3835
1643.00,0.3856
1642.00,0.3877
1641.00,0.3901
1640.00,0.3926
1639.00,0.3949
1638.00,0.3972
1637.00,0.4002
1636.00,0.4047
1635.00,0.4094
1634.00,0.4130
1633.00,0.4157
1632.00,0.4184
1631.00,0.4212
1630.00,0.4240
1629.00,0.4272
1628.00,0.4308
1627.00,0.4347
1626.00,0.4386
1625.00,0.4430
1624.00,0.4481
1623.00,0.4541
1622.00,0.4606
1621.00,0.4675
1620.00,0.4747
1619.00,0.4825
1618.00,0.4919
1617.00,0.5040
1616.00,0.5180
1615.00,0.5312
1614.00,0.5430
1613.00,0.5547
1612.00,0.5671
1611.00,0.5797
1610.00,0.5919
1609.00,0.6043
1608.00,0.6167
1607.00,0.6283
1606.00,0.6386
1605.00,0.6483
1604.00,0.6577
1603.00,0.6666
1602.00,0.6749
1601.00,0.6837
1600.00,0.6935
1599.00,0.7041
1598.00,0.7156
1597.00,0.7299
1596.00,0.7480
1595.00,0.7701
1594.00,0.7969
1593.00,0.8307
1592.00,0.8742
1591.00,0.9287
1590.00,0.9968
1589.00,1.0844
1588.00,1.1983
1587.00,1.3434
1586.00,1.5239
1585.00,1.7510
1584.00,2.0478
1583.00,2.4289
1582.00,2.8425
1581.00,3.2060
1580.00,3.6397
1579.00,3.4225
1578.00,2.7377
1577.00,2.2960
1576.00,1.9763
1575.00,1.7271
1574.00,1.5384
1573.00,1.3973
1572.00,1.2862
1571.00,1.1924
1570.00,1.1165
1569.00,1.0664
1568.00,1.0449
1567.00,1.0490
1566.00,1.0778
1565.00,1.1348
1564.00,1.2203
1563.00,1.3254
1562.00,1.4370
1561.00,1.5442
1560.00,1.6066
1559.00,1.5410
1558.00,1.3849
1557.00,1.2345
1556.00,1.1036
1555.00,0.9820
1554.00,0.8745
1553.00,0.7894
1552.00,0.7251
1551.00,0.6740
1550.00,0.6318
1549.00,0.5982
1548.00,0.5727
1547.00,0.5523
1546.00,0.5345
1545.00,0.5190
1544.00,0.5070
1543.00,0.4978
1542.00,0.4895
1541.00,0.4815
1540.00,0.4749
1539.00,0.4688
1538.00,0.4626
1537.00,0.4570
1536.00,0.4521
1535.00,0.4469
1534.00,0.4418
1533.00,0.4384
1532.00,0.4373
1531.00,0.4373
1530.00,0.4378
1529.00,0.4385
1528.00,0.4387
1527.00,0.4377
1526.00,0.4354
1525.00,0.4324
1524.00,0.4291
1523.00,0.4256
1522.00,0.4228
1521.00,0.4219
1520.00,0.4226
1519.00,0.4238
1518.00,0.4255
1517.00,0.4289
1516.00,0.4338
1515.00,0.4387
1514.00,0.4428
1513.00,0.4464
1512.00,0.4497
1511.00,0.4526
1510.00,0.4557
1509.00,0.4599
1508.00,0.4671
1507.00,0.4799
1506.00,0.4961
1505.00,0.5099
1504.00,0.5206
1503.00,0.5296
1502.00,0.5384
1501.00,0.5478
1500.00,0.5576
1499.00,0.5673
1498.00,0.5781
1497.00,0.5914
1496.00,0.6068
1495.00,0.6221
1494.00,0.6366
1493.00,0.6514
1492.00,0.6669
1491.00,0.6838
1490.00,0.7031
1489.00,0.7261
1488.00,0.7517
1487.00,0.7794
1486.00,0.8099
1485.00,0.8445
1484.00,0.8833
1483.00,0.9269
1482.00,0.9775
1481.00,1.0363
1480.00,1.1014
1479.00,1.1714
1478.00,1.2500
1477.00,1.3431
1476.00,1.4527
1475.00,1.5792
1474.00,1.7330
1473.00,1.9362
1472.00,2.2019
1471.00,2.5156
1470.00,2.8606
1469.00,3.2637
1468.00,3.6680
1467.00,3.7095
1466.00,3.6811
1465.00,3.9762
1464.00,4.6363
1463.00,4.2308
1462.00,4.1934
1461.00,4.0383
1460.00,3.6743
1459.00,3.6568
1458.00,3.6180
1457.00,3.4596
1456.00,3.4708
1455.00,3.7532
1454.00,4.1479
1453.00,3.9541
1452.00,4.1112
1451.00,3.9089
1450.00,3.5039
1449.00,3.4839
1448.00,3.4870
1447.00,3.3489
1446.00,3.2159
1445.00,3.0813
1444.00,2.8867
1443.00,2.6759
1442.00,2.5065
1441.00,2.3698
1440.00,2.2397
1439.00,2.1072
1438.00,1.9736
1437.00,1.8389
1436.00,1.7093
1435.00,1.5947
1434.00,1.4959
1433.00,1.4057
1432.00,1.3196
1431.00,1.2388
1430.00,1.1672
1429.00,1.1065
1428.00,1.0568
1427.00,1.0170
1426.00,0.9847
1425.00,0.9576
1424.00,0.9355
1423.00,0.9191
1422.00,0.9071
1421.00,0.8972
1420.00,0.8876
1419.00,0.8789
1418.00,0.8720
1417.00,0.8669
1416.00,0.8632
1415.00,0.8609
1414.00,0.8597
1413.00,0.8597
1412.00,0.8609
1411.00,0.8634
1410.00,0.8662
1409.00,0.8674
1408.00,0.8651
1407.00,0.8577
1406.00,0.8440
1405.00,0.8240
1404.00,0.7997
1403.00,0.7739
1402.00,0.7490
1401.00,0.7258
1400.00,0.7056
1399.00,0.6897
1398.00,0.6789
1397.00,0.6722
1396.00,0.6692
1395.00,0.6701
1394.00,0.6756
1393.00,0.6866
1392.00,0.7050
1391.00,0.7335
1390.00,0.7746
1389.00,0.8313
1388.00,0.9070
1387.00,1.0023
1386.00,1.1114
1385.00,1.2260
1384.00,1.3425
1383.00,1.4626
1382.00,1.5899
1381.00,1.7295
1380.00,1.8866
1379.00,2.0527
1378.00,2.1896
1377.00,2.2450
1376.00,2.1982
1375.00,2.0710
1374.00,1.9072
1373.00,1.7491
1372.00,1.6171
1371.00,1.5148
1370.00,1.4409
1369.00,1.3934
1368.00,1.3660
1367.00,1.3448
1366.00,1.3121
1365.00,1.2562
1364.00,1.1793
1363.00,1.0949
1362.00,1.0178
1361.00,0.9557
1360.00,0.9087
1359.00,0.8740
1358.00,0.8488
1357.00,0.8311
1356.00,0.8196
1355.00,0.8133
1354.00,0.8108
1353.00,0.8107
1352.00,0.8121
1351.00,0.8138
1350.00,0.8156
1349.00,0.8170
1348.00,0.8182
1347.00,0.8192
1346.00,0.8198
1345.00,0.8197
1344.00,0.8182
1343.00,0.8148
1342.00,0.8093
1341.00,0.8014
1340.00,0.7914
1339.00,0.7798
1338.00,0.7669
1337.00,0.7527
1336.00,0.7375
1335.00,0.7220
1334.00,0.7065
1333.00,0.6914
1332.00,0.6772
1331.00,0.6641
1330.00,0.6526
1329.00,0.6430
1328.00,0.6357
1327.00,0.6306
1326.00,0.6275
1325.00,0.6259
1324.00,0.6256
1323.00,0.6261
1322.00,0.6275
1321.00,0.6293
1320.00,0.6313
1319.00,0.6333
1318.00,0.6348
1317.00,0.6356
1316.00,0.6358
1315.00,0.6361
1314.00,0.6373
1313.00,0.6398
1312.00,0.6434
1311.00,0.6477
1310.00,0.6519
1309.00,0.6558
1308.00,0.6594
1307.00,0.6626
1306.00,0.6653
1305.00,0.6668
1304.00,0.6667
1303.00,0.6651
1302.00,0.6621
1301.00,0.6584
1300.00,0.6537
1299.00,0.6480
1298.00,0.6412
1297.00,0.6336
1296.00,0.6260
1295.00,0.6193
1294.00,0.6136
1293.00,0.6087
1292.00,0.6045
1291.00,0.6006
1290.00,0.5970
1289.00,0.5938
1288.00,0.5910
1287.00,0.5889
1286.00,0.5869
1285.00,0.5847
1284.00,0.5824
1283.00,0.5800
1282.00,0.5776
1281.00,0.5752
1280.00,0.5728
1279.00,0.5704
1278.00,0.5679
1277.00,0.5651
1276.00,0.5623
1275.00,0.5597
1274.00,0.5577
1273.00,0.5564
1272.00,0.5562
1271.00,0.5573
1270.00,0.5597
1269.00,0.5626
1268.00,0.5648
1267.00,0.5650
1266.00,0.5624
1265.00,0.5574
1264.00,0.5513
1263.00,0.5456
1262.00,0.5414
1261.00,0.5389
1260.00,0.5377
1259.00,0.5371
1258.00,0.5366
1257.00,0.5358
1256.00,0.5348
1255.00,0.5340
1254.00,0.5336
1253.00,0.5338
1252.00,0.5346
1251.00,0.5360
1250.00,0.5375
1249.00,0.5389
1248.00,0.5400
1247.00,0.5408
1246.00,0.5410
1245.00,0.5401
1244.00,0.5381
1243.00,0.5353
1242.00,0.5322
1241.00,0.5292
1240.00,0.5262
1239.00,0.5234
1238.00,0.5209
1237.00,0.5186
1236.00,0.5167
1235.00,0.5155
1234.00,0.5151
1233.00,0.5158
1232.00,0.5177
1231.00,0.5207
1230.00,0.5243
1229.00,0.5275
1228.00,0.5292
1227.00,0.5287
1226.00,0.5257
1225.00,0.5207
1224.00,0.5150
1223.00,0.5097
1222.00,0.5055
1221.00,0.5025
1220.00,0.5004
1219.00,0.4993
1218.00,0.4990
1217.00,0.4995
1216.00,0.5008
1215.00,0.5029
1214.00,0.5055
1213.00,0.5076
1212.00,0.5086
1211.00,0.5079
1210.00,0.5060
1209.00,0.5037
1208.00,0.5018
1207.00,0.5006
1206.00,0.5002
1205.00,0.5003
1204.00,0.5007
1203.00,0.5011
1202.00,0.5015
1201.00,0.5016
1200.00,0.5015
1199.00,0.5013
1198.00,0.5007
1197.00,0.4994
1196.00,0.4974
1195.00,0.4949
1194.00,0.4922
1193.00,0.4894
1192.00,0.4868
1191.00,0.4846
1190.00,0.4829
1189.00,0.4816
1188.00,0.4809
1187.00,0.4806
1186.00,0.4804
1185.00,0.4801
1184.00,0.4797
1183.00,0.4794
1182.00,0.4795
1181.00,0.4800
1180.00,0.4810
1179.00,0.4826
1178.00,0.4846
1177.00,0.4869
1176.00,0.4897
1175.00,0.4932
1174.00,0.4977
1173.00,0.5031
1172.00,0.5090
1171.00,0.5146
1170.00,0.5190
1169.00,0.5218
1168.00,0.5229
1167.00,0.5229
1166.00,0.5224
1165.00,0.5221
1164.00,0.5225
1163.00,0.5238
1162.00,0.5259
1161.00,0.5285
1160.00,0.5312
1159.00,0.5340
1158.00,0.5364
1157.00,0.5382
1156.00,0.5393
1155.00,0.5396
1154.00,0.5390
1153.00,0.5375
1152.00,0.5352
1151.00,0.5324
1150.00,0.5294
1149.00,0.5263
1148.00,0.5234
1147.00,0.5206
1146.00,0.5181
1145.00,0.5160
1144.00,0.5146
1143.00,0.5145
1142.00,0.5161
1141.00,0.5196
1140.00,0.5252
1139.00,0.5330
1138.00,0.5429
1137.00,0.5547
1136.00,0.5679
1135.00,0.5813
1134.00,0.5928
1133.00,0.5998
1132.00,0.6000
1131.00,0.5932
1130.00,0.5812
1129.00,0.5668
1128.00,0.5531
1127.00,0.5420
1126.00,0.5339
1125.00,0.5282
1124.00,0.5240
1123.00,0.5205
1122.00,0.5171
1121.00,0.5140
1120.00,0.5117
1119.00,0.5109
1118.00,0.5125
1117.00,0.5167
1116.00,0.5229
1115.00,0.5295
1114.00,0.5339
1113.00,0.5340
1112.00,0.5297
1111.00,0.5230
1110.00,0.5168
1109.00,0.5129
1108.00,0.5119
1107.00,0.5129
1106.00,0.5140
1105.00,0.5133
1104.00,0.5099
1103.00,0.5040
1102.00,0.4963
1101.00,0.4882
1100.00,0.4802
1099.00,0.4729
1098.00,0.4663
1097.00,0.4604
1096.00,0.4555
1095.00,0.4519
1094.00,0.4496
1093.00,0.4485
1092.00,0.4485
1091.00,0.4495
1090.00,0.4516
1089.00,0.4547
1088.00,0.4592
1087.00,0.4651
1086.00,0.4725
1085.00,0.4812
1084.00,0.4911
1083.00,0.5021
1082.00,0.5143
1081.00,0.5273
1080.00,0.5405
1079.00,0.5532
1078.00,0.5639
1077.00,0.5710
1076.00,0.5730
1075.00,0.5699
1074.00,0.5624
1073.00,0.5526
1072.00,0.5422
1071.00,0.5329
1070.00,0.5253
1069.00,0.5194
1068.00,0.5150
1067.00,0.5118
1066.00,0.5094
1065.00,0.5073
1064.00,0.5058
1063.00,0.5049
1062.00,0.5049
1061.00,0.5057
1060.00,0.5068
1059.00,0.5075
1058.00,0.5072
1057.00,0.5055
1056.00,0.5027
1055.00,0.4991
1054.00,0.4953
1053.00,0.4920
1052.00,0.4897
1051.00,0.4891
1050.00,0.4901
1049.00,0.4926
1048.00,0.4957
1047.00,0.4989
1046.00,0.5016
1045.00,0.5037
1044.00,0.5055
1043.00,0.5075
1042.00,0.5099
1041.00,0.5128
1040.00,0.5159
1039.00,0.5190
1038.00,0.5218
1037.00,0.5242
1036.00,0.5264
1035.00,0.5289
1034.00,0.5320
1033.00,0.5360
1032.00,0.5407
1031.00,0.5457
1030.00,0.5504
1029.00,0.5538
1028.00,0.5549
1027.00,0.5528
1026.00,0.5471
1025.00,0.5387
1024.00,0.5289
1023.00,0.5192
1022.00,0.5105
1021.00,0.5031
1020.00,0.4969
1019.00,0.4917
1018.00,0.4874
1017.00,0.4839
1016.00,0.4812
1015.00,0.4792
1014.00,0.4781
1013.00,0.4776
1012.00,0.4780
1011.00,0.4794
1010.00,0.4818
1009.00,0.4851
1008.00,0.4893
1007.00,0.4942
1006.00,0.4999
1005.00,0.5062
1004.00,0.5132
1003.00,0.5208
1002.00,0.5288
1001.00,0.5367
1000.00,0.5437
999.00,0.5493
998.00,0.5526
997.00,0.5531
996.00,0.5510
995.00,0.5467
994.00,0.5412
993.00,0.5348
992.00,0.5278
991.00,0.5201
990.00,0.5122
989.00,0.5042
988.00,0.4967
987.00,0.4902
986.00,0.4852
985.00,0.4819
984.00,0.4804
983.00,0.4803
982.00,0.4808
981.00,0.4812
980.00,0.4811
979.00,0.4803
978.00,0.4788
977.00,0.4769
976.00,0.4751
975.00,0.4733
974.00,0.4715
973.00,0.4693
972.00,0.4668
971.00,0.4642
970.00,0.4620
969.00,0.4603
968.00,0.4590
967.00,0.4580
966.00,0.4569
965.00,0.4555
964.00,0.4537
963.00,0.4513
962.00,0.4486
961.00,0.4456
960.00,0.4429
959.00,0.4408
958.00,0.4393
957.00,0.4380
956.00,0.4367
955.00,0.4350
954.00,0.4328
953.00,0.4300
952.00,0.4270
951.00,0.4241
950.00,0.4216
949.00,0.4197
948.00,0.4186
947.00,0.4185
946.00,0.4191
945.00,0.4203
944.00,0.4220
943.00,0.4241
942.00,0.4263
941.00,0.4284
940.00,0.4302
939.00,0.4314
938.00,0.4319
937.00,0.4316
936.00,0.4305
935.00,0.4288
934.00,0.4266
933.00,0.4240
932.00,0.4215
931.00,0.4193
930.00,0.4177
929.00,0.4169
928.00,0.4171
927.00,0.4188
926.00,0.4224
925.00,0.4280
924.00,0.4358
923.00,0.4453
922.00,0.4547
921.00,0.4615
920.00,0.4631
919.00,0.4583
918.00,0.4482
917.00,0.4352
916.00,0.4218
915.00,0.4095
914.00,0.3989
913.00,0.3902
912.00,0.3831
911.00,0.3777
910.00,0.3734
909.00,0.3698
908.00,0.3667
907.00,0.3641
906.00,0.3621
905.00,0.3608
904.00,0.3601
903.00,0.3602
902.00,0.3610
901.00,0.3625
900.00,0.3646
899.00,0.3673
898.00,0.3704
897.00,0.3738
896.00,0.3773
895.00,0.3813
894.00,0.3857
893.00,0.3906
892.00,0.3956
891.00,0.4005
890.00,0.4047
889.00,0.4076
888.00,0.4087
887.00,0.4077
886.00,0.4049
885.00,0.4012
884.00,0.3976
883.00,0.3949
882.00,0.3937
881.00,0.3937
880.00,0.3949
879.00,0.3967
878.00,0.3987
877.00,0.4006
876.00,0.4024
875.00,0.4046
874.00,0.4074
873.00,0.4104
872.00,0.4134
871.00,0.4166
870.00,0.4200
869.00,0.4241
868.00,0.4293
867.00,0.4360
866.00,0.4443
865.00,0.4540
864.00,0.4642
863.00,0.4733
862.00,0.4790
861.00,0.4790
860.00,0.4727
859.00,0.4622
858.00,0.4505
857.00,0.4400
856.00,0.4318
855.00,0.4260
854.00,0.4219
853.00,0.4189
852.00,0.4166
851.00,0.4146
850.00,0.4125
849.00,0.4099
848.00,0.4069
847.00,0.4036
846.00,0.4004
845.00,0.3974
844.00,0.3949
843.00,0.3933
842.00,0.3934
841.00,0.3959
840.00,0.4016
839.00,0.4104
838.00,0.4216
837.00,0.4326
836.00,0.4402
835.00,0.4416
834.00,0.4358
833.00,0.4247
832.00,0.4120
831.00,0.4011
830.00,0.3936
829.00,0.3896
828.00,0.3885
827.00,0.3896
826.00,0.3925
825.00,0.3966
824.00,0.4018
823.00,0.4080
822.00,0.4148
821.00,0.4221
820.00,0.4296
819.00,0.4370
818.00,0.4441
817.00,0.4503
816.00,0.4547
815.00,0.4567
814.00,0.4561
813.00,0.4532
812.00,0.4484
811.00,0.4422
810.00,0.4355
809.00,0.4288
808.00,0.4227
807.00,0.4173
806.00,0.4124
805.00,0.4079
804.00,0.4032
803.00,0.3982
802.00,0.3928
801.00,0.3874
800.00,0.3826
799.00,0.3791
798.00,0.3767
797.00,0.3750
796.00,0.3738
795.00,0.3731
794.00,0.3731
793.00,0.3735
792.00,0.3744
791.00,0.3758
790.00,0.3774
789.00,0.3788
788.00,0.3799
787.00,0.3809
786.00,0.3823
785.00,0.3845
784.00,0.3875
783.00,0.3911
782.00,0.3949
781.00,0.3985
780.00,0.4018
779.00,0.4047
778.00,0.4071
777.00,0.4091
776.00,0.4111
775.00,0.4132
774.00,0.4153
773.00,0.4173
772.00,0.4191
771.00,0.4211
770.00,0.4236
769.00,0.4265
768.00,0.4296
767.00,0.4330
766.00,0.4362
765.00,0.4391
764.00,0.4417
763.00,0.4443
762.00,0.4475
761.00,0.4513
760.00,0.4554
759.00,0.4593
758.00,0.4623
757.00,0.4638
756.00,0.4642
755.00,0.4642
754.00,0.4648
753.00,0.4661
752.00,0.4681
751.00,0.4710
750.00,0.4745
749.00,0.4783
748.00,0.4822
747.00,0.4863
746.00,0.4908
745.00,0.4959
744.00,0.5020
743.00,0.5091
742.00,0.5172
741.00,0.5256
740.00,0.5338
739.00,0.5413
738.00,0.5484
737.00,0.5549
736.00,0.5610
735.00,0.5671
734.00,0.5736
733.00,0.5806
732.00,0.5886
731.00,0.5983
730.00,0.6102
729.00,0.6252
728.00,0.6441
727.00,0.6681
726.00,0.6980
725.00,0.7333
724.00,0.7703
723.00,0.8021
722.00,0.8188
721.00,0.8119
720.00,0.7803
719.00,0.7327
718.00,0.6811
717.00,0.6342
716.00,0.5960
715.00,0.5670
714.00,0.5457
713.00,0.5299
712.00,0.5175
711.00,0.5076
710.00,0.4998
709.00,0.4937
708.00,0.4888
707.00,0.4849
706.00,0.4814
705.00,0.4781
704.00,0.4746
703.00,0.4710
702.00,0.4675
701.00,0.4638
700.00,0.4596
699.00,0.4539
698.00,0.4463
697.00,0.4368
696.00,0.4264
695.00,0.4166
694.00,0.4083
693.00,0.4018
692.00,0.3968
691.00,0.3927
690.00,0.3891
689.00,0.3857
688.00,0.3826
687.00,0.3801
686.00,0.3784
685.00,0.3773
684.00,0.3766
683.00,0.3764
682.00,0.3769
681.00,0.3781
680.00,0.3799
679.00,0.3819
678.00,0.3840
677.00,0.3859
676.00,0.3878
675.00,0.3898
674.00,0.3918
673.00,0.3938
672.00,0.3955
671.00,0.3968
670.00,0.3976
669.00,0.3977
668.00,0.3969
667.00,0.3957
666.00,0.3949
665.00,0.3943
664.00,0.3933
663.00,0.3921
662.00,0.3908
661.00,0.3896
660.00,0.3883
659.00,0.3870
658.00,0.3859
657.00,0.3850
656.00,0.3843
655.00,0.3837
654.00,0.3832
653.00,0.3825
652.00,0.3819
651.00,0.3815
650.00,0.3814
649.00,0.3816
648.00,0.3820
647.00,0.3826
646.00,0.3833
645.00,0.3841
644.00,0.3850
643.00,0.3864
642.00,0.3883
641.00,0.3902
640.00,0.3917
639.00,0.3927
638.00,0.3933
637.00,0.3938
636.00,0.3946
635.00,0.3956
634.00,0.3967
633.00,0.3977
632.00,0.3986
631.00,0.3997
630.00,0.4011
629.00,0.4027
628.00,0.4046
627.00,0.4066
626.00,0.4087
625.00,0.4105
624.00,0.4118
623.00,0.4126
622.00,0.4129
621.00,0.4127
620.00,0.4121
619.00,0.4119
618.00,0.4121
617.00,0.4123
616.00,0.4121
615.00,0.4112
614.00,0.4101
613.00,0.4088
612.00,0.4076
611.00,0.4066
610.00,0.4057
609.00,0.4046
608.00,0.4030
607.00,0.4011
606.00,0.3996
605.00,0.3986
604.00,0.3980
603.00,0.3976
602.00,0.3972
601.00,0.3968
600.00,0.3966
599.00,0.3970
598.00,0.3982
597.00,0.3999
596.00,0.4017
595.00,0.4034
594.00,0.4053
593.00,0.4076
592.00,0.4100
591.00,0.4123
590.00,0.4142
589.00,0.4160
588.00,0.4182
587.00,0.4208
586.00,0.4237
585.00,0.4262
584.00,0.4287
583.00,0.4314
582.00,0.4344
581.00,0.4375
580.00,0.4401
579.00,0.4423
578.00,0.4442
577.00,0.4462
576.00,0.4483
575.00,0.4504
574.00,0.4524
573.00,0.4545
572.00,0.4569
571.00,0.4598
570.00,0.4629
569.00,0.4658
568.00,0.4685
567.00,0.4712
566.00,0.4739
565.00,0.4761
564.00,0.4778
563.00,0.4790
562.00,0.4804
561.00,0.4824
560.00,0.4849
559.00,0.4877
558.00,0.4900
557.00,0.4915
556.00,0.4924
555.00,0.4931
554.00,0.4937
553.00,0.4938
552.00,0.4935
551.00,0.4928
550.00,0.4919
