Created as New Dataset,
cm-1,A
4000.00,0.3130
3999.00,0.3127
3998.00,0.3124
3997.00,0.3120
3996.00,0.3117
3995.00,0.3113
3994.00,0.3110
3993.00,0.3107
3992.00,0.3104
3991.00,0.3101
3990.00,0.3098
3989.00,0.3094
3988.00,0.3090
3987.00,0.3087
3986.00,0.3084
3985.00,0.3081
3984.00,0.3077
3983.00,0.3074
3982.00,0.3071
3981.00,0.3068
3980.00,0.3065
3979.00,0.3062
3978.00,0.3059
3977.00,0.3057
3976.00,0.3055
3975.00,0.3052
3974.00,0.3050
3973.00,0.3046
3972.00,0.3043
3971.00,0.3040
3970.00,0.3037
3969.00,0.3034
3968.00,0.3032
3967.00,0.3031
3966.00,0.3029
3965.00,0.3028
3964.00,0.3026
3963.00,0.3024
3962.00,0.3023
3961.00,0.3022
3960.00,0.3020
3959.00,0.3019
3958.00,0.3017
3957.00,0.3016
3956.00,0.3016
3955.00,0.3015
3954.00,0.3013
3953.00,0.3012
3952.00,0.3011
3951.00,0.3010
3950.00,0.3009
3949.00,0.3007
3948.00,0.3006
3947.00,0.3004
3946.00,0.3003
3945.00,0.3002
3944.00,0.3001
3943.00,0.3000
3942.00,0.2999
3941.00,0.2998
3940.00,0.2996
3939.00,0.2995
3938.00,0.2993
3937.00,0.2992
3936.00,0.2991
3935.00,0.2991
3934.00,0.2991
3933.00,0.2990
3932.00,0.2989
3931.00,0.2989
3930.00,0.2989
3929.00,0.2989
3928.00,0.2990
3927.00,0.2991
3926.00,0.2991
3925.00,0.2992
3924.00,0.2992
3923.00,0.2992
3922.00,0.2992
3921.00,0.2992
3920.00,0.2992
3919.00,0.2992
3918.00,0.2992
3917.00,0.2992
3916.00,0.2991
3915.00,0.2991
3914.00,0.2990
3913.00,0.2989
3912.00,0.2988
3911.00,0.2988
3910.00,0.2988
3909.00,0.2988
3908.00,0.2988
3907.00,0.2989
3906.00,0.2990
3905.00,0.2991
3904.00,0.2992
3903.00,0.2994
3902.00,0.2996
3901.00,0.2997
3900.00,0.2998
3899.00,0.2997
3898.00,0.2995
3897.00,0.2993
3896.00,0.2991
3895.00,0.2990
3894.00,0.2990
3893.00,0.2989
3892.00,0.2987
3891.00,0.2986
3890.00,0.2985
3889.00,0.2986
3888.00,0.2988
3887.00,0.2988
3886.00,0.2987
3885.00,0.2986
3884.00,0.2986
3883.00,0.2987
3882.00,0.2987
3881.00,0.2986
3880.00,0.2983
3879.00,0.2981
3878.00,0.2980
3877.00,0.2980
3876.00,0.2979
3875.00,0.2978
3874.00,0.2977
3873.00,0.2977
3872.00,0.2977
3871.00,0.2978
3870.00,0.2977
3869.00,0.2976
3868.00,0.2975
3867.00,0.2975
3866.00,0.2974
3865.00,0.2972
3864.00,0.2970
3863.00,0.2968
3862.00,0.2967
3861.00,0.2966
3860.00,0.2965
3859.00,0.2964
3858.00,0.2964
3857.00,0.2965
3856.00,0.2967
3855.00,0.2968
3854.00,0.2968
3853.00,0.2969
3852.00,0.2971
3851.00,0.2972
3850.00,0.2971
3849.00,0.2968
3848.00,0.2964
3847.00,0.2961
3846.00,0.2958
3845.00,0.2957
3844.00,0.2956
3843.00,0.2957
3842.00,0.2957
3841.00,0.2958
3840.00,0.2958
3839.00,0.2959
3838.00,0.2959
3837.00,0.2960
3836.00,0.2961
3835.00,0.2961
3834.00,0.2960
3833.00,0.2958
3832.00,0.2955
3831.00,0.2953
3830.00,0.2950
3829.00,0.2948
3828.00,0.2947
3827.00,0.2946
3826.00,0.2945
3825.00,0.2946
3824.00,0.2948
3823.00,0.2949
3822.00,0.2949
3821.00,0.2948
3820.00,0.2948
3819.00,0.2949
3818.00,0.2949
3817.00,0.2947
3816.00,0.2943
3815.00,0.2939
3814.00,0.2937
3813.00,0.2934
3812.00,0.2932
3811.00,0.2930
3810.00,0.2928
3809.00,0.2926
3808.00,0.2924
3807.00,0.2923
3806.00,0.2921
3805.00,0.2921
3804.00,0.2922
3803.00,0.2922
3802.00,0.2920
3801.00,0.2917
3800.00,0.2916
3799.00,0.2914
3798.00,0.2913
3797.00,0.2910
3796.00,0.2906
3795.00,0.2903
3794.00,0.2900
3793.00,0.2897
3792.00,0.2894
3791.00,0.2892
3790.00,0.2889
3789.00,0.2888
3788.00,0.2887
3787.00,0.2887
3786.00,0.2887
3785.00,0.2886
3784.00,0.2885
3783.00,0.2885
3782.00,0.2885
3781.00,0.2885
3780.00,0.2884
3779.00,0.2882
3778.00,0.2881
3777.00,0.2879
3776.00,0.2878
3775.00,0.2876
3774.00,0.2874
3773.00,0.2873
3772.00,0.2873
3771.00,0.2872
3770.00,0.2871
3769.00,0.2869
3768.00,0.2869
3767.00,0.2867
3766.00,0.2865
3765.00,0.2863
3764.00,0.2861
3763.00,0.2861
3762.00,0.2860
3761.00,0.2858
3760.00,0.2856
3759.00,0.2855
3758.00,0.2854
3757.00,0.2853
3756.00,0.2853
3755.00,0.2854
3754.00,0.2854
3753.00,0.2854
3752.00,0.2854
3751.00,0.2854
3750.00,0.2856
3749.00,0.2857
3748.00,0.2859
3747.00,0.2861
3746.00,0.2862
3745.00,0.2860
3744.00,0.2856
3743.00,0.2853
3742.00,0.2851
3741.00,0.2850
3740.00,0.2848
3739.00,0.2847
3738.00,0.2846
3737.00,0.2845
3736.00,0.2845
3735.00,0.2844
3734.00,0.2844
3733.00,0.2842
3732.00,0.2840
3731.00,0.2837
3730.00,0.2834
3729.00,0.2832
3728.00,0.2829
3727.00,0.2827
3726.00,0.2824
3725.00,0.2822
3724.00,0.2821
3723.00,0.2821
3722.00,0.2819
3721.00,0.2818
3720.00,0.2816
3719.00,0.2815
3718.00,0.2815
3717.00,0.2815
3716.00,0.2816
3715.00,0.2817
3714.00,0.2819
3713.00,0.2821
3712.00,0.2823
3711.00,0.2825
3710.00,0.2827
3709.00,0.2827
3708.00,0.2827
3707.00,0.2826
3706.00,0.2825
3705.00,0.2824
3704.00,0.2824
3703.00,0.2823
3702.00,0.2823
3701.00,0.2823
3700.00,0.2824
3699.00,0.2825
3698.00,0.2825
3697.00,0.2826
3696.00,0.2826
3695.00,0.2827
3694.00,0.2829
3693.00,0.2832
3692.00,0.2834
3691.00,0.2837
3690.00,0.2839
3689.00,0.2842
3688.00,0.2844
3687.00,0.2846
3686.00,0.2848
3685.00,0.2849
3684.00,0.2849
3683.00,0.2849
3682.00,0.2849
3681.00,0.2850
3680.00,0.2852
3679.00,0.2855
3678.00,0.2860
3677.00,0.2865
3676.00,0.2869
3675.00,0.2872
3674.00,0.2875
3673.00,0.2878
3672.00,0.2880
3671.00,0.2881
3670.00,0.2881
3669.00,0.2881
3668.00,0.2881
3667.00,0.2882
3666.00,0.2882
3665.00,0.2882
3664.00,0.2883
3663.00,0.2884
3662.00,0.2886
3661.00,0.2889
3660.00,0.2892
3659.00,0.2897
3658.00,0.2901
3657.00,0.2906
3656.00,0.2912
3655.00,0.2917
3654.00,0.2924
3653.00,0.2932
3652.00,0.2939
3651.00,0.2945
3650.00,0.2952
3649.00,0.2960
3648.00,0.2967
3647.00,0.2972
3646.00,0.2976
3645.00,0.2978
3644.00,0.2981
3643.00,0.2984
3642.00,0.2987
3641.00,0.2992
3640.00,0.2998
3639.00,0.3005
3638.00,0.3012
3637.00,0.3019
3636.00,0.3027
3635.00,0.3035
3634.00,0.3043
3633.00,0.3051
3632.00,0.3062
3631.00,0.3075
3630.00,0.3091
3629.00,0.3109
3628.00,0.3127
3627.00,0.3143
3626.00,0.3155
3625.00,0.3163
3624.00,0.3167
3623.00,0.3167
3622.00,0.3165
3621.00,0.3160
3620.00,0.3154
3619.00,0.3147
3618.00,0.3141
3617.00,0.3137
3616.00,0.3135
3615.00,0.3134
3614.00,0.3134
3613.00,0.3136
3612.00,0.3139
3611.00,0.3144
3610.00,0.3149
3609.00,0.3153
3608.00,0.3157
3607.00,0.3160
3606.00,0.3163
3605.00,0.3165
3604.00,0.3166
3603.00,0.3167
3602.00,0.3168
3601.00,0.3169
3600.00,0.3170
3599.00,0.3170
3598.00,0.3170
3597.00,0.3169
3596.00,0.3168
3595.00,0.3166
3594.00,0.3165
3593.00,0.3165
3592.00,0.3166
3591.00,0.3168
3590.00,0.3171
3589.00,0.3174
3588.00,0.3176
3587.00,0.3179
3586.00,0.3181
3585.00,0.3184
3584.00,0.3186
3583.00,0.3188
3582.00,0.3190
3581.00,0.3192
3580.00,0.3195
3579.00,0.3198
3578.00,0.3202
3577.00,0.3207
3576.00,0.3212
3575.00,0.3218
3574.00,0.3223
3573.00,0.3228
3572.00,0.3234
3571.00,0.3240
3570.00,0.3246
3569.00,0.3253
3568.00,0.3260
3567.00,0.3266
3566.00,0.3273
3565.00,0.3280
3564.00,0.3286
3563.00,0.3291
3562.00,0.3296
3561.00,0.3301
3560.00,0.3305
3559.00,0.3311
3558.00,0.3317
3557.00,0.3324
3556.00,0.3331
3555.00,0.3338
3554.00,0.3345
3553.00,0.3352
3552.00,0.3360
3551.00,0.3368
3550.00,0.3376
3549.00,0.3384
3548.00,0.3392
3547.00,0.3399
3546.00,0.3407
3545.00,0.3416
3544.00,0.3425
3543.00,0.3433
3542.00,0.3441
3541.00,0.3449
3540.00,0.3456
3539.00,0.3464
3538.00,0.3471
3537.00,0.3480
3536.00,0.3488
3535.00,0.3497
3534.00,0.3505
3533.00,0.3513
3532.00,0.3521
3531.00,0.3529
3530.00,0.3536
3529.00,0.3545
3528.00,0.3553
3527.00,0.3561
3526.00,0.3570
3525.00,0.3579
3524.00,0.3588
3523.00,0.3596
3522.00,0.3604
3521.00,0.3612
3520.00,0.3621
3519.00,0.3629
3518.00,0.3637
3517.00,0.3645
3516.00,0.3654
3515.00,0.3662
3514.00,0.3671
3513.00,0.3680
3512.00,0.3690
3511.00,0.3699
3510.00,0.3709
3509.00,0.3719
3508.00,0.3729
3507.00,0.3739
3506.00,0.3749
3505.00,0.3759
3504.00,0.3768
3503.00,0.3778
3502.00,0.3788
3501.00,0.3798
3500.00,0.3808
3499.00,0.3818
3498.00,0.3827
3497.00,0.3837
3496.00,0.3848
3495.00,0.3859
3494.00,0.3870
3493.00,0.3882
3492.00,0.3893
3491.00,0.3904
3490.00,0.3915
3489.00,0.3927
3488.00,0.3938
3487.00,0.3949
3486.00,0.3961
3485.00,0.3972
3484.00,0.3983
3483.00,0.3993
3482.00,0.4004
3481.00,0.4013
3480.00,0.4023
3479.00,0.4032
3478.00,0.4041
3477.00,0.4050
3476.00,0.4060
3475.00,0.4069
3474.00,0.4079
3473.00,0.4090
3472.00,0.4099
3471.00,0.4109
3470.00,0.4118
3469.00,0.4128
3468.00,0.4139
3467.00,0.4150
3466.00,0.4162
3465.00,0.4173
3464.00,0.4184
3463.00,0.4194
3462.00,0.4204
3461.00,0.4215
3460.00,0.4227
3459.00,0.4238
3458.00,0.4250
3457.00,0.4261
3456.00,0.4272
3455.00,0.4283
3454.00,0.4295
3453.00,0.4307
3452.00,0.4319
3451.00,0.4332
3450.00,0.4345
3449.00,0.4357
3448.00,0.4370
3447.00,0.4383
3446.00,0.4396
3445.00,0.4409
3444.00,0.4422
3443.00,0.4436
3442.00,0.4449
3441.00,0.4464
3440.00,0.4478
3439.00,0.4492
3438.00,0.4505
3437.00,0.4518
3436.00,0.4530
3435.00,0.4542
3434.00,0.4555
3433.00,0.4568
3432.00,0.4582
3431.00,0.4597
3430.00,0.4611
3429.00,0.4626
3428.00,0.4641
3427.00,0.4655
3426.00,0.4669
3425.00,0.4682
3424.00,0.4696
3423.00,0.4710
3422.00,0.4725
3421.00,0.4740
3420.00,0.4755
3419.00,0.4769
3418.00,0.4784
3417.00,0.4799
3416.00,0.4815
3415.00,0.4831
3414.00,0.4848
3413.00,0.4863
3412.00,0.4878
3411.00,0.4893
3410.00,0.4908
3409.00,0.4924
3408.00,0.4940
3407.00,0.4957
3406.00,0.4973
3405.00,0.4989
3404.00,0.5005
3403.00,0.5021
3402.00,0.5038
3401.00,0.5055
3400.00,0.5072
3399.00,0.5089
3398.00,0.5105
3397.00,0.5121
3396.00,0.5137
3395.00,0.5154
3394.00,0.5171
3393.00,0.5188
3392.00,0.5205
3391.00,0.5221
3390.00,0.5238
3389.00,0.5255
3388.00,0.5272
3387.00,0.5289
3386.00,0.5306
3385.00,0.5323
3384.00,0.5340
3383.00,0.5358
3382.00,0.5376
3381.00,0.5394
3380.00,0.5412
3379.00,0.5430
3378.00,0.5449
3377.00,0.5468
3376.00,0.5488
3375.00,0.5508
3374.00,0.5528
3373.00,0.5548
3372.00,0.5568
3371.00,0.5588
3370.00,0.5607
3369.00,0.5627
3368.00,0.5647
3367.00,0.5667
3366.00,0.5688
3365.00,0.5710
3364.00,0.5733
3363.00,0.5755
3362.00,0.5777
3361.00,0.5799
3360.00,0.5820
3359.00,0.5842
3358.00,0.5864
3357.00,0.5886
3356.00,0.5910
3355.00,0.5933
3354.00,0.5956
3353.00,0.5980
3352.00,0.6003
3351.00,0.6026
3350.00,0.6049
3349.00,0.6072
3348.00,0.6095
3347.00,0.6116
3346.00,0.6137
3345.00,0.6157
3344.00,0.6178
3343.00,0.6198
3342.00,0.6218
3341.00,0.6237
3340.00,0.6255
3339.00,0.6273
3338.00,0.6290
3337.00,0.6306
3336.00,0.6321
3335.00,0.6336
3334.00,0.6351
3333.00,0.6365
3332.00,0.6377
3331.00,0.6388
3330.00,0.6398
3329.00,0.6407
3328.00,0.6417
3327.00,0.6426
3326.00,0.6433
3325.00,0.6440
3324.00,0.6445
3323.00,0.6450
3322.00,0.6453
3321.00,0.6456
3320.00,0.6458
3319.00,0.6459
3318.00,0.6460
3317.00,0.6461
3316.00,0.6461
3315.00,0.6461
3314.00,0.6460
3313.00,0.6461
3312.00,0.6460
3311.00,0.6459
3310.00,0.6457
3309.00,0.6454
3308.00,0.6451
3307.00,0.6449
3306.00,0.6446
3305.00,0.6443
3304.00,0.6439
3303.00,0.6435
3302.00,0.6430
3301.00,0.6427
3300.00,0.6423
3299.00,0.6420
3298.00,0.6417
3297.00,0.6414
3296.00,0.6410
3295.00,0.6406
3294.00,0.6402
3293.00,0.6398
3292.00,0.6395
3291.00,0.6392
3290.00,0.6390
3289.00,0.6387
3288.00,0.6385
3287.00,0.6382
3286.00,0.6379
3285.00,0.6376
3284.00,0.6374
3283.00,0.6373
3282.00,0.6372
3281.00,0.6373
3280.00,0.6374
3279.00,0.6374
3278.00,0.6374
3277.00,0.6374
3276.00,0.6375
3275.00,0.6377
3274.00,0.6379
3273.00,0.6381
3272.00,0.6382
3271.00,0.6383
3270.00,0.6384
3269.00,0.6386
3268.00,0.6388
3267.00,0.6390
3266.00,0.6393
3265.00,0.6396
3264.00,0.6399
3263.00,0.6402
3262.00,0.6405
3261.00,0.6408
3260.00,0.6411
3259.00,0.6413
3258.00,0.6416
3257.00,0.6418
3256.00,0.6420
3255.00,0.6422
3254.00,0.6424
3253.00,0.6426
3252.00,0.6428
3251.00,0.6429
3250.00,0.6430
3249.00,0.6430
3248.00,0.6429
3247.00,0.6427
3246.00,0.6426
3245.00,0.6425
3244.00,0.6425
3243.00,0.6424
3242.00,0.6423
3241.00,0.6421
3240.00,0.6418
3239.00,0.6415
3238.00,0.6412
3237.00,0.6408
3236.00,0.6404
3235.00,0.6400
3234.00,0.6396
3233.00,0.6392
3232.00,0.6387
3231.00,0.6381
3230.00,0.6375
3229.00,0.6368
3228.00,0.6360
3227.00,0.6353
3226.00,0.6345
3225.00,0.6337
3224.00,0.6329
3223.00,0.6320
3222.00,0.6312
3221.00,0.6304
3220.00,0.6296
3219.00,0.6288
3218.00,0.6279
3217.00,0.6270
3216.00,0.6260
3215.00,0.6249
3214.00,0.6237
3213.00,0.6226
3212.00,0.6215
3211.00,0.6205
3210.00,0.6194
3209.00,0.6182
3208.00,0.6171
3207.00,0.6159
3206.00,0.6147
3205.00,0.6135
3204.00,0.6122
3203.00,0.6109
3202.00,0.6097
3201.00,0.6084
3200.00,0.6072
3199.00,0.6059
3198.00,0.6045
3197.00,0.6031
3196.00,0.6017
3195.00,0.6002
3194.00,0.5986
3193.00,0.5970
3192.00,0.5953
3191.00,0.5937
3190.00,0.5920
3189.00,0.5903
3188.00,0.5885
3187.00,0.5867
3186.00,0.5850
3185.00,0.5833
3184.00,0.5815
3183.00,0.5797
3182.00,0.5779
3181.00,0.5760
3180.00,0.5741
3179.00,0.5722
3178.00,0.5702
3177.00,0.5681
3176.00,0.5660
3175.00,0.5639
3174.00,0.5619
3173.00,0.5599
3172.00,0.5578
3171.00,0.5556
3170.00,0.5535
3169.00,0.5514
3168.00,0.5493
3167.00,0.5472
3166.00,0.5451
3165.00,0.5431
3164.00,0.5411
3163.00,0.5391
3162.00,0.5371
3161.00,0.5350
3160.00,0.5329
3159.00,0.5307
3158.00,0.5286
3157.00,0.5265
3156.00,0.5245
3155.00,0.5226
3154.00,0.5206
3153.00,0.5186
3152.00,0.5166
3151.00,0.5147
3150.00,0.5128
3149.00,0.5109
3148.00,0.5091
3147.00,0.5074
3146.00,0.5056
3145.00,0.5040
3144.00,0.5023
3143.00,0.5007
3142.00,0.4990
3141.00,0.4973
3140.00,0.4956
3139.00,0.4940
3138.00,0.4924
3137.00,0.4909
3136.00,0.4895
3135.00,0.4881
3134.00,0.4868
3133.00,0.4855
3132.00,0.4841
3131.00,0.4828
3130.00,0.4816
3129.00,0.4804
3128.00,0.4793
3127.00,0.4782
3126.00,0.4772
3125.00,0.4762
3124.00,0.4753
3123.00,0.4745
3122.00,0.4736
3121.00,0.4728
3120.00,0.4721
3119.00,0.4714
3118.00,0.4708
3117.00,0.4702
3116.00,0.4697
3115.00,0.4692
3114.00,0.4687
3113.00,0.4684
3112.00,0.4681
3111.00,0.4678
3110.00,0.4675
3109.00,0.4673
3108.00,0.4672
3107.00,0.4672
3106.00,0.4672
3105.00,0.4673
3104.00,0.4674
3103.00,0.4675
3102.00,0.4675
3101.00,0.4676
3100.00,0.4677
3099.00,0.4679
3098.00,0.4682
3097.00,0.4687
3096.00,0.4693
3095.00,0.4700
3094.00,0.4709
3093.00,0.4719
3092.00,0.4730
3091.00,0.4743
3090.00,0.4758
3089.00,0.4774
3088.00,0.4791
3087.00,0.4809
3086.00,0.4827
3085.00,0.4846
3084.00,0.4866
3083.00,0.4888
3082.00,0.4911
3081.00,0.4936
3080.00,0.4963
3079.00,0.4992
3078.00,0.5024
3077.00,0.5056
3076.00,0.5090
3075.00,0.5125
3074.00,0.5160
3073.00,0.5196
3072.00,0.5232
3071.00,0.5267
3070.00,0.5301
3069.00,0.5335
3068.00,0.5368
3067.00,0.5400
3066.00,0.5431
3065.00,0.5460
3064.00,0.5486
3063.00,0.5511
3062.00,0.5535
3061.00,0.5557
3060.00,0.5578
3059.00,0.5599
3058.00,0.5620
3057.00,0.5642
3056.00,0.5666
3055.00,0.5691
3054.00,0.5720
3053.00,0.5750
3052.00,0.5784
3051.00,0.5819
3050.00,0.5857
3049.00,0.5896
3048.00,0.5938
3047.00,0.5980
3046.00,0.6024
3045.00,0.6069
3044.00,0.6113
3043.00,0.6157
3042.00,0.6201
3041.00,0.6245
3040.00,0.6290
3039.00,0.6334
3038.00,0.6379
3037.00,0.6426
3036.00,0.6476
3035.00,0.6530
3034.00,0.6588
3033.00,0.6650
3032.00,0.6716
3031.00,0.6785
3030.00,0.6859
3029.00,0.6936
3028.00,0.7018
3027.00,0.7105
3026.00,0.7196
3025.00,0.7293
3024.00,0.7394
3023.00,0.7500
3022.00,0.7610
3021.00,0.7723
3020.00,0.7840
3019.00,0.7960
3018.00,0.8084
3017.00,0.8211
3016.00,0.8341
3015.00,0.8471
3014.00,0.8605
3013.00,0.8744
3012.00,0.8889
3011.00,0.9043
3010.00,0.9207
3009.00,0.9381
3008.00,0.9564
3007.00,0.9755
3006.00,0.9954
3005.00,1.0162
3004.00,1.0378
3003.00,1.0603
3002.00,1.0837
3001.00,1.1081
3000.00,1.1337
2999.00,1.1606
2998.00,1.1893
2997.00,1.2202
2996.00,1.2537
2995.00,1.2901
2994.00,1.3297
2993.00,1.3731
2992.00,1.4206
2991.00,1.4730
2990.00,1.5313
2989.00,1.5961
2988.00,1.6681
2987.00,1.7482
2986.00,1.8376
2985.00,1.9373
2984.00,2.0477
2983.00,2.1695
2982.00,2.3033
2981.00,2.4492
2980.00,2.6058
2979.00,2.7713
2978.00,2.9430
2977.00,3.1144
2976.00,3.2789
2975.00,3.4415
2974.00,3.6180
2973.00,3.8000
2972.00,3.9247
2971.00,3.9612
2970.00,3.9660
2969.00,3.9915
2968.00,4.0007
2967.00,3.9296
2966.00,3.8414
2965.00,3.8487
2964.00,4.0402
2963.00,4.5376
2962.00,5.0544
2961.00,4.3235
2960.00,3.9385
2959.00,3.7461
2958.00,3.6383
2957.00,3.5842
2956.00,3.5915
2955.00,3.6827
2954.00,3.8343
2953.00,3.9398
2952.00,3.9637
2951.00,4.0276
2950.00,4.1814
2949.00,4.2609
2948.00,4.4012
2947.00,4.6150
2946.00,4.3736
2945.00,4.0717
2944.00,3.9141
2943.00,3.9532
2942.00,4.0504
2941.00,4.0478
2940.00,3.9547
2939.00,3.8519
2938.00,3.8826
2937.00,4.1468
2936.00,4.3645
2935.00,4.1148
2934.00,3.9307
2933.00,3.9745
2932.00,4.2270
2931.00,4.2162
2930.00,4.0194
2929.00,3.9089
2928.00,3.9215
2927.00,4.0406
2926.00,4.1057
2925.00,4.0668
2924.00,4.0647
2923.00,4.1966
2922.00,4.3869
2921.00,4.5423
2920.00,4.6754
2919.00,4.7212
2918.00,4.7280
2917.00,4.8048
2916.00,5.1237
2915.00,5.2635
2914.00,4.5379
2913.00,4.3855
2912.00,4.5167
2911.00,4.3093
2910.00,4.0231
2909.00,3.8688
2908.00,3.9245
2907.00,4.1227
2906.00,4.3828
2905.00,4.7754
2904.00,4.5400
2903.00,4.1960
2902.00,3.9946
2901.00,3.8629
2900.00,3.7611
2899.00,3.6946
2898.00,3.6745
2897.00,3.6982
2896.00,3.7893
2895.00,3.9264
2894.00,3.9847
2893.00,3.9723
2892.00,4.0098
2891.00,4.1320
2890.00,4.1970
2889.00,4.1452
2888.00,4.1728
2887.00,4.4088
2886.00,4.9283
2885.00,4.8455
2884.00,4.3813
2883.00,4.1991
2882.00,4.1191
2881.00,4.0748
2880.00,4.0966
2879.00,4.1684
2878.00,4.2816
2877.00,4.3347
2876.00,4.3436
2875.00,4.2598
2874.00,4.3034
2873.00,4.5387
2872.00,4.3780
2871.00,4.1148
2870.00,3.9681
2869.00,4.0294
2868.00,4.2033
2867.00,4.4697
2866.00,4.5411
2865.00,4.1607
2864.00,3.9396
2863.00,3.9109
2862.00,4.0239
2861.00,4.1848
2860.00,4.2235
2859.00,4.1647
2858.00,4.2007
2857.00,4.4174
2856.00,4.5796
2855.00,4.3168
2854.00,4.1310
2853.00,4.1291
2852.00,4.1997
2851.00,4.2337
2850.00,4.2001
2849.00,4.1097
2848.00,4.0230
2847.00,3.9656
2846.00,3.9819
2845.00,4.0604
2844.00,4.2430
2843.00,4.5517
2842.00,4.5280
2841.00,4.1688
2840.00,3.8779
2839.00,3.6638
2838.00,3.4708
2837.00,3.2732
2836.00,3.0760
2835.00,2.8885
2834.00,2.7091
2833.00,2.5350
2832.00,2.3695
2831.00,2.2176
2830.00,2.0819
2829.00,1.9622
2828.00,1.8568
2827.00,1.7633
2826.00,1.6793
2825.00,1.6031
2824.00,1.5339
2823.00,1.4710
2822.00,1.4136
2821.00,1.3608
2820.00,1.3123
2819.00,1.2678
2818.00,1.2265
2817.00,1.1880
2816.00,1.1521
2815.00,1.1187
2814.00,1.0877
2813.00,1.0587
2812.00,1.0312
2811.00,1.0051
2810.00,0.9804
2809.00,0.9571
2808.00,0.9351
2807.00,0.9142
2806.00,0.8944
2805.00,0.8755
2804.00,0.8575
2803.00,0.8403
2802.00,0.8241
2801.00,0.8087
2800.00,0.7942
2799.00,0.7802
2798.00,0.7668
2797.00,0.7539
2796.00,0.7415
2795.00,0.7296
2794.00,0.7181
2793.00,0.7070
2792.00,0.6962
2791.00,0.6857
2790.00,0.6754
2789.00,0.6652
2788.00,0.6551
2787.00,0.6454
2786.00,0.6358
2785.00,0.6265
2784.00,0.6175
2783.00,0.6087
2782.00,0.6004
2781.00,0.5923
2780.00,0.5847
2779.00,0.5774
2778.00,0.5705
2777.00,0.5639
2776.00,0.5575
2775.00,0.5515
2774.00,0.5459
2773.00,0.5407
2772.00,0.5359
2771.00,0.5314
2770.00,0.5272
2769.00,0.5233
2768.00,0.5197
2767.00,0.5165
2766.00,0.5136
2765.00,0.5111
2764.00,0.5089
2763.00,0.5069
2762.00,0.5052
2761.00,0.5037
2760.00,0.5023
2759.00,0.5009
2758.00,0.4996
2757.00,0.4983
2756.00,0.4970
2755.00,0.4958
2754.00,0.4948
2753.00,0.4940
2752.00,0.4934
2751.00,0.4930
2750.00,0.4928
2749.00,0.4928
2748.00,0.4930
2747.00,0.4934
2746.00,0.4940
2745.00,0.4949
2744.00,0.4962
2743.00,0.4978
2742.00,0.4997
2741.00,0.5020
2740.00,0.5047
2739.00,0.5079
2738.00,0.5116
2737.00,0.5159
2736.00,0.5206
2735.00,0.5258
2734.00,0.5313
2733.00,0.5366
2732.00,0.5416
2731.00,0.5458
2730.00,0.5490
2729.00,0.5513
2728.00,0.5525
2727.00,0.5527
2726.00,0.5522
2725.00,0.5510
2724.00,0.5494
2723.00,0.5474
2722.00,0.5449
2721.00,0.5420
2720.00,0.5386
2719.00,0.5347
2718.00,0.5305
2717.00,0.5259
2716.00,0.5209
2715.00,0.5159
2714.00,0.5109
2713.00,0.5060
2712.00,0.5014
2711.00,0.4972
2710.00,0.4934
2709.00,0.4901
2708.00,0.4872
2707.00,0.4847
2706.00,0.4825
2705.00,0.4807
2704.00,0.4792
2703.00,0.4781
2702.00,0.4772
2701.00,0.4765
2700.00,0.4761
2699.00,0.4757
2698.00,0.4756
2697.00,0.4757
2696.00,0.4759
2695.00,0.4763
2694.00,0.4767
2693.00,0.4772
2692.00,0.4778
2691.00,0.4786
2690.00,0.4793
2689.00,0.4801
2688.00,0.4807
2687.00,0.4813
2686.00,0.4818
2685.00,0.4822
2684.00,0.4825
2683.00,0.4829
2682.00,0.4832
2681.00,0.4837
2680.00,0.4841
2679.00,0.4845
2678.00,0.4850
2677.00,0.4855
2676.00,0.4860
2675.00,0.4867
2674.00,0.4875
2673.00,0.4882
2672.00,0.4888
2671.00,0.4892
2670.00,0.4892
2669.00,0.4889
2668.00,0.4882
2667.00,0.4873
2666.00,0.4861
2665.00,0.4846
2664.00,0.4830
2663.00,0.4813
2662.00,0.4794
2661.00,0.4774
2660.00,0.4752
2659.00,0.4730
2658.00,0.4707
2657.00,0.4685
2656.00,0.4663
2655.00,0.4642
2654.00,0.4622
2653.00,0.4602
2652.00,0.4584
2651.00,0.4567
2650.00,0.4550
2649.00,0.4534
2648.00,0.4518
2647.00,0.4503
2646.00,0.4489
2645.00,0.4475
2644.00,0.4463
2643.00,0.4451
2642.00,0.4439
2641.00,0.4428
2640.00,0.4417
2639.00,0.4408
2638.00,0.4399
2637.00,0.4390
2636.00,0.4381
2635.00,0.4372
2634.00,0.4362
2633.00,0.4353
2632.00,0.4344
2631.00,0.4335
2630.00,0.4325
2629.00,0.4314
2628.00,0.4304
2627.00,0.4294
2626.00,0.4284
2625.00,0.4274
2624.00,0.4265
2623.00,0.4255
2622.00,0.4246
2621.00,0.4236
2620.00,0.4226
2619.00,0.4216
2618.00,0.4207
2617.00,0.4197
2616.00,0.4187
2615.00,0.4176
2614.00,0.4165
2613.00,0.4155
2612.00,0.4144
2611.00,0.4133
2610.00,0.4121
2609.00,0.4111
2608.00,0.4100
2607.00,0.4090
2606.00,0.4079
2605.00,0.4069
2604.00,0.4058
2603.00,0.4047
2602.00,0.4036
2601.00,0.4025
2600.00,0.4013
2599.00,0.4000
2598.00,0.3986
2597.00,0.3972
2596.00,0.3957
2595.00,0.3942
2594.00,0.3925
2593.00,0.3908
2592.00,0.3891
2591.00,0.3873
2590.00,0.3856
2589.00,0.3839
2588.00,0.3822
2587.00,0.3804
2586.00,0.3787
2585.00,0.3768
2584.00,0.3750
2583.00,0.3731
2582.00,0.3712
2581.00,0.3693
2580.00,0.3674
2579.00,0.3655
2578.00,0.3636
2577.00,0.3618
2576.00,0.3601
2575.00,0.3584
2574.00,0.3567
2573.00,0.3551
2572.00,0.3536
2571.00,0.3521
2570.00,0.3506
2569.00,0.3491
2568.00,0.3477
2567.00,0.3462
2566.00,0.3447
2565.00,0.3432
2564.00,0.3418
2563.00,0.3403
2562.00,0.3389
2561.00,0.3375
2560.00,0.3361
2559.00,0.3348
2558.00,0.3335
2557.00,0.3322
2556.00,0.3310
2555.00,0.3298
2554.00,0.3286
2553.00,0.3274
2552.00,0.3262
2551.00,0.3251
2550.00,0.3240
2549.00,0.3229
2548.00,0.3219
2547.00,0.3209
2546.00,0.3198
2545.00,0.3189
2544.00,0.3179
2543.00,0.3170
2542.00,0.3161
2541.00,0.3153
2540.00,0.3145
2539.00,0.3138
2538.00,0.3130
2537.00,0.3123
2536.00,0.3116
2535.00,0.3110
2534.00,0.3104
2533.00,0.3097
2532.00,0.3091
2531.00,0.3083
2530.00,0.3076
2529.00,0.3068
2528.00,0.3060
2527.00,0.3052
2526.00,0.3043
2525.00,0.3034
2524.00,0.3024
2523.00,0.3013
2522.00,0.3003
2521.00,0.2994
2520.00,0.2985
2519.00,0.2976
2518.00,0.2968
2517.00,0.2959
2516.00,0.2950
2515.00,0.2942
2514.00,0.2934
2513.00,0.2927
2512.00,0.2919
2511.00,0.2911
2510.00,0.2904
2509.00,0.2897
2508.00,0.2891
2507.00,0.2887
2506.00,0.2882
2505.00,0.2878
2504.00,0.2874
2503.00,0.2869
2502.00,0.2865
2501.00,0.2862
2500.00,0.2859
2499.00,0.2856
2498.00,0.2853
2497.00,0.2851
2496.00,0.2848
2495.00,0.2846
2494.00,0.2843
2493.00,0.2840
2492.00,0.2838
2491.00,0.2835
2490.00,0.2832
2489.00,0.2828
2488.00,0.2824
2487.00,0.2820
2486.00,0.2817
2485.00,0.2813
2484.00,0.2810
2483.00,0.2806
2482.00,0.2802
2481.00,0.2798
2480.00,0.2795
2479.00,0.2791
2478.00,0.2787
2477.00,0.2784
2476.00,0.2780
2475.00,0.2777
2474.00,0.2773
2473.00,0.2771
2472.00,0.2768
2471.00,0.2765
2470.00,0.2763
2469.00,0.2761
2468.00,0.2758
2467.00,0.2755
2466.00,0.2753
2465.00,0.2750
2464.00,0.2748
2463.00,0.2746
2462.00,0.2744
2461.00,0.2742
2460.00,0.2740
2459.00,0.2738
2458.00,0.2736
2457.00,0.2734
2456.00,0.2733
2455.00,0.2731
2454.00,0.2730
2453.00,0.2729
2452.00,0.2728
2451.00,0.2727
2450.00,0.2726
2449.00,0.2725
2448.00,0.2724
2447.00,0.2723
2446.00,0.2723
2445.00,0.2722
2444.00,0.2722
2443.00,0.2722
2442.00,0.2722
2441.00,0.2722
2440.00,0.2723
2439.00,0.2724
2438.00,0.2725
2437.00,0.2726
2436.00,0.2727
2435.00,0.2728
2434.00,0.2730
2433.00,0.2731
2432.00,0.2733
2431.00,0.2734
2430.00,0.2736
2429.00,0.2737
2428.00,0.2739
2427.00,0.2740
2426.00,0.2741
2425.00,0.2743
2424.00,0.2744
2423.00,0.2745
2422.00,0.2747
2421.00,0.2748
2420.00,0.2749
2419.00,0.2749
2418.00,0.2749
2417.00,0.2749
2416.00,0.2749
2415.00,0.2749
2414.00,0.2749
2413.00,0.2750
2412.00,0.2750
2411.00,0.2750
2410.00,0.2750
2409.00,0.2750
2408.00,0.2749
2407.00,0.2748
2406.00,0.2747
2405.00,0.2746
2404.00,0.2744
2403.00,0.2743
2402.00,0.2742
2401.00,0.2742
2400.00,0.2741
2399.00,0.2741
2398.00,0.2740
2397.00,0.2740
2396.00,0.2739
2395.00,0.2738
2394.00,0.2737
2393.00,0.2737
2392.00,0.2736
2391.00,0.2736
2390.00,0.2736
2389.00,0.2736
2388.00,0.2736
2387.00,0.2736
2386.00,0.2736
2385.00,0.2736
2384.00,0.2736
2383.00,0.2737
2382.00,0.2737
2381.00,0.2738
2380.00,0.2739
2379.00,0.2739
2378.00,0.2740
2377.00,0.2740
2376.00,0.2740
2375.00,0.2740
2374.00,0.2739
2373.00,0.2739
2372.00,0.2738
2371.00,0.2738
2370.00,0.2737
2369.00,0.2736
2368.00,0.2735
2367.00,0.2735
2366.00,0.2735
2365.00,0.2736
2364.00,0.2736
2363.00,0.2735
2362.00,0.2735
2361.00,0.2735
2360.00,0.2737
2359.00,0.2738
2358.00,0.2738
2357.00,0.2738
2356.00,0.2737
2355.00,0.2735
2354.00,0.2733
2353.00,0.2732
2352.00,0.2731
2351.00,0.2730
2350.00,0.2729
2349.00,0.2729
2348.00,0.2728
2347.00,0.2727
2346.00,0.2726
2345.00,0.2725
2344.00,0.2725
2343.00,0.2725
2342.00,0.2725
2341.00,0.2723
2340.00,0.2722
2339.00,0.2720
2338.00,0.2719
2337.00,0.2719
2336.00,0.2718
2335.00,0.2717
2334.00,0.2716
2333.00,0.2714
2332.00,0.2711
2331.00,0.2708
2330.00,0.2705
2329.00,0.2703
2328.00,0.2701
2327.00,0.2700
2326.00,0.2699
2325.00,0.2698
2324.00,0.2696
2323.00,0.2693
2322.00,0.2691
2321.00,0.2688
2320.00,0.2686
2319.00,0.2684
2318.00,0.2681
2317.00,0.2679
2316.00,0.2677
2315.00,0.2675
2314.00,0.2672
2313.00,0.2669
2312.00,0.2666
2311.00,0.2663
2310.00,0.2660
2309.00,0.2656
2308.00,0.2652
2307.00,0.2648
2306.00,0.2645
2305.00,0.2642
2304.00,0.2639
2303.00,0.2636
2302.00,0.2633
2301.00,0.2630
2300.00,0.2627
2299.00,0.2624
2298.00,0.2622
2297.00,0.2619
2296.00,0.2617
2295.00,0.2614
2294.00,0.2612
2293.00,0.2609
2292.00,0.2607
2291.00,0.2605
2290.00,0.2602
2289.00,0.2600
2288.00,0.2597
2287.00,0.2594
2286.00,0.2591
2285.00,0.2589
2284.00,0.2586
2283.00,0.2584
2282.00,0.2581
2281.00,0.2578
2280.00,0.2575
2279.00,0.2572
2278.00,0.2568
2277.00,0.2565
2276.00,0.2562
2275.00,0.2559
2274.00,0.2557
2273.00,0.2555
2272.00,0.2552
2271.00,0.2550
2270.00,0.2549
2269.00,0.2547
2268.00,0.2546
2267.00,0.2544
2266.00,0.2543
2265.00,0.2541
2264.00,0.2539
2263.00,0.2537
2262.00,0.2534
2261.00,0.2532
2260.00,0.2529
2259.00,0.2527
2258.00,0.2524
2257.00,0.2522
2256.00,0.2520
2255.00,0.2518
2254.00,0.2515
2253.00,0.2512
2252.00,0.2510
2251.00,0.2507
2250.00,0.2504
2249.00,0.2502
2248.00,0.2499
2247.00,0.2496
2246.00,0.2494
2245.00,0.2491
2244.00,0.2489
2243.00,0.2487
2242.00,0.2486
2241.00,0.2485
2240.00,0.2484
2239.00,0.2482
2238.00,0.2481
2237.00,0.2479
2236.00,0.2478
2235.00,0.2477
2234.00,0.2476
2233.00,0.2475
2232.00,0.2474
2231.00,0.2473
2230.00,0.2473
2229.00,0.2472
2228.00,0.2472
2227.00,0.2470
2226.00,0.2469
2225.00,0.2467
2224.00,0.2466
2223.00,0.2464
2222.00,0.2463
2221.00,0.2461
2220.00,0.2460
2219.00,0.2459
2218.00,0.2458
2217.00,0.2458
2216.00,0.2457
2215.00,0.2455
2214.00,0.2454
2213.00,0.2453
2212.00,0.2452
2211.00,0.2452
2210.00,0.2452
2209.00,0.2452
2208.00,0.2452
2207.00,0.2451
2206.00,0.2451
2205.00,0.2451
2204.00,0.2452
2203.00,0.2452
2202.00,0.2452
2201.00,0.2451
2200.00,0.2451
2199.00,0.2451
2198.00,0.2452
2197.00,0.2453
2196.00,0.2454
2195.00,0.2455
2194.00,0.2455
2193.00,0.2454
2192.00,0.2454
2191.00,0.2454
2190.00,0.2454
2189.00,0.2455
2188.00,0.2455
2187.00,0.2454
2186.00,0.2453
2185.00,0.2452
2184.00,0.2451
2183.00,0.2450
2182.00,0.2449
2181.00,0.2448
2180.00,0.2447
2179.00,0.2446
2178.00,0.2445
2177.00,0.2443
2176.00,0.2441
2175.00,0.2439
2174.00,0.2438
2173.00,0.2437
2172.00,0.2436
2171.00,0.2436
2170.00,0.2435
2169.00,0.2435
2168.00,0.2434
2167.00,0.2432
2166.00,0.2431
2165.00,0.2430
2164.00,0.2429
2163.00,0.2428
2162.00,0.2427
2161.00,0.2426
2160.00,0.2425
2159.00,0.2424
2158.00,0.2423
2157.00,0.2421
2156.00,0.2419
2155.00,0.2417
2154.00,0.2415
2153.00,0.2413
2152.00,0.2412
2151.00,0.2409
2150.00,0.2406
2149.00,0.2403
2148.00,0.2399
2147.00,0.2395
2146.00,0.2391
2145.00,0.2386
2144.00,0.2381
2143.00,0.2376
2142.00,0.2372
2141.00,0.2368
2140.00,0.2364
2139.00,0.2361
2138.00,0.2358
2137.00,0.2355
2136.00,0.2352
2135.00,0.2350
2134.00,0.2348
2133.00,0.2346
2132.00,0.2344
2131.00,0.2343
2130.00,0.2341
2129.00,0.2341
2128.00,0.2340
2127.00,0.2339
2126.00,0.2338
2125.00,0.2338
2124.00,0.2337
2123.00,0.2337
2122.00,0.2336
2121.00,0.2334
2120.00,0.2333
2119.00,0.2331
2118.00,0.2329
2117.00,0.2328
2116.00,0.2327
2115.00,0.2326
2114.00,0.2325
2113.00,0.2324
2112.00,0.2322
2111.00,0.2321
2110.00,0.2318
2109.00,0.2316
2108.00,0.2315
2107.00,0.2313
2106.00,0.2311
2105.00,0.2309
2104.00,0.2308
2103.00,0.2307
2102.00,0.2306
2101.00,0.2306
2100.00,0.2306
2099.00,0.2305
2098.00,0.2305
2097.00,0.2305
2096.00,0.2305
2095.00,0.2305
2094.00,0.2306
2093.00,0.2306
2092.00,0.2307
2091.00,0.2307
2090.00,0.2308
2089.00,0.2308
2088.00,0.2308
2087.00,0.2309
2086.00,0.2309
2085.00,0.2310
2084.00,0.2310
2083.00,0.2309
2082.00,0.2308
2081.00,0.2308
2080.00,0.2307
2079.00,0.2306
2078.00,0.2304
2077.00,0.2304
2076.00,0.2303
2075.00,0.2302
2074.00,0.2301
2073.00,0.2300
2072.00,0.2299
2071.00,0.2299
2070.00,0.2298
2069.00,0.2298
2068.00,0.2298
2067.00,0.2298
2066.00,0.2298
2065.00,0.2299
2064.00,0.2300
2063.00,0.2301
2062.00,0.2302
2061.00,0.2302
2060.00,0.2303
2059.00,0.2304
2058.00,0.2305
2057.00,0.2306
2056.00,0.2308
2055.00,0.2310
2054.00,0.2312
2053.00,0.2314
2052.00,0.2315
2051.00,0.2317
2050.00,0.2319
2049.00,0.2321
2048.00,0.2322
2047.00,0.2324
2046.00,0.2325
2045.00,0.2327
2044.00,0.2328
2043.00,0.2328
2042.00,0.2328
2041.00,0.2329
2040.00,0.2329
2039.00,0.2329
2038.00,0.2329
2037.00,0.2329
2036.00,0.2329
2035.00,0.2328
2034.00,0.2327
2033.00,0.2327
2032.00,0.2326
2031.00,0.2326
2030.00,0.2325
2029.00,0.2325
2028.00,0.2325
2027.00,0.2324
2026.00,0.2324
2025.00,0.2323
2024.00,0.2322
2023.00,0.2320
2022.00,0.2319
2021.00,0.2316
2020.00,0.2313
2019.00,0.2308
2018.00,0.2303
2017.00,0.2298
2016.00,0.2293
2015.00,0.2289
2014.00,0.2285
2013.00,0.2281
2012.00,0.2277
2011.00,0.2272
2010.00,0.2268
2009.00,0.2264
2008.00,0.2261
2007.00,0.2257
2006.00,0.2254
2005.00,0.2252
2004.00,0.2250
2003.00,0.2247
2002.00,0.2245
2001.00,0.2242
2000.00,0.2240
1999.00,0.2238
1998.00,0.2237
1997.00,0.2235
1996.00,0.2234
1995.00,0.2232
1994.00,0.2230
1993.00,0.2228
1992.00,0.2227
1991.00,0.2226
1990.00,0.2226
1989.00,0.2225
1988.00,0.2224
1987.00,0.2224
1986.00,0.2224
1985.00,0.2224
1984.00,0.2224
1983.00,0.2224
1982.00,0.2223
1981.00,0.2223
1980.00,0.2223
1979.00,0.2223
1978.00,0.2223
1977.00,0.2224
1976.00,0.2224
1975.00,0.2225
1974.00,0.2225
1973.00,0.2226
1972.00,0.2226
1971.00,0.2226
1970.00,0.2225
1969.00,0.2224
1968.00,0.2224
1967.00,0.2224
1966.00,0.2225
1965.00,0.2225
1964.00,0.2226
1963.00,0.2225
1962.00,0.2224
1961.00,0.2224
1960.00,0.2224
1959.00,0.2224
1958.00,0.2224
1957.00,0.2225
1956.00,0.2226
1955.00,0.2227
1954.00,0.2228
1953.00,0.2228
1952.00,0.2229
1951.00,0.2230
1950.00,0.2230
1949.00,0.2231
1948.00,0.2232
1947.00,0.2233
1946.00,0.2234
1945.00,0.2236
1944.00,0.2238
1943.00,0.2241
1942.00,0.2246
1941.00,0.2252
1940.00,0.2258
1939.00,0.2263
1938.00,0.2265
1937.00,0.2266
1936.00,0.2267
1935.00,0.2266
1934.00,0.2265
1933.00,0.2264
1932.00,0.2264
1931.00,0.2265
1930.00,0.2265
1929.00,0.2266
1928.00,0.2267
1927.00,0.2267
1926.00,0.2266
1925.00,0.2265
1924.00,0.2265
1923.00,0.2267
1922.00,0.2272
1921.00,0.2279
1920.00,0.2284
1919.00,0.2288
1918.00,0.2292
1917.00,0.2296
1916.00,0.2298
1915.00,0.2299
1914.00,0.2299
1913.00,0.2298
1912.00,0.2297
1911.00,0.2295
1910.00,0.2295
1909.00,0.2296
1908.00,0.2298
1907.00,0.2299
1906.00,0.2301
1905.00,0.2302
1904.00,0.2303
1903.00,0.2305
1902.00,0.2306
1901.00,0.2307
1900.00,0.2309
1899.00,0.2311
1898.00,0.2312
1897.00,0.2312
1896.00,0.2313
1895.00,0.2314
1894.00,0.2316
1893.00,0.2318
1892.00,0.2319
1891.00,0.2319
1890.00,0.2319
1889.00,0.2320
1888.00,0.2322
1887.00,0.2323
1886.00,0.2323
1885.00,0.2323
1884.00,0.2324
1883.00,0.2324
1882.00,0.2324
1881.00,0.2325
1880.00,0.2325
1879.00,0.2326
1878.00,0.2325
1877.00,0.2326
1876.00,0.2326
1875.00,0.2326
1874.00,0.2326
1873.00,0.2325
1872.00,0.2324
1871.00,0.2321
1870.00,0.2317
1869.00,0.2315
1868.00,0.2314
1867.00,0.2315
1866.00,0.2315
1865.00,0.2315
1864.00,0.2314
1863.00,0.2311
1862.00,0.2308
1861.00,0.2305
1860.00,0.2303
1859.00,0.2300
1858.00,0.2297
1857.00,0.2294
1856.00,0.2292
1855.00,0.2290
1854.00,0.2288
1853.00,0.2286
1852.00,0.2285
1851.00,0.2283
1850.00,0.2280
1849.00,0.2278
1848.00,0.2277
1847.00,0.2276
1846.00,0.2275
1845.00,0.2274
1844.00,0.2273
1843.00,0.2272
1842.00,0.2272
1841.00,0.2272
1840.00,0.2271
1839.00,0.2268
1838.00,0.2267
1837.00,0.2266
1836.00,0.2267
1835.00,0.2267
1834.00,0.2268
1833.00,0.2268
1832.00,0.2268
1831.00,0.2266
1830.00,0.2264
1829.00,0.2265
1828.00,0.2267
1827.00,0.2267
1826.00,0.2266
1825.00,0.2265
1824.00,0.2266
1823.00,0.2267
1822.00,0.2268
1821.00,0.2268
1820.00,0.2267
1819.00,0.2266
1818.00,0.2265
1817.00,0.2266
1816.00,0.2267
1815.00,0.2267
1814.00,0.2266
1813.00,0.2266
1812.00,0.2266
1811.00,0.2267
1810.00,0.2269
1809.00,0.2273
1808.00,0.2277
1807.00,0.2280
1806.00,0.2283
1805.00,0.2286
1804.00,0.2288
1803.00,0.2291
1802.00,0.2294
1801.00,0.2299
1800.00,0.2305
1799.00,0.2310
1798.00,0.2314
1797.00,0.2318
1796.00,0.2323
1795.00,0.2328
1794.00,0.2332
1793.00,0.2336
1792.00,0.2341
1791.00,0.2347
1790.00,0.2353
1789.00,0.2359
1788.00,0.2364
1787.00,0.2367
1786.00,0.2369
1785.00,0.2373
1784.00,0.2377
1783.00,0.2380
1782.00,0.2383
1781.00,0.2386
1780.00,0.2391
1779.00,0.2396
1778.00,0.2402
1777.00,0.2407
1776.00,0.2412
1775.00,0.2416
1774.00,0.2419
1773.00,0.2423
1772.00,0.2430
1771.00,0.2437
1770.00,0.2444
1769.00,0.2449
1768.00,0.2454
1767.00,0.2460
1766.00,0.2466
1765.00,0.2473
1764.00,0.2479
1763.00,0.2485
1762.00,0.2492
1761.00,0.2501
1760.00,0.2511
1759.00,0.2522
1758.00,0.2533
1757.00,0.2546
1756.00,0.2563
1755.00,0.2579
1754.00,0.2595
1753.00,0.2611
1752.00,0.2630
1751.00,0.2654
1750.00,0.2684
1749.00,0.2719
1748.00,0.2758
1747.00,0.2801
1746.00,0.2847
1745.00,0.2898
1744.00,0.2955
1743.00,0.3015
1742.00,0.3077
1741.00,0.3141
1740.00,0.3203
1739.00,0.3262
1738.00,0.3312
1737.00,0.3352
1736.00,0.3383
1735.00,0.3406
1734.00,0.3422
1733.00,0.3434
1732.00,0.3437
1731.00,0.3430
1730.00,0.3414
1729.00,0.3393
1728.00,0.3368
1727.00,0.3340
1726.00,0.3310
1725.00,0.3281
1724.00,0.3254
1723.00,0.3228
1722.00,0.3206
1721.00,0.3187
1720.00,0.3167
1719.00,0.3143
1718.00,0.3120
1717.00,0.3108
1716.00,0.3105
1715.00,0.3104
1714.00,0.3102
1713.00,0.3101
1712.00,0.3100
1711.00,0.3100
1710.00,0.3102
1709.00,0.3105
1708.00,0.3110
1707.00,0.3114
1706.00,0.3116
1705.00,0.3120
1704.00,0.3125
1703.00,0.3128
1702.00,0.3126
1701.00,0.3115
1700.00,0.3097
1699.00,0.3078
1698.00,0.3062
1697.00,0.3053
1696.00,0.3049
1695.00,0.3050
1694.00,0.3054
1693.00,0.3058
1692.00,0.3062
1691.00,0.3064
1690.00,0.3068
1689.00,0.3075
1688.00,0.3084
1687.00,0.3093
1686.00,0.3101
1685.00,0.3111
1684.00,0.3129
1683.00,0.3147
1682.00,0.3160
1681.00,0.3170
1680.00,0.3183
1679.00,0.3198
1678.00,0.3214
1677.00,0.3230
1676.00,0.3247
1675.00,0.3262
1674.00,0.3275
1673.00,0.3289
1672.00,0.3303
1671.00,0.3316
1670.00,0.3332
1669.00,0.3352
1668.00,0.3372
1667.00,0.3389
1666.00,0.3405
1665.00,0.3421
1664.00,0.3438
1663.00,0.3456
1662.00,0.3474
1661.00,0.3494
1660.00,0.3513
1659.00,0.3530
1658.00,0.3545
1657.00,0.3562
1656.00,0.3578
1655.00,0.3592
1654.00,0.3607
1653.00,0.3634
1652.00,0.3663
1651.00,0.3683
1650.00,0.3696
1649.00,0.3707
1648.00,0.3720
1647.00,0.3740
1646.00,0.3765
1645.00,0.3791
1644.00,0.3815
1643.00,0.3836
1642.00,0.3856
1641.00,0.3878
1640.00,0.3902
1639.00,0.3925
1638.00,0.3947
1637.00,0.3974
1636.00,0.4010
1635.00,0.4048
1634.00,0.4080
1633.00,0.4107
1632.00,0.4133
1631.00,0.4158
1630.00,0.4184
1629.00,0.4216
1628.00,0.4251
1627.00,0.4287
1626.00,0.4323
1625.00,0.4363
1624.00,0.4411
1623.00,0.4465
1622.00,0.4524
1621.00,0.4588
1620.00,0.4655
1619.00,0.4728
1618.00,0.4813
1617.00,0.4924
1616.00,0.5054
1615.00,0.5178
1614.00,0.5290
1613.00,0.5401
1612.00,0.5517
1611.00,0.5636
1610.00,0.5752
1609.00,0.5869
1608.00,0.5985
1607.00,0.6092
1606.00,0.6187
1605.00,0.6276
1604.00,0.6363
1603.00,0.6444
1602.00,0.6519
1601.00,0.6597
1600.00,0.6685
1599.00,0.6778
1598.00,0.6881
1597.00,0.7009
1596.00,0.7173
1595.00,0.7373
1594.00,0.7615
1593.00,0.7922
1592.00,0.8315
1591.00,0.8810
1590.00,0.9433
1589.00,1.0238
1588.00,1.1288
1587.00,1.2628
1586.00,1.4304
1585.00,1.6419
1584.00,1.9154
1583.00,2.2587
1582.00,2.6289
1581.00,2.9689
1580.00,3.3207
1579.00,3.1773
1578.00,2.6112
1577.00,2.1864
1576.00,1.8711
1575.00,1.6303
1574.00,1.4510
1573.00,1.3174
1572.00,1.2119
1571.00,1.1229
1570.00,1.0511
1569.00,1.0035
1568.00,0.9830
1567.00,0.9866
1566.00,1.0133
1565.00,1.0660
1564.00,1.1448
1563.00,1.2412
1562.00,1.3430
1561.00,1.4395
1560.00,1.4941
1559.00,1.4346
1558.00,1.2938
1557.00,1.1574
1556.00,1.0385
1555.00,0.9278
1554.00,0.8294
1553.00,0.7513
1552.00,0.6927
1551.00,0.6463
1550.00,0.6078
1549.00,0.5769
1548.00,0.5536
1547.00,0.5353
1546.00,0.5197
1545.00,0.5065
1544.00,0.4960
1543.00,0.4877
1542.00,0.4802
1541.00,0.4729
1540.00,0.4661
1539.00,0.4597
1538.00,0.4537
1537.00,0.4488
1536.00,0.4446
1535.00,0.4401
1534.00,0.4356
1533.00,0.4324
1532.00,0.4312
1531.00,0.4312
1530.00,0.4319
1529.00,0.4328
1528.00,0.4333
1527.00,0.4327
1526.00,0.4309
1525.00,0.4284
1524.00,0.4259
1523.00,0.4232
1522.00,0.4210
1521.00,0.4205
1520.00,0.4216
1519.00,0.4235
1518.00,0.4261
1517.00,0.4299
1516.00,0.4346
1515.00,0.4390
1514.00,0.4427
1513.00,0.4462
1512.00,0.4498
1511.00,0.4536
1510.00,0.4576
1509.00,0.4628
1508.00,0.4703
1507.00,0.4816
1506.00,0.4953
1505.00,0.5080
1504.00,0.5186
1503.00,0.5278
1502.00,0.5366
1501.00,0.5460
1500.00,0.5557
1499.00,0.5655
1498.00,0.5762
1497.00,0.5893
1496.00,0.6044
1495.00,0.6196
1494.00,0.6342
1493.00,0.6492
1492.00,0.6653
1491.00,0.6828
1490.00,0.7026
1489.00,0.7252
1488.00,0.7499
1487.00,0.7766
1486.00,0.8064
1485.00,0.8408
1484.00,0.8800
1483.00,0.9242
1482.00,0.9753
1481.00,1.0343
1480.00,1.0993
1479.00,1.1693
1478.00,1.2482
1477.00,1.3418
1476.00,1.4515
1475.00,1.5772
1474.00,1.7291
1473.00,1.9277
1472.00,2.1830
1471.00,2.4789
1470.00,2.8053
1469.00,3.2106
1468.00,3.7370
1467.00,3.9646
1466.00,3.9142
1465.00,4.0910
1464.00,4.4352
1463.00,4.0714
1462.00,3.9609
1461.00,3.9623
1460.00,3.8193
1459.00,3.9101
1458.00,3.6730
1457.00,3.5479
1456.00,3.5123
1455.00,3.4638
1454.00,3.5435
1453.00,3.7268
1452.00,3.8178
1451.00,3.7243
1450.00,3.6862
1449.00,3.8585
1448.00,3.8826
1447.00,3.5706
1446.00,3.3661
1445.00,3.1936
1444.00,2.9460
1443.00,2.6972
1442.00,2.5062
1441.00,2.3578
1440.00,2.2223
1439.00,2.0878
1438.00,1.9534
1437.00,1.8181
1436.00,1.6887
1435.00,1.5751
1434.00,1.4773
1433.00,1.3874
1432.00,1.3007
1431.00,1.2192
1430.00,1.1468
1429.00,1.0854
1428.00,1.0352
1427.00,0.9952
1426.00,0.9629
1425.00,0.9358
1424.00,0.9136
1423.00,0.8967
1422.00,0.8843
1421.00,0.8741
1420.00,0.8645
1419.00,0.8558
1418.00,0.8487
1417.00,0.8431
1416.00,0.8387
1415.00,0.8357
1414.00,0.8340
1413.00,0.8335
1412.00,0.8344
1411.00,0.8364
1410.00,0.8386
1409.00,0.8394
1408.00,0.8370
1407.00,0.8303
1406.00,0.8180
1405.00,0.8000
1404.00,0.7779
1403.00,0.7546
1402.00,0.7320
1401.00,0.7113
1400.00,0.6933
1399.00,0.6798
1398.00,0.6711
1397.00,0.6663
1396.00,0.6645
1395.00,0.6664
1394.00,0.6727
1393.00,0.6847
1392.00,0.7044
1391.00,0.7343
1390.00,0.7771
1389.00,0.8359
1388.00,0.9146
1387.00,1.0134
1386.00,1.1262
1385.00,1.2438
1384.00,1.3624
1383.00,1.4837
1382.00,1.6117
1381.00,1.7510
1380.00,1.9064
1379.00,2.0699
1378.00,2.2057
1377.00,2.2635
1376.00,2.2203
1375.00,2.0946
1374.00,1.9295
1373.00,1.7687
1372.00,1.6343
1371.00,1.5305
1370.00,1.4567
1369.00,1.4106
1368.00,1.3848
1367.00,1.3649
1366.00,1.3322
1365.00,1.2752
1364.00,1.1961
1363.00,1.1089
1362.00,1.0288
1361.00,0.9640
1360.00,0.9148
1359.00,0.8786
1358.00,0.8522
1357.00,0.8337
1356.00,0.8215
1355.00,0.8145
1354.00,0.8113
1353.00,0.8107
1352.00,0.8116
1351.00,0.8130
1350.00,0.8142
1349.00,0.8149
1348.00,0.8153
1347.00,0.8155
1346.00,0.8155
1345.00,0.8151
1344.00,0.8137
1343.00,0.8108
1342.00,0.8059
1341.00,0.7985
1340.00,0.7887
1339.00,0.7768
1338.00,0.7632
1337.00,0.7487
1336.00,0.7335
1335.00,0.7183
1334.00,0.7033
1333.00,0.6888
1332.00,0.6752
1331.00,0.6627
1330.00,0.6518
1329.00,0.6428
1328.00,0.6357
1327.00,0.6306
1326.00,0.6274
1325.00,0.6257
1324.00,0.6252
1323.00,0.6257
1322.00,0.6270
1321.00,0.6287
1320.00,0.6308
1319.00,0.6328
1318.00,0.6345
1317.00,0.6354
1316.00,0.6359
1315.00,0.6365
1314.00,0.6380
1313.00,0.6406
1312.00,0.6440
1311.00,0.6478
1310.00,0.6516
1309.00,0.6553
1308.00,0.6588
1307.00,0.6619
1306.00,0.6641
1305.00,0.6651
1304.00,0.6645
1303.00,0.6626
1302.00,0.6596
1301.00,0.6558
1300.00,0.6512
1299.00,0.6457
1298.00,0.6392
1297.00,0.6320
1296.00,0.6248
1295.00,0.6182
1294.00,0.6126
1293.00,0.6077
1292.00,0.6034
1291.00,0.5996
1290.00,0.5960
1289.00,0.5928
1288.00,0.5900
1287.00,0.5876
1286.00,0.5855
1285.00,0.5833
1284.00,0.5811
1283.00,0.5788
1282.00,0.5766
1281.00,0.5744
1280.00,0.5721
1279.00,0.5698
1278.00,0.5674
1277.00,0.5650
1276.00,0.5626
1275.00,0.5604
1274.00,0.5586
1273.00,0.5575
1272.00,0.5573
1271.00,0.5582
1270.00,0.5601
1269.00,0.5625
1268.00,0.5644
1267.00,0.5646
1266.00,0.5623
1265.00,0.5580
1264.00,0.5526
1263.00,0.5476
1262.00,0.5438
1261.00,0.5413
1260.00,0.5399
1259.00,0.5388
1258.00,0.5378
1257.00,0.5364
1256.00,0.5350
1255.00,0.5337
1254.00,0.5330
1253.00,0.5328
1252.00,0.5333
1251.00,0.5343
1250.00,0.5356
1249.00,0.5368
1248.00,0.5378
1247.00,0.5383
1246.00,0.5382
1245.00,0.5372
1244.00,0.5354
1243.00,0.5330
1242.00,0.5302
1241.00,0.5272
1240.00,0.5242
1239.00,0.5214
1238.00,0.5188
1237.00,0.5166
1236.00,0.5146
1235.00,0.5133
1234.00,0.5126
1233.00,0.5127
1232.00,0.5139
1231.00,0.5163
1230.00,0.5194
1229.00,0.5221
1228.00,0.5234
1227.00,0.5227
1226.00,0.5198
1225.00,0.5154
1224.00,0.5104
1223.00,0.5057
1222.00,0.5019
1221.00,0.4991
1220.00,0.4972
1219.00,0.4959
1218.00,0.4954
1217.00,0.4956
1216.00,0.4967
1215.00,0.4987
1214.00,0.5010
1213.00,0.5029
1212.00,0.5037
1211.00,0.5031
1210.00,0.5016
1209.00,0.4999
1208.00,0.4985
1207.00,0.4978
1206.00,0.4977
1205.00,0.4981
1204.00,0.4989
1203.00,0.4997
1202.00,0.5004
1201.00,0.5005
1200.00,0.5003
1199.00,0.4997
1198.00,0.4986
1197.00,0.4968
1196.00,0.4943
1195.00,0.4914
1194.00,0.4885
1193.00,0.4857
1192.00,0.4832
1191.00,0.4810
1190.00,0.4792
1189.00,0.4778
1188.00,0.4768
1187.00,0.4763
1186.00,0.4761
1185.00,0.4759
1184.00,0.4758
1183.00,0.4758
1182.00,0.4761
1181.00,0.4767
1180.00,0.4777
1179.00,0.4792
1178.00,0.4810
1177.00,0.4832
1176.00,0.4861
1175.00,0.4898
1174.00,0.4944
1173.00,0.4998
1172.00,0.5056
1171.00,0.5110
1170.00,0.5152
1169.00,0.5176
1168.00,0.5183
1167.00,0.5181
1166.00,0.5175
1165.00,0.5172
1164.00,0.5174
1163.00,0.5184
1162.00,0.5201
1161.00,0.5223
1160.00,0.5248
1159.00,0.5276
1158.00,0.5303
1157.00,0.5326
1156.00,0.5344
1155.00,0.5353
1154.00,0.5353
1153.00,0.5343
1152.00,0.5323
1151.00,0.5298
1150.00,0.5270
1149.00,0.5239
1148.00,0.5207
1147.00,0.5178
1146.00,0.5151
1145.00,0.5128
1144.00,0.5113
1143.00,0.5112
1142.00,0.5127
1141.00,0.5160
1140.00,0.5211
1139.00,0.5281
1138.00,0.5369
1137.00,0.5473
1136.00,0.5589
1135.00,0.5707
1134.00,0.5809
1133.00,0.5872
1132.00,0.5875
1131.00,0.5814
1130.00,0.5704
1129.00,0.5572
1128.00,0.5447
1127.00,0.5348
1126.00,0.5279
1125.00,0.5234
1124.00,0.5202
1123.00,0.5174
1122.00,0.5147
1121.00,0.5122
1120.00,0.5103
1119.00,0.5101
1118.00,0.5119
1117.00,0.5161
1116.00,0.5220
1115.00,0.5282
1114.00,0.5325
1113.00,0.5330
1112.00,0.5296
1111.00,0.5242
1110.00,0.5192
1109.00,0.5163
1108.00,0.5159
1107.00,0.5169
1106.00,0.5179
1105.00,0.5173
1104.00,0.5141
1103.00,0.5083
1102.00,0.5008
1101.00,0.4929
1100.00,0.4854
1099.00,0.4785
1098.00,0.4722
1097.00,0.4666
1096.00,0.4619
1095.00,0.4585
1094.00,0.4563
1093.00,0.4552
1092.00,0.4550
1091.00,0.4557
1090.00,0.4576
1089.00,0.4607
1088.00,0.4649
1087.00,0.4704
1086.00,0.4770
1085.00,0.4847
1084.00,0.4936
1083.00,0.5036
1082.00,0.5146
1081.00,0.5262
1080.00,0.5380
1079.00,0.5491
1078.00,0.5584
1077.00,0.5643
1076.00,0.5659
1075.00,0.5629
1074.00,0.5562
1073.00,0.5473
1072.00,0.5381
1071.00,0.5300
1070.00,0.5234
1069.00,0.5182
1068.00,0.5142
1067.00,0.5113
1066.00,0.5093
1065.00,0.5081
1064.00,0.5074
1063.00,0.5071
1062.00,0.5073
1061.00,0.5080
1060.00,0.5088
1059.00,0.5094
1058.00,0.5090
1057.00,0.5077
1056.00,0.5053
1055.00,0.5025
1054.00,0.4995
1053.00,0.4968
1052.00,0.4951
1051.00,0.4949
1050.00,0.4961
1049.00,0.4983
1048.00,0.5012
1047.00,0.5042
1046.00,0.5070
1045.00,0.5095
1044.00,0.5116
1043.00,0.5136
1042.00,0.5159
1041.00,0.5187
1040.00,0.5219
1039.00,0.5250
1038.00,0.5278
1037.00,0.5300
1036.00,0.5320
1035.00,0.5343
1034.00,0.5372
1033.00,0.5406
1032.00,0.5446
1031.00,0.5489
1030.00,0.5530
1029.00,0.5562
1028.00,0.5573
1027.00,0.5555
1026.00,0.5503
1025.00,0.5424
1024.00,0.5335
1023.00,0.5246
1022.00,0.5166
1021.00,0.5098
1020.00,0.5040
1019.00,0.4993
1018.00,0.4955
1017.00,0.4923
1016.00,0.4898
1015.00,0.4879
1014.00,0.4867
1013.00,0.4862
1012.00,0.4867
1011.00,0.4881
1010.00,0.4904
1009.00,0.4936
1008.00,0.4975
1007.00,0.5022
1006.00,0.5076
1005.00,0.5135
1004.00,0.5200
1003.00,0.5271
1002.00,0.5346
1001.00,0.5419
1000.00,0.5484
999.00,0.5533
998.00,0.5560
997.00,0.5561
996.00,0.5538
995.00,0.5497
994.00,0.5443
993.00,0.5380
992.00,0.5310
991.00,0.5236
990.00,0.5160
989.00,0.5082
988.00,0.5008
987.00,0.4944
986.00,0.4896
985.00,0.4864
984.00,0.4849
983.00,0.4848
982.00,0.4853
981.00,0.4858
980.00,0.4857
979.00,0.4849
978.00,0.4836
977.00,0.4821
976.00,0.4805
975.00,0.4789
974.00,0.4771
973.00,0.4750
972.00,0.4726
971.00,0.4702
970.00,0.4679
969.00,0.4660
968.00,0.4645
967.00,0.4634
966.00,0.4623
965.00,0.4609
964.00,0.4591
963.00,0.4568
962.00,0.4541
961.00,0.4513
960.00,0.4486
959.00,0.4464
958.00,0.4446
957.00,0.4433
956.00,0.4420
955.00,0.4405
954.00,0.4384
953.00,0.4357
952.00,0.4325
951.00,0.4294
950.00,0.4269
949.00,0.4251
948.00,0.4240
947.00,0.4237
946.00,0.4240
945.00,0.4248
944.00,0.4261
943.00,0.4279
942.00,0.4299
941.00,0.4319
940.00,0.4336
939.00,0.4347
938.00,0.4351
937.00,0.4347
936.00,0.4335
935.00,0.4319
934.00,0.4299
933.00,0.4277
932.00,0.4254
931.00,0.4232
930.00,0.4216
929.00,0.4209
928.00,0.4211
927.00,0.4224
926.00,0.4251
925.00,0.4297
924.00,0.4364
923.00,0.4448
922.00,0.4533
921.00,0.4595
920.00,0.4610
919.00,0.4568
918.00,0.4478
917.00,0.4359
916.00,0.4233
915.00,0.4116
914.00,0.4016
913.00,0.3935
912.00,0.3869
911.00,0.3817
910.00,0.3774
909.00,0.3739
908.00,0.3709
907.00,0.3684
906.00,0.3664
905.00,0.3650
904.00,0.3645
903.00,0.3649
902.00,0.3659
901.00,0.3673
900.00,0.3691
899.00,0.3716
898.00,0.3747
897.00,0.3782
896.00,0.3821
895.00,0.3862
894.00,0.3907
893.00,0.3954
892.00,0.4001
891.00,0.4046
890.00,0.4085
889.00,0.4110
888.00,0.4118
887.00,0.4108
886.00,0.4083
885.00,0.4049
884.00,0.4017
883.00,0.3997
882.00,0.3990
881.00,0.3994
880.00,0.4006
879.00,0.4023
878.00,0.4041
877.00,0.4060
876.00,0.4081
875.00,0.4104
874.00,0.4131
873.00,0.4159
872.00,0.4187
871.00,0.4216
870.00,0.4249
869.00,0.4289
868.00,0.4338
867.00,0.4400
866.00,0.4476
865.00,0.4564
864.00,0.4656
863.00,0.4737
862.00,0.4786
861.00,0.4785
860.00,0.4730
859.00,0.4639
858.00,0.4538
857.00,0.4448
856.00,0.4377
855.00,0.4325
854.00,0.4287
853.00,0.4259
852.00,0.4237
851.00,0.4218
850.00,0.4200
849.00,0.4178
848.00,0.4151
847.00,0.4120
846.00,0.4088
845.00,0.4057
844.00,0.4030
843.00,0.4012
842.00,0.4009
841.00,0.4030
840.00,0.4079
839.00,0.4158
838.00,0.4259
837.00,0.4360
836.00,0.4428
835.00,0.4437
834.00,0.4381
833.00,0.4278
832.00,0.4162
831.00,0.4065
830.00,0.4001
829.00,0.3972
828.00,0.3970
827.00,0.3988
826.00,0.4021
825.00,0.4066
824.00,0.4121
823.00,0.4184
822.00,0.4254
821.00,0.4329
820.00,0.4405
819.00,0.4483
818.00,0.4556
817.00,0.4620
816.00,0.4667
815.00,0.4693
814.00,0.4694
813.00,0.4668
812.00,0.4619
811.00,0.4554
810.00,0.4482
809.00,0.4414
808.00,0.4352
807.00,0.4299
806.00,0.4254
805.00,0.4211
804.00,0.4166
803.00,0.4115
802.00,0.4059
801.00,0.4001
800.00,0.3948
799.00,0.3907
798.00,0.3879
797.00,0.3860
796.00,0.3848
795.00,0.3840
794.00,0.3835
793.00,0.3832
792.00,0.3832
791.00,0.3839
790.00,0.3850
789.00,0.3863
788.00,0.3875
787.00,0.3887
786.00,0.3901
785.00,0.3922
784.00,0.3952
783.00,0.3988
782.00,0.4026
781.00,0.4061
780.00,0.4092
779.00,0.4118
778.00,0.4142
777.00,0.4163
776.00,0.4184
775.00,0.4205
774.00,0.4226
773.00,0.4246
772.00,0.4264
771.00,0.4283
770.00,0.4308
769.00,0.4337
768.00,0.4370
767.00,0.4402
766.00,0.4432
765.00,0.4457
764.00,0.4480
763.00,0.4504
762.00,0.4532
761.00,0.4566
760.00,0.4602
759.00,0.4636
758.00,0.4661
757.00,0.4676
756.00,0.4680
755.00,0.4681
754.00,0.4689
753.00,0.4705
752.00,0.4731
751.00,0.4764
750.00,0.4801
749.00,0.4839
748.00,0.4878
747.00,0.4918
746.00,0.4962
745.00,0.5014
744.00,0.5075
743.00,0.5145
742.00,0.5223
741.00,0.5302
740.00,0.5376
739.00,0.5444
738.00,0.5507
737.00,0.5568
736.00,0.5628
735.00,0.5689
734.00,0.5751
733.00,0.5816
732.00,0.5888
731.00,0.5975
730.00,0.6088
729.00,0.6232
728.00,0.6416
727.00,0.6649
726.00,0.6935
725.00,0.7269
724.00,0.7614
723.00,0.7906
722.00,0.8054
721.00,0.7976
720.00,0.7666
719.00,0.7206
718.00,0.6711
717.00,0.6260
716.00,0.5892
715.00,0.5611
714.00,0.5402
713.00,0.5243
712.00,0.5119
711.00,0.5022
710.00,0.4950
709.00,0.4897
708.00,0.4853
707.00,0.4814
706.00,0.4778
705.00,0.4742
704.00,0.4706
703.00,0.4672
702.00,0.4642
701.00,0.4614
700.00,0.4579
699.00,0.4526
698.00,0.4450
697.00,0.4352
696.00,0.4246
695.00,0.4149
694.00,0.4071
693.00,0.4012
692.00,0.3966
691.00,0.3928
690.00,0.3896
689.00,0.3868
688.00,0.3845
687.00,0.3826
686.00,0.3813
685.00,0.3805
684.00,0.3802
683.00,0.3803
682.00,0.3808
681.00,0.3819
680.00,0.3833
679.00,0.3851
678.00,0.3870
677.00,0.3890
676.00,0.3910
675.00,0.3931
674.00,0.3953
673.00,0.3973
672.00,0.3987
671.00,0.3997
670.00,0.4001
669.00,0.4000
668.00,0.3992
667.00,0.3980
666.00,0.3971
665.00,0.3961
664.00,0.3947
663.00,0.3931
662.00,0.3915
661.00,0.3903
660.00,0.3891
659.00,0.3878
658.00,0.3867
657.00,0.3858
656.00,0.3851
655.00,0.3847
654.00,0.3843
653.00,0.3838
652.00,0.3833
651.00,0.3828
650.00,0.3827
649.00,0.3829
648.00,0.3834
647.00,0.3843
646.00,0.3852
645.00,0.3861
644.00,0.3870
643.00,0.3882
642.00,0.3897
641.00,0.3912
640.00,0.3923
639.00,0.3932
638.00,0.3939
637.00,0.3944
636.00,0.3948
635.00,0.3954
634.00,0.3963
633.00,0.3974
632.00,0.3986
631.00,0.4000
630.00,0.4013
629.00,0.4027
628.00,0.4041
627.00,0.4058
626.00,0.4076
625.00,0.4094
624.00,0.4110
623.00,0.4126
622.00,0.4140
621.00,0.4151
620.00,0.4159
619.00,0.4165
618.00,0.4169
617.00,0.4171
616.00,0.4168
615.00,0.4159
614.00,0.4145
613.00,0.4127
612.00,0.4110
611.00,0.4095
610.00,0.4084
609.00,0.4072
608.00,0.4057
607.00,0.4039
606.00,0.4020
605.00,0.4006
604.00,0.3997
603.00,0.3993
602.00,0.3992
601.00,0.3992
600.00,0.3993
599.00,0.3998
598.00,0.4006
597.00,0.4018
596.00,0.4035
595.00,0.4055
594.00,0.4078
593.00,0.4102
592.00,0.4124
591.00,0.4143
590.00,0.4161
589.00,0.4180
588.00,0.4202
587.00,0.4226
586.00,0.4249
585.00,0.4272
584.00,0.4296
583.00,0.4321
582.00,0.4344
581.00,0.4363
580.00,0.4382
579.00,0.4404
578.00,0.4430
577.00,0.4460
576.00,0.4491
575.00,0.4522
574.00,0.4547
573.00,0.4568
572.00,0.4589
571.00,0.4611
570.00,0.4635
569.00,0.4661
568.00,0.4687
567.00,0.4711
566.00,0.4730
565.00,0.4745
564.00,0.4761
563.00,0.4782
562.00,0.4804
561.00,0.4822
560.00,0.4837
559.00,0.4848
558.00,0.4859
557.00,0.4870
556.00,0.4880
555.00,0.4888
554.00,0.4892
553.00,0.4890
552.00,0.4886
551.00,0.4881
550.00,0.4876
