Created as New Dataset,
cm-1,A
4000.00,0.3040
3999.00,0.3037
3998.00,0.3034
3997.00,0.3031
3996.00,0.3028
3995.00,0.3024
3994.00,0.3021
3993.00,0.3018
3992.00,0.3014
3991.00,0.3010
3990.00,0.3005
3989.00,0.3000
3988.00,0.2996
3987.00,0.2991
3986.00,0.2988
3985.00,0.2984
3984.00,0.2981
3983.00,0.2978
3982.00,0.2974
3981.00,0.2971
3980.00,0.2967
3979.00,0.2964
3978.00,0.2961
3977.00,0.2959
3976.00,0.2957
3975.00,0.2954
3974.00,0.2952
3973.00,0.2950
3972.00,0.2948
3971.00,0.2945
3970.00,0.2943
3969.00,0.2942
3968.00,0.2940
3967.00,0.2940
3966.00,0.2939
3965.00,0.2937
3964.00,0.2936
3963.00,0.2933
3962.00,0.2931
3961.00,0.2929
3960.00,0.2927
3959.00,0.2926
3958.00,0.2924
3957.00,0.2922
3956.00,0.2920
3955.00,0.2918
3954.00,0.2917
3953.00,0.2916
3952.00,0.2914
3951.00,0.2913
3950.00,0.2911
3949.00,0.2909
3948.00,0.2907
3947.00,0.2905
3946.00,0.2903
3945.00,0.2901
3944.00,0.2900
3943.00,0.2899
3942.00,0.2898
3941.00,0.2897
3940.00,0.2896
3939.00,0.2895
3938.00,0.2894
3937.00,0.2893
3936.00,0.2894
3935.00,0.2894
3934.00,0.2894
3933.00,0.2894
3932.00,0.2894
3931.00,0.2894
3930.00,0.2894
3929.00,0.2895
3928.00,0.2896
3927.00,0.2896
3926.00,0.2896
3925.00,0.2895
3924.00,0.2895
3923.00,0.2895
3922.00,0.2895
3921.00,0.2895
3920.00,0.2894
3919.00,0.2893
3918.00,0.2892
3917.00,0.2891
3916.00,0.2890
3915.00,0.2890
3914.00,0.2889
3913.00,0.2888
3912.00,0.2887
3911.00,0.2886
3910.00,0.2886
3909.00,0.2886
3908.00,0.2886
3907.00,0.2888
3906.00,0.2889
3905.00,0.2891
3904.00,0.2893
3903.00,0.2896
3902.00,0.2897
3901.00,0.2898
3900.00,0.2896
3899.00,0.2894
3898.00,0.2892
3897.00,0.2890
3896.00,0.2888
3895.00,0.2887
3894.00,0.2886
3893.00,0.2886
3892.00,0.2885
3891.00,0.2884
3890.00,0.2884
3889.00,0.2884
3888.00,0.2885
3887.00,0.2884
3886.00,0.2884
3885.00,0.2883
3884.00,0.2883
3883.00,0.2883
3882.00,0.2882
3881.00,0.2880
3880.00,0.2878
3879.00,0.2876
3878.00,0.2876
3877.00,0.2875
3876.00,0.2874
3875.00,0.2873
3874.00,0.2872
3873.00,0.2872
3872.00,0.2872
3871.00,0.2872
3870.00,0.2871
3869.00,0.2871
3868.00,0.2871
3867.00,0.2871
3866.00,0.2870
3865.00,0.2868
3864.00,0.2866
3863.00,0.2864
3862.00,0.2861
3861.00,0.2859
3860.00,0.2857
3859.00,0.2856
3858.00,0.2856
3857.00,0.2858
3856.00,0.2859
3855.00,0.2860
3854.00,0.2861
3853.00,0.2863
3852.00,0.2864
3851.00,0.2862
3850.00,0.2859
3849.00,0.2855
3848.00,0.2852
3847.00,0.2849
3846.00,0.2847
3845.00,0.2846
3844.00,0.2846
3843.00,0.2847
3842.00,0.2849
3841.00,0.2851
3840.00,0.2852
3839.00,0.2852
3838.00,0.2853
3837.00,0.2853
3836.00,0.2852
3835.00,0.2852
3834.00,0.2850
3833.00,0.2847
3832.00,0.2843
3831.00,0.2841
3830.00,0.2839
3829.00,0.2837
3828.00,0.2836
3827.00,0.2834
3826.00,0.2833
3825.00,0.2834
3824.00,0.2835
3823.00,0.2836
3822.00,0.2836
3821.00,0.2836
3820.00,0.2836
3819.00,0.2837
3818.00,0.2836
3817.00,0.2834
3816.00,0.2830
3815.00,0.2826
3814.00,0.2822
3813.00,0.2818
3812.00,0.2815
3811.00,0.2812
3810.00,0.2810
3809.00,0.2809
3808.00,0.2808
3807.00,0.2807
3806.00,0.2808
3805.00,0.2808
3804.00,0.2808
3803.00,0.2807
3802.00,0.2805
3801.00,0.2804
3800.00,0.2803
3799.00,0.2802
3798.00,0.2800
3797.00,0.2796
3796.00,0.2792
3795.00,0.2789
3794.00,0.2785
3793.00,0.2782
3792.00,0.2779
3791.00,0.2777
3790.00,0.2776
3789.00,0.2775
3788.00,0.2773
3787.00,0.2770
3786.00,0.2768
3785.00,0.2765
3784.00,0.2764
3783.00,0.2762
3782.00,0.2761
3781.00,0.2760
3780.00,0.2759
3779.00,0.2758
3778.00,0.2757
3777.00,0.2755
3776.00,0.2753
3775.00,0.2751
3774.00,0.2750
3773.00,0.2749
3772.00,0.2749
3771.00,0.2748
3770.00,0.2748
3769.00,0.2748
3768.00,0.2748
3767.00,0.2747
3766.00,0.2745
3765.00,0.2743
3764.00,0.2741
3763.00,0.2740
3762.00,0.2739
3761.00,0.2738
3760.00,0.2736
3759.00,0.2733
3758.00,0.2731
3757.00,0.2729
3756.00,0.2728
3755.00,0.2728
3754.00,0.2727
3753.00,0.2726
3752.00,0.2725
3751.00,0.2725
3750.00,0.2725
3749.00,0.2726
3748.00,0.2726
3747.00,0.2726
3746.00,0.2724
3745.00,0.2722
3744.00,0.2719
3743.00,0.2718
3742.00,0.2716
3741.00,0.2714
3740.00,0.2711
3739.00,0.2710
3738.00,0.2710
3737.00,0.2710
3736.00,0.2709
3735.00,0.2708
3734.00,0.2707
3733.00,0.2706
3732.00,0.2705
3731.00,0.2703
3730.00,0.2701
3729.00,0.2698
3728.00,0.2695
3727.00,0.2692
3726.00,0.2690
3725.00,0.2689
3724.00,0.2689
3723.00,0.2687
3722.00,0.2685
3721.00,0.2682
3720.00,0.2679
3719.00,0.2677
3718.00,0.2674
3717.00,0.2673
3716.00,0.2672
3715.00,0.2672
3714.00,0.2673
3713.00,0.2673
3712.00,0.2674
3711.00,0.2675
3710.00,0.2675
3709.00,0.2675
3708.00,0.2675
3707.00,0.2673
3706.00,0.2672
3705.00,0.2670
3704.00,0.2669
3703.00,0.2668
3702.00,0.2668
3701.00,0.2669
3700.00,0.2670
3699.00,0.2671
3698.00,0.2672
3697.00,0.2672
3696.00,0.2672
3695.00,0.2673
3694.00,0.2674
3693.00,0.2676
3692.00,0.2679
3691.00,0.2682
3690.00,0.2684
3689.00,0.2686
3688.00,0.2687
3687.00,0.2688
3686.00,0.2687
3685.00,0.2686
3684.00,0.2683
3683.00,0.2681
3682.00,0.2680
3681.00,0.2679
3680.00,0.2679
3679.00,0.2681
3678.00,0.2682
3677.00,0.2684
3676.00,0.2685
3675.00,0.2687
3674.00,0.2689
3673.00,0.2691
3672.00,0.2692
3671.00,0.2692
3670.00,0.2691
3669.00,0.2690
3668.00,0.2689
3667.00,0.2688
3666.00,0.2687
3665.00,0.2687
3664.00,0.2687
3663.00,0.2689
3662.00,0.2690
3661.00,0.2693
3660.00,0.2696
3659.00,0.2699
3658.00,0.2703
3657.00,0.2706
3656.00,0.2710
3655.00,0.2714
3654.00,0.2719
3653.00,0.2724
3652.00,0.2729
3651.00,0.2733
3650.00,0.2737
3649.00,0.2743
3648.00,0.2747
3647.00,0.2751
3646.00,0.2752
3645.00,0.2753
3644.00,0.2754
3643.00,0.2755
3642.00,0.2757
3641.00,0.2760
3640.00,0.2764
3639.00,0.2769
3638.00,0.2775
3637.00,0.2781
3636.00,0.2787
3635.00,0.2793
3634.00,0.2800
3633.00,0.2808
3632.00,0.2818
3631.00,0.2830
3630.00,0.2845
3629.00,0.2863
3628.00,0.2881
3627.00,0.2897
3626.00,0.2908
3625.00,0.2914
3624.00,0.2916
3623.00,0.2915
3622.00,0.2912
3621.00,0.2906
3620.00,0.2898
3619.00,0.2889
3618.00,0.2881
3617.00,0.2875
3616.00,0.2871
3615.00,0.2868
3614.00,0.2866
3613.00,0.2865
3612.00,0.2866
3611.00,0.2867
3610.00,0.2869
3609.00,0.2872
3608.00,0.2874
3607.00,0.2877
3606.00,0.2879
3605.00,0.2880
3604.00,0.2880
3603.00,0.2880
3602.00,0.2879
3601.00,0.2878
3600.00,0.2876
3599.00,0.2874
3598.00,0.2872
3597.00,0.2869
3596.00,0.2867
3595.00,0.2864
3594.00,0.2862
3593.00,0.2861
3592.00,0.2861
3591.00,0.2862
3590.00,0.2863
3589.00,0.2863
3588.00,0.2864
3587.00,0.2865
3586.00,0.2866
3585.00,0.2867
3584.00,0.2869
3583.00,0.2869
3582.00,0.2870
3581.00,0.2870
3580.00,0.2871
3579.00,0.2873
3578.00,0.2875
3577.00,0.2877
3576.00,0.2879
3575.00,0.2881
3574.00,0.2885
3573.00,0.2889
3572.00,0.2893
3571.00,0.2898
3570.00,0.2902
3569.00,0.2907
3568.00,0.2911
3567.00,0.2916
3566.00,0.2922
3565.00,0.2927
3564.00,0.2931
3563.00,0.2935
3562.00,0.2939
3561.00,0.2943
3560.00,0.2947
3559.00,0.2952
3558.00,0.2957
3557.00,0.2963
3556.00,0.2969
3555.00,0.2974
3554.00,0.2980
3553.00,0.2987
3552.00,0.2993
3551.00,0.3000
3550.00,0.3006
3549.00,0.3013
3548.00,0.3019
3547.00,0.3026
3546.00,0.3032
3545.00,0.3039
3544.00,0.3046
3543.00,0.3052
3542.00,0.3059
3541.00,0.3065
3540.00,0.3071
3539.00,0.3077
3538.00,0.3083
3537.00,0.3089
3536.00,0.3096
3535.00,0.3102
3534.00,0.3109
3533.00,0.3116
3532.00,0.3123
3531.00,0.3130
3530.00,0.3137
3529.00,0.3144
3528.00,0.3152
3527.00,0.3160
3526.00,0.3167
3525.00,0.3174
3524.00,0.3182
3523.00,0.3189
3522.00,0.3197
3521.00,0.3204
3520.00,0.3211
3519.00,0.3218
3518.00,0.3225
3517.00,0.3232
3516.00,0.3240
3515.00,0.3248
3514.00,0.3256
3513.00,0.3265
3512.00,0.3274
3511.00,0.3282
3510.00,0.3291
3509.00,0.3299
3508.00,0.3307
3507.00,0.3316
3506.00,0.3325
3505.00,0.3334
3504.00,0.3343
3503.00,0.3352
3502.00,0.3361
3501.00,0.3370
3500.00,0.3378
3499.00,0.3387
3498.00,0.3396
3497.00,0.3405
3496.00,0.3414
3495.00,0.3424
3494.00,0.3434
3493.00,0.3444
3492.00,0.3455
3491.00,0.3465
3490.00,0.3476
3489.00,0.3487
3488.00,0.3497
3487.00,0.3508
3486.00,0.3519
3485.00,0.3530
3484.00,0.3540
3483.00,0.3549
3482.00,0.3559
3481.00,0.3568
3480.00,0.3577
3479.00,0.3586
3478.00,0.3595
3477.00,0.3604
3476.00,0.3613
3475.00,0.3622
3474.00,0.3631
3473.00,0.3641
3472.00,0.3650
3471.00,0.3659
3470.00,0.3668
3469.00,0.3678
3468.00,0.3688
3467.00,0.3699
3466.00,0.3709
3465.00,0.3720
3464.00,0.3731
3463.00,0.3741
3462.00,0.3752
3461.00,0.3763
3460.00,0.3774
3459.00,0.3785
3458.00,0.3797
3457.00,0.3808
3456.00,0.3820
3455.00,0.3832
3454.00,0.3844
3453.00,0.3856
3452.00,0.3868
3451.00,0.3881
3450.00,0.3894
3449.00,0.3907
3448.00,0.3920
3447.00,0.3934
3446.00,0.3948
3445.00,0.3961
3444.00,0.3974
3443.00,0.3986
3442.00,0.3998
3441.00,0.4011
3440.00,0.4024
3439.00,0.4038
3438.00,0.4052
3437.00,0.4065
3436.00,0.4079
3435.00,0.4092
3434.00,0.4106
3433.00,0.4120
3432.00,0.4135
3431.00,0.4149
3430.00,0.4163
3429.00,0.4177
3428.00,0.4192
3427.00,0.4206
3426.00,0.4221
3425.00,0.4236
3424.00,0.4250
3423.00,0.4265
3422.00,0.4281
3421.00,0.4296
3420.00,0.4312
3419.00,0.4328
3418.00,0.4343
3417.00,0.4359
3416.00,0.4375
3415.00,0.4391
3414.00,0.4408
3413.00,0.4425
3412.00,0.4441
3411.00,0.4457
3410.00,0.4474
3409.00,0.4491
3408.00,0.4508
3407.00,0.4525
3406.00,0.4542
3405.00,0.4559
3404.00,0.4577
3403.00,0.4594
3402.00,0.4612
3401.00,0.4630
3400.00,0.4648
3399.00,0.4665
3398.00,0.4683
3397.00,0.4701
3396.00,0.4720
3395.00,0.4738
3394.00,0.4757
3393.00,0.4776
3392.00,0.4795
3391.00,0.4813
3390.00,0.4831
3389.00,0.4850
3388.00,0.4869
3387.00,0.4888
3386.00,0.4908
3385.00,0.4927
3384.00,0.4946
3383.00,0.4965
3382.00,0.4984
3381.00,0.5004
3380.00,0.5025
3379.00,0.5045
3378.00,0.5065
3377.00,0.5086
3376.00,0.5108
3375.00,0.5129
3374.00,0.5151
3373.00,0.5173
3372.00,0.5195
3371.00,0.5217
3370.00,0.5239
3369.00,0.5261
3368.00,0.5284
3367.00,0.5307
3366.00,0.5331
3365.00,0.5356
3364.00,0.5381
3363.00,0.5407
3362.00,0.5432
3361.00,0.5457
3360.00,0.5482
3359.00,0.5508
3358.00,0.5534
3357.00,0.5560
3356.00,0.5585
3355.00,0.5609
3354.00,0.5635
3353.00,0.5661
3352.00,0.5688
3351.00,0.5713
3350.00,0.5738
3349.00,0.5763
3348.00,0.5787
3347.00,0.5811
3346.00,0.5835
3345.00,0.5860
3344.00,0.5885
3343.00,0.5909
3342.00,0.5933
3341.00,0.5955
3340.00,0.5976
3339.00,0.5996
3338.00,0.6014
3337.00,0.6032
3336.00,0.6050
3335.00,0.6067
3334.00,0.6083
3333.00,0.6099
3332.00,0.6114
3331.00,0.6128
3330.00,0.6140
3329.00,0.6151
3328.00,0.6162
3327.00,0.6171
3326.00,0.6180
3325.00,0.6188
3324.00,0.6196
3323.00,0.6203
3322.00,0.6208
3321.00,0.6212
3320.00,0.6215
3319.00,0.6218
3318.00,0.6220
3317.00,0.6222
3316.00,0.6223
3315.00,0.6224
3314.00,0.6223
3313.00,0.6223
3312.00,0.6223
3311.00,0.6222
3310.00,0.6220
3309.00,0.6218
3308.00,0.6216
3307.00,0.6213
3306.00,0.6210
3305.00,0.6207
3304.00,0.6203
3303.00,0.6199
3302.00,0.6195
3301.00,0.6191
3300.00,0.6187
3299.00,0.6184
3298.00,0.6180
3297.00,0.6177
3296.00,0.6173
3295.00,0.6168
3294.00,0.6165
3293.00,0.6162
3292.00,0.6159
3291.00,0.6156
3290.00,0.6153
3289.00,0.6151
3288.00,0.6149
3287.00,0.6147
3286.00,0.6145
3285.00,0.6144
3284.00,0.6143
3283.00,0.6142
3282.00,0.6142
3281.00,0.6142
3280.00,0.6142
3279.00,0.6142
3278.00,0.6143
3277.00,0.6143
3276.00,0.6144
3275.00,0.6144
3274.00,0.6145
3273.00,0.6146
3272.00,0.6149
3271.00,0.6152
3270.00,0.6154
3269.00,0.6157
3268.00,0.6159
3267.00,0.6161
3266.00,0.6164
3265.00,0.6168
3264.00,0.6173
3263.00,0.6177
3262.00,0.6180
3261.00,0.6182
3260.00,0.6185
3259.00,0.6188
3258.00,0.6191
3257.00,0.6194
3256.00,0.6196
3255.00,0.6199
3254.00,0.6201
3253.00,0.6203
3252.00,0.6205
3251.00,0.6207
3250.00,0.6210
3249.00,0.6212
3248.00,0.6214
3247.00,0.6214
3246.00,0.6214
3245.00,0.6214
3244.00,0.6214
3243.00,0.6213
3242.00,0.6211
3241.00,0.6209
3240.00,0.6207
3239.00,0.6204
3238.00,0.6202
3237.00,0.6199
3236.00,0.6196
3235.00,0.6191
3234.00,0.6187
3233.00,0.6182
3232.00,0.6178
3231.00,0.6173
3230.00,0.6167
3229.00,0.6161
3228.00,0.6154
3227.00,0.6148
3226.00,0.6141
3225.00,0.6135
3224.00,0.6128
3223.00,0.6119
3222.00,0.6111
3221.00,0.6102
3220.00,0.6093
3219.00,0.6084
3218.00,0.6075
3217.00,0.6066
3216.00,0.6057
3215.00,0.6047
3214.00,0.6037
3213.00,0.6026
3212.00,0.6015
3211.00,0.6004
3210.00,0.5992
3209.00,0.5981
3208.00,0.5969
3207.00,0.5958
3206.00,0.5948
3205.00,0.5938
3204.00,0.5927
3203.00,0.5915
3202.00,0.5902
3201.00,0.5888
3200.00,0.5874
3199.00,0.5860
3198.00,0.5846
3197.00,0.5831
3196.00,0.5817
3195.00,0.5801
3194.00,0.5785
3193.00,0.5769
3192.00,0.5754
3191.00,0.5739
3190.00,0.5724
3189.00,0.5708
3188.00,0.5691
3187.00,0.5673
3186.00,0.5655
3185.00,0.5637
3184.00,0.5619
3183.00,0.5601
3182.00,0.5583
3181.00,0.5565
3180.00,0.5547
3179.00,0.5527
3178.00,0.5506
3177.00,0.5486
3176.00,0.5466
3175.00,0.5445
3174.00,0.5425
3173.00,0.5405
3172.00,0.5384
3171.00,0.5363
3170.00,0.5342
3169.00,0.5321
3168.00,0.5301
3167.00,0.5280
3166.00,0.5258
3165.00,0.5237
3164.00,0.5215
3163.00,0.5195
3162.00,0.5175
3161.00,0.5156
3160.00,0.5136
3159.00,0.5116
3158.00,0.5095
3157.00,0.5075
3156.00,0.5055
3155.00,0.5035
3154.00,0.5015
3153.00,0.4996
3152.00,0.4976
3151.00,0.4958
3150.00,0.4940
3149.00,0.4922
3148.00,0.4905
3147.00,0.4887
3146.00,0.4870
3145.00,0.4853
3144.00,0.4837
3143.00,0.4820
3142.00,0.4804
3141.00,0.4789
3140.00,0.4773
3139.00,0.4758
3138.00,0.4743
3137.00,0.4729
3136.00,0.4716
3135.00,0.4703
3134.00,0.4690
3133.00,0.4677
3132.00,0.4664
3131.00,0.4651
3130.00,0.4639
3129.00,0.4629
3128.00,0.4618
3127.00,0.4608
3126.00,0.4598
3125.00,0.4589
3124.00,0.4581
3123.00,0.4574
3122.00,0.4567
3121.00,0.4560
3120.00,0.4554
3119.00,0.4548
3118.00,0.4542
3117.00,0.4536
3116.00,0.4530
3115.00,0.4526
3114.00,0.4522
3113.00,0.4519
3112.00,0.4517
3111.00,0.4516
3110.00,0.4515
3109.00,0.4514
3108.00,0.4514
3107.00,0.4513
3106.00,0.4513
3105.00,0.4514
3104.00,0.4515
3103.00,0.4518
3102.00,0.4520
3101.00,0.4523
3100.00,0.4526
3099.00,0.4529
3098.00,0.4533
3097.00,0.4538
3096.00,0.4545
3095.00,0.4553
3094.00,0.4562
3093.00,0.4574
3092.00,0.4586
3091.00,0.4600
3090.00,0.4615
3089.00,0.4631
3088.00,0.4648
3087.00,0.4666
3086.00,0.4685
3085.00,0.4705
3084.00,0.4726
3083.00,0.4748
3082.00,0.4773
3081.00,0.4798
3080.00,0.4826
3079.00,0.4854
3078.00,0.4885
3077.00,0.4917
3076.00,0.4951
3075.00,0.4987
3074.00,0.5023
3073.00,0.5061
3072.00,0.5098
3071.00,0.5134
3070.00,0.5170
3069.00,0.5205
3068.00,0.5238
3067.00,0.5270
3066.00,0.5301
3065.00,0.5330
3064.00,0.5356
3063.00,0.5381
3062.00,0.5404
3061.00,0.5427
3060.00,0.5450
3059.00,0.5472
3058.00,0.5493
3057.00,0.5515
3056.00,0.5538
3055.00,0.5563
3054.00,0.5592
3053.00,0.5623
3052.00,0.5658
3051.00,0.5694
3050.00,0.5733
3049.00,0.5773
3048.00,0.5815
3047.00,0.5859
3046.00,0.5904
3045.00,0.5950
3044.00,0.5995
3043.00,0.6040
3042.00,0.6085
3041.00,0.6129
3040.00,0.6173
3039.00,0.6218
3038.00,0.6263
3037.00,0.6311
3036.00,0.6361
3035.00,0.6414
3034.00,0.6471
3033.00,0.6532
3032.00,0.6597
3031.00,0.6667
3030.00,0.6741
3029.00,0.6819
3028.00,0.6903
3027.00,0.6990
3026.00,0.7082
3025.00,0.7177
3024.00,0.7277
3023.00,0.7380
3022.00,0.7489
3021.00,0.7602
3020.00,0.7718
3019.00,0.7838
3018.00,0.7960
3017.00,0.8085
3016.00,0.8212
3015.00,0.8341
3014.00,0.8474
3013.00,0.8611
3012.00,0.8755
3011.00,0.8907
3010.00,0.9066
3009.00,0.9235
3008.00,0.9413
3007.00,0.9600
3006.00,0.9797
3005.00,1.0002
3004.00,1.0214
3003.00,1.0435
3002.00,1.0664
3001.00,1.0903
3000.00,1.1153
2999.00,1.1415
2998.00,1.1693
2997.00,1.1988
2996.00,1.2306
2995.00,1.2656
2994.00,1.3044
2993.00,1.3473
2992.00,1.3946
2991.00,1.4468
2990.00,1.5044
2989.00,1.5680
2988.00,1.6375
2987.00,1.7137
2986.00,1.7979
2985.00,1.8917
2984.00,1.9963
2983.00,2.1115
2982.00,2.2366
2981.00,2.3698
2980.00,2.5092
2979.00,2.6551
2978.00,2.8125
2977.00,2.9863
2976.00,3.1735
2975.00,3.3515
2974.00,3.4901
2973.00,3.5838
2972.00,3.6901
2971.00,3.8578
2970.00,4.1284
2969.00,4.5896
2968.00,4.4869
2967.00,4.0704
2966.00,3.8162
2965.00,3.7408
2964.00,3.8177
2963.00,4.0199
2962.00,4.3518
2961.00,4.4533
2960.00,4.1975
2959.00,3.9923
2958.00,3.8883
2957.00,3.8480
2956.00,3.8437
2955.00,3.8600
2954.00,3.9221
2953.00,4.0139
2952.00,4.1804
2951.00,4.2936
2950.00,4.1081
2949.00,3.9604
2948.00,3.9218
2947.00,4.0469
2946.00,4.2512
2945.00,4.3046
2944.00,4.2478
2943.00,4.1717
2942.00,4.1503
2941.00,4.1149
2940.00,4.0943
2939.00,4.1140
2938.00,4.0115
2937.00,3.8928
2936.00,3.8952
2935.00,4.1317
2934.00,4.7075
2933.00,4.9747
2932.00,4.5487
2931.00,4.2449
2930.00,4.1370
2929.00,4.0898
2928.00,4.0616
2927.00,4.1113
2926.00,4.2331
2925.00,4.1919
2924.00,3.9954
2923.00,3.8834
2922.00,3.9034
2921.00,3.9995
2920.00,4.0758
2919.00,4.1535
2918.00,4.2215
2917.00,4.1900
2916.00,4.0898
2915.00,4.0230
2914.00,4.0542
2913.00,4.2927
2912.00,4.5691
2911.00,4.5449
2910.00,4.5730
2909.00,4.3995
2908.00,4.2002
2907.00,3.9864
2906.00,3.9289
2905.00,3.9368
2904.00,4.0617
2903.00,4.4719
2902.00,4.3537
2901.00,3.9860
2900.00,3.7571
2899.00,3.7168
2898.00,3.7344
2897.00,3.7627
2896.00,3.8264
2895.00,3.8604
2894.00,3.9247
2893.00,4.0430
2892.00,4.3444
2891.00,4.6197
2890.00,4.1908
2889.00,3.9339
2888.00,3.8554
2887.00,3.9039
2886.00,4.0551
2885.00,4.2526
2884.00,4.2080
2883.00,4.1320
2882.00,4.2748
2881.00,4.4418
2880.00,4.1407
2879.00,3.9044
2878.00,3.8454
2877.00,3.9233
2876.00,4.1722
2875.00,4.4201
2874.00,4.2366
2873.00,4.0121
2872.00,3.9514
2871.00,3.8993
2870.00,3.7734
2869.00,3.6706
2868.00,3.6306
2867.00,3.6679
2866.00,3.7755
2865.00,3.9367
2864.00,4.1470
2863.00,4.3670
2862.00,4.3417
2861.00,4.0746
2860.00,3.8563
2859.00,3.7460
2858.00,3.7298
2857.00,3.7868
2856.00,3.9171
2855.00,4.1035
2854.00,4.1394
2853.00,4.2087
2852.00,4.5199
2851.00,4.6069
2850.00,4.4143
2849.00,4.1976
2848.00,4.2182
2847.00,4.1569
2846.00,4.1847
2845.00,4.4503
2844.00,4.3128
2843.00,4.0566
2842.00,3.8765
2841.00,3.8206
2840.00,3.7723
2839.00,3.7029
2838.00,3.5838
2837.00,3.3568
2836.00,3.0993
2835.00,2.8687
2834.00,2.6736
2833.00,2.5032
2832.00,2.3473
2831.00,2.2023
2830.00,2.0691
2829.00,1.9488
2828.00,1.8422
2827.00,1.7483
2826.00,1.6653
2825.00,1.5909
2824.00,1.5233
2823.00,1.4612
2822.00,1.4041
2821.00,1.3515
2820.00,1.3032
2819.00,1.2590
2818.00,1.2182
2817.00,1.1804
2816.00,1.1451
2815.00,1.1122
2814.00,1.0813
2813.00,1.0522
2812.00,1.0248
2811.00,0.9989
2810.00,0.9746
2809.00,0.9514
2808.00,0.9294
2807.00,0.9084
2806.00,0.8885
2805.00,0.8697
2804.00,0.8520
2803.00,0.8352
2802.00,0.8191
2801.00,0.8037
2800.00,0.7891
2799.00,0.7751
2798.00,0.7618
2797.00,0.7490
2796.00,0.7367
2795.00,0.7248
2794.00,0.7134
2793.00,0.7024
2792.00,0.6915
2791.00,0.6809
2790.00,0.6705
2789.00,0.6603
2788.00,0.6503
2787.00,0.6406
2786.00,0.6312
2785.00,0.6221
2784.00,0.6132
2783.00,0.6047
2782.00,0.5964
2781.00,0.5884
2780.00,0.5808
2779.00,0.5736
2778.00,0.5667
2777.00,0.5602
2776.00,0.5539
2775.00,0.5479
2774.00,0.5423
2773.00,0.5371
2772.00,0.5322
2771.00,0.5276
2770.00,0.5234
2769.00,0.5195
2768.00,0.5160
2767.00,0.5128
2766.00,0.5099
2765.00,0.5074
2764.00,0.5051
2763.00,0.5032
2762.00,0.5015
2761.00,0.5000
2760.00,0.4986
2759.00,0.4973
2758.00,0.4961
2757.00,0.4948
2756.00,0.4937
2755.00,0.4925
2754.00,0.4915
2753.00,0.4907
2752.00,0.4901
2751.00,0.4897
2750.00,0.4895
2749.00,0.4895
2748.00,0.4896
2747.00,0.4900
2746.00,0.4907
2745.00,0.4915
2744.00,0.4927
2743.00,0.4941
2742.00,0.4959
2741.00,0.4981
2740.00,0.5007
2739.00,0.5038
2738.00,0.5075
2737.00,0.5117
2736.00,0.5164
2735.00,0.5216
2734.00,0.5269
2733.00,0.5322
2732.00,0.5372
2731.00,0.5415
2730.00,0.5448
2729.00,0.5469
2728.00,0.5480
2727.00,0.5482
2726.00,0.5476
2725.00,0.5464
2724.00,0.5448
2723.00,0.5427
2722.00,0.5402
2721.00,0.5373
2720.00,0.5339
2719.00,0.5300
2718.00,0.5258
2717.00,0.5212
2716.00,0.5164
2715.00,0.5114
2714.00,0.5065
2713.00,0.5017
2712.00,0.4971
2711.00,0.4929
2710.00,0.4891
2709.00,0.4859
2708.00,0.4831
2707.00,0.4807
2706.00,0.4787
2705.00,0.4770
2704.00,0.4755
2703.00,0.4744
2702.00,0.4736
2701.00,0.4731
2700.00,0.4727
2699.00,0.4724
2698.00,0.4723
2697.00,0.4724
2696.00,0.4726
2695.00,0.4730
2694.00,0.4735
2693.00,0.4741
2692.00,0.4748
2691.00,0.4754
2690.00,0.4761
2689.00,0.4767
2688.00,0.4772
2687.00,0.4777
2686.00,0.4782
2685.00,0.4786
2684.00,0.4790
2683.00,0.4793
2682.00,0.4797
2681.00,0.4800
2680.00,0.4804
2679.00,0.4808
2678.00,0.4813
2677.00,0.4818
2676.00,0.4825
2675.00,0.4832
2674.00,0.4839
2673.00,0.4846
2672.00,0.4851
2671.00,0.4854
2670.00,0.4855
2669.00,0.4853
2668.00,0.4847
2667.00,0.4838
2666.00,0.4826
2665.00,0.4811
2664.00,0.4795
2663.00,0.4777
2662.00,0.4757
2661.00,0.4737
2660.00,0.4716
2659.00,0.4694
2658.00,0.4672
2657.00,0.4651
2656.00,0.4629
2655.00,0.4608
2654.00,0.4588
2653.00,0.4568
2652.00,0.4550
2651.00,0.4533
2650.00,0.4515
2649.00,0.4499
2648.00,0.4482
2647.00,0.4466
2646.00,0.4451
2645.00,0.4437
2644.00,0.4424
2643.00,0.4412
2642.00,0.4400
2641.00,0.4390
2640.00,0.4381
2639.00,0.4372
2638.00,0.4363
2637.00,0.4354
2636.00,0.4346
2635.00,0.4337
2634.00,0.4329
2633.00,0.4319
2632.00,0.4309
2631.00,0.4299
2630.00,0.4289
2629.00,0.4279
2628.00,0.4269
2627.00,0.4259
2626.00,0.4250
2625.00,0.4240
2624.00,0.4230
2623.00,0.4220
2622.00,0.4211
2621.00,0.4201
2620.00,0.4192
2619.00,0.4182
2618.00,0.4172
2617.00,0.4162
2616.00,0.4152
2615.00,0.4141
2614.00,0.4130
2613.00,0.4119
2612.00,0.4107
2611.00,0.4096
2610.00,0.4085
2609.00,0.4074
2608.00,0.4063
2607.00,0.4053
2606.00,0.4043
2605.00,0.4033
2604.00,0.4022
2603.00,0.4012
2602.00,0.4000
2601.00,0.3989
2600.00,0.3977
2599.00,0.3965
2598.00,0.3952
2597.00,0.3937
2596.00,0.3922
2595.00,0.3906
2594.00,0.3890
2593.00,0.3873
2592.00,0.3855
2591.00,0.3838
2590.00,0.3821
2589.00,0.3804
2588.00,0.3787
2587.00,0.3770
2586.00,0.3753
2585.00,0.3736
2584.00,0.3718
2583.00,0.3699
2582.00,0.3679
2581.00,0.3660
2580.00,0.3641
2579.00,0.3621
2578.00,0.3602
2577.00,0.3583
2576.00,0.3565
2575.00,0.3548
2574.00,0.3531
2573.00,0.3516
2572.00,0.3500
2571.00,0.3485
2570.00,0.3471
2569.00,0.3456
2568.00,0.3443
2567.00,0.3428
2566.00,0.3414
2565.00,0.3399
2564.00,0.3384
2563.00,0.3370
2562.00,0.3355
2561.00,0.3341
2560.00,0.3328
2559.00,0.3315
2558.00,0.3303
2557.00,0.3290
2556.00,0.3278
2555.00,0.3266
2554.00,0.3254
2553.00,0.3243
2552.00,0.3231
2551.00,0.3220
2550.00,0.3209
2549.00,0.3197
2548.00,0.3187
2547.00,0.3177
2546.00,0.3167
2545.00,0.3157
2544.00,0.3148
2543.00,0.3139
2542.00,0.3130
2541.00,0.3123
2540.00,0.3115
2539.00,0.3107
2538.00,0.3099
2537.00,0.3091
2536.00,0.3084
2535.00,0.3078
2534.00,0.3071
2533.00,0.3065
2532.00,0.3059
2531.00,0.3051
2530.00,0.3044
2529.00,0.3036
2528.00,0.3027
2527.00,0.3018
2526.00,0.3009
2525.00,0.2999
2524.00,0.2990
2523.00,0.2981
2522.00,0.2972
2521.00,0.2962
2520.00,0.2953
2519.00,0.2944
2518.00,0.2935
2517.00,0.2926
2516.00,0.2918
2515.00,0.2910
2514.00,0.2902
2513.00,0.2894
2512.00,0.2887
2511.00,0.2880
2510.00,0.2874
2509.00,0.2868
2508.00,0.2862
2507.00,0.2856
2506.00,0.2851
2505.00,0.2846
2504.00,0.2841
2503.00,0.2838
2502.00,0.2834
2501.00,0.2831
2500.00,0.2828
2499.00,0.2824
2498.00,0.2821
2497.00,0.2818
2496.00,0.2815
2495.00,0.2812
2494.00,0.2809
2493.00,0.2806
2492.00,0.2803
2491.00,0.2799
2490.00,0.2795
2489.00,0.2792
2488.00,0.2788
2487.00,0.2785
2486.00,0.2781
2485.00,0.2778
2484.00,0.2776
2483.00,0.2773
2482.00,0.2770
2481.00,0.2767
2480.00,0.2764
2479.00,0.2761
2478.00,0.2757
2477.00,0.2753
2476.00,0.2750
2475.00,0.2746
2474.00,0.2743
2473.00,0.2740
2472.00,0.2738
2471.00,0.2735
2470.00,0.2733
2469.00,0.2730
2468.00,0.2727
2467.00,0.2723
2466.00,0.2720
2465.00,0.2716
2464.00,0.2712
2463.00,0.2709
2462.00,0.2706
2461.00,0.2703
2460.00,0.2702
2459.00,0.2700
2458.00,0.2698
2457.00,0.2696
2456.00,0.2694
2455.00,0.2692
2454.00,0.2690
2453.00,0.2689
2452.00,0.2688
2451.00,0.2687
2450.00,0.2686
2449.00,0.2686
2448.00,0.2686
2447.00,0.2686
2446.00,0.2687
2445.00,0.2687
2444.00,0.2688
2443.00,0.2688
2442.00,0.2688
2441.00,0.2689
2440.00,0.2691
2439.00,0.2691
2438.00,0.2692
2437.00,0.2694
2436.00,0.2695
2435.00,0.2696
2434.00,0.2697
2433.00,0.2698
2432.00,0.2699
2431.00,0.2700
2430.00,0.2701
2429.00,0.2702
2428.00,0.2702
2427.00,0.2702
2426.00,0.2703
2425.00,0.2703
2424.00,0.2703
2423.00,0.2704
2422.00,0.2705
2421.00,0.2706
2420.00,0.2706
2419.00,0.2707
2418.00,0.2707
2417.00,0.2708
2416.00,0.2708
2415.00,0.2709
2414.00,0.2710
2413.00,0.2711
2412.00,0.2711
2411.00,0.2712
2410.00,0.2712
2409.00,0.2713
2408.00,0.2713
2407.00,0.2712
2406.00,0.2712
2405.00,0.2711
2404.00,0.2711
2403.00,0.2710
2402.00,0.2710
2401.00,0.2709
2400.00,0.2708
2399.00,0.2708
2398.00,0.2707
2397.00,0.2705
2396.00,0.2704
2395.00,0.2702
2394.00,0.2701
2393.00,0.2700
2392.00,0.2699
2391.00,0.2698
2390.00,0.2697
2389.00,0.2696
2388.00,0.2695
2387.00,0.2694
2386.00,0.2694
2385.00,0.2694
2384.00,0.2694
2383.00,0.2694
2382.00,0.2695
2381.00,0.2695
2380.00,0.2696
2379.00,0.2696
2378.00,0.2697
2377.00,0.2697
2376.00,0.2697
2375.00,0.2697
2374.00,0.2695
2373.00,0.2694
2372.00,0.2693
2371.00,0.2692
2370.00,0.2691
2369.00,0.2690
2368.00,0.2689
2367.00,0.2688
2366.00,0.2687
2365.00,0.2687
2364.00,0.2687
2363.00,0.2687
2362.00,0.2687
2361.00,0.2687
2360.00,0.2686
2359.00,0.2686
2358.00,0.2685
2357.00,0.2684
2356.00,0.2684
2355.00,0.2683
2354.00,0.2682
2353.00,0.2681
2352.00,0.2681
2351.00,0.2680
2350.00,0.2679
2349.00,0.2678
2348.00,0.2677
2347.00,0.2675
2346.00,0.2674
2345.00,0.2674
2344.00,0.2674
2343.00,0.2673
2342.00,0.2672
2341.00,0.2670
2340.00,0.2668
2339.00,0.2667
2338.00,0.2666
2337.00,0.2666
2336.00,0.2665
2335.00,0.2665
2334.00,0.2664
2333.00,0.2663
2332.00,0.2662
2331.00,0.2660
2330.00,0.2658
2329.00,0.2656
2328.00,0.2655
2327.00,0.2653
2326.00,0.2651
2325.00,0.2650
2324.00,0.2648
2323.00,0.2646
2322.00,0.2644
2321.00,0.2642
2320.00,0.2639
2319.00,0.2636
2318.00,0.2632
2317.00,0.2629
2316.00,0.2626
2315.00,0.2624
2314.00,0.2622
2313.00,0.2620
2312.00,0.2618
2311.00,0.2615
2310.00,0.2613
2309.00,0.2610
2308.00,0.2606
2307.00,0.2603
2306.00,0.2600
2305.00,0.2597
2304.00,0.2595
2303.00,0.2593
2302.00,0.2590
2301.00,0.2588
2300.00,0.2585
2299.00,0.2583
2298.00,0.2581
2297.00,0.2578
2296.00,0.2576
2295.00,0.2574
2294.00,0.2572
2293.00,0.2570
2292.00,0.2567
2291.00,0.2564
2290.00,0.2561
2289.00,0.2558
2288.00,0.2555
2287.00,0.2552
2286.00,0.2549
2285.00,0.2546
2284.00,0.2543
2283.00,0.2541
2282.00,0.2538
2281.00,0.2534
2280.00,0.2531
2279.00,0.2527
2278.00,0.2523
2277.00,0.2519
2276.00,0.2517
2275.00,0.2514
2274.00,0.2511
2273.00,0.2509
2272.00,0.2506
2271.00,0.2504
2270.00,0.2502
2269.00,0.2500
2268.00,0.2499
2267.00,0.2497
2266.00,0.2496
2265.00,0.2495
2264.00,0.2495
2263.00,0.2493
2262.00,0.2491
2261.00,0.2489
2260.00,0.2486
2259.00,0.2484
2258.00,0.2481
2257.00,0.2478
2256.00,0.2476
2255.00,0.2473
2254.00,0.2470
2253.00,0.2468
2252.00,0.2465
2251.00,0.2461
2250.00,0.2458
2249.00,0.2455
2248.00,0.2453
2247.00,0.2451
2246.00,0.2448
2245.00,0.2446
2244.00,0.2444
2243.00,0.2441
2242.00,0.2439
2241.00,0.2437
2240.00,0.2435
2239.00,0.2434
2238.00,0.2432
2237.00,0.2431
2236.00,0.2430
2235.00,0.2429
2234.00,0.2429
2233.00,0.2428
2232.00,0.2427
2231.00,0.2426
2230.00,0.2424
2229.00,0.2423
2228.00,0.2422
2227.00,0.2421
2226.00,0.2420
2225.00,0.2419
2224.00,0.2418
2223.00,0.2416
2222.00,0.2415
2221.00,0.2414
2220.00,0.2413
2219.00,0.2412
2218.00,0.2411
2217.00,0.2410
2216.00,0.2409
2215.00,0.2407
2214.00,0.2407
2213.00,0.2406
2212.00,0.2406
2211.00,0.2406
2210.00,0.2405
2209.00,0.2405
2208.00,0.2404
2207.00,0.2404
2206.00,0.2404
2205.00,0.2404
2204.00,0.2404
2203.00,0.2404
2202.00,0.2404
2201.00,0.2404
2200.00,0.2404
2199.00,0.2404
2198.00,0.2404
2197.00,0.2404
2196.00,0.2405
2195.00,0.2405
2194.00,0.2404
2193.00,0.2404
2192.00,0.2404
2191.00,0.2404
2190.00,0.2404
2189.00,0.2404
2188.00,0.2404
2187.00,0.2403
2186.00,0.2402
2185.00,0.2402
2184.00,0.2401
2183.00,0.2400
2182.00,0.2400
2181.00,0.2399
2180.00,0.2398
2179.00,0.2397
2178.00,0.2396
2177.00,0.2395
2176.00,0.2394
2175.00,0.2393
2174.00,0.2392
2173.00,0.2391
2172.00,0.2390
2171.00,0.2389
2170.00,0.2388
2169.00,0.2387
2168.00,0.2386
2167.00,0.2385
2166.00,0.2384
2165.00,0.2382
2164.00,0.2381
2163.00,0.2379
2162.00,0.2377
2161.00,0.2375
2160.00,0.2374
2159.00,0.2372
2158.00,0.2371
2157.00,0.2369
2156.00,0.2367
2155.00,0.2364
2154.00,0.2362
2153.00,0.2360
2152.00,0.2358
2151.00,0.2357
2150.00,0.2355
2149.00,0.2352
2148.00,0.2348
2147.00,0.2345
2146.00,0.2341
2145.00,0.2337
2144.00,0.2333
2143.00,0.2328
2142.00,0.2324
2141.00,0.2321
2140.00,0.2318
2139.00,0.2315
2138.00,0.2312
2137.00,0.2309
2136.00,0.2307
2135.00,0.2305
2134.00,0.2303
2133.00,0.2301
2132.00,0.2300
2131.00,0.2298
2130.00,0.2296
2129.00,0.2294
2128.00,0.2292
2127.00,0.2290
2126.00,0.2289
2125.00,0.2288
2124.00,0.2286
2123.00,0.2285
2122.00,0.2284
2121.00,0.2282
2120.00,0.2280
2119.00,0.2278
2118.00,0.2276
2117.00,0.2274
2116.00,0.2273
2115.00,0.2272
2114.00,0.2271
2113.00,0.2270
2112.00,0.2268
2111.00,0.2267
2110.00,0.2265
2109.00,0.2264
2108.00,0.2264
2107.00,0.2263
2106.00,0.2262
2105.00,0.2262
2104.00,0.2262
2103.00,0.2262
2102.00,0.2261
2101.00,0.2261
2100.00,0.2262
2099.00,0.2262
2098.00,0.2262
2097.00,0.2261
2096.00,0.2261
2095.00,0.2261
2094.00,0.2260
2093.00,0.2260
2092.00,0.2261
2091.00,0.2260
2090.00,0.2260
2089.00,0.2260
2088.00,0.2260
2087.00,0.2259
2086.00,0.2259
2085.00,0.2258
2084.00,0.2257
2083.00,0.2256
2082.00,0.2255
2081.00,0.2254
2080.00,0.2253
2079.00,0.2251
2078.00,0.2250
2077.00,0.2249
2076.00,0.2249
2075.00,0.2249
2074.00,0.2248
2073.00,0.2248
2072.00,0.2248
2071.00,0.2249
2070.00,0.2249
2069.00,0.2250
2068.00,0.2250
2067.00,0.2251
2066.00,0.2251
2065.00,0.2253
2064.00,0.2256
2063.00,0.2258
2062.00,0.2260
2061.00,0.2261
2060.00,0.2262
2059.00,0.2263
2058.00,0.2264
2057.00,0.2265
2056.00,0.2267
2055.00,0.2268
2054.00,0.2268
2053.00,0.2269
2052.00,0.2270
2051.00,0.2271
2050.00,0.2272
2049.00,0.2273
2048.00,0.2274
2047.00,0.2275
2046.00,0.2275
2045.00,0.2276
2044.00,0.2276
2043.00,0.2276
2042.00,0.2276
2041.00,0.2277
2040.00,0.2279
2039.00,0.2281
2038.00,0.2281
2037.00,0.2282
2036.00,0.2282
2035.00,0.2283
2034.00,0.2283
2033.00,0.2284
2032.00,0.2286
2031.00,0.2286
2030.00,0.2287
2029.00,0.2288
2028.00,0.2289
2027.00,0.2289
2026.00,0.2289
2025.00,0.2288
2024.00,0.2287
2023.00,0.2286
2022.00,0.2283
2021.00,0.2280
2020.00,0.2275
2019.00,0.2268
2018.00,0.2262
2017.00,0.2257
2016.00,0.2253
2015.00,0.2249
2014.00,0.2245
2013.00,0.2239
2012.00,0.2233
2011.00,0.2227
2010.00,0.2221
2009.00,0.2216
2008.00,0.2211
2007.00,0.2207
2006.00,0.2204
2005.00,0.2202
2004.00,0.2200
2003.00,0.2198
2002.00,0.2196
2001.00,0.2195
2000.00,0.2194
1999.00,0.2193
1998.00,0.2193
1997.00,0.2193
1996.00,0.2192
1995.00,0.2192
1994.00,0.2192
1993.00,0.2192
1992.00,0.2192
1991.00,0.2186
1990.00,0.2187
1989.00,0.2187
1988.00,0.2188
1987.00,0.2188
1986.00,0.2189
1985.00,0.2189
1984.00,0.2189
1983.00,0.2188
1982.00,0.2188
1981.00,0.2187
1980.00,0.2186
1979.00,0.2185
1978.00,0.2184
1977.00,0.2184
1976.00,0.2183
1975.00,0.2182
1974.00,0.2181
1973.00,0.2180
1972.00,0.2180
1971.00,0.2179
1970.00,0.2179
1969.00,0.2179
1968.00,0.2179
1967.00,0.2179
1966.00,0.2174
1965.00,0.2176
1964.00,0.2178
1963.00,0.2179
1962.00,0.2179
1961.00,0.2179
1960.00,0.2180
1959.00,0.2181
1958.00,0.2183
1957.00,0.2185
1956.00,0.2188
1955.00,0.2191
1954.00,0.2193
1953.00,0.2195
1952.00,0.2197
1951.00,0.2198
1950.00,0.2198
1949.00,0.2198
1948.00,0.2198
1947.00,0.2198
1946.00,0.2198
1945.00,0.2198
1944.00,0.2197
1943.00,0.2199
1942.00,0.2204
1941.00,0.2212
1940.00,0.2218
1939.00,0.2221
1938.00,0.2222
1937.00,0.2222
1936.00,0.2221
1935.00,0.2219
1934.00,0.2218
1933.00,0.2216
1932.00,0.2216
1931.00,0.2216
1930.00,0.2217
1929.00,0.2218
1928.00,0.2219
1927.00,0.2220
1926.00,0.2219
1925.00,0.2216
1924.00,0.2216
1923.00,0.2219
1922.00,0.2228
1921.00,0.2238
1920.00,0.2247
1919.00,0.2252
1918.00,0.2256
1917.00,0.2261
1916.00,0.2264
1915.00,0.2266
1914.00,0.2265
1913.00,0.2264
1912.00,0.2261
1911.00,0.2258
1910.00,0.2255
1909.00,0.2256
1908.00,0.2259
1907.00,0.2261
1906.00,0.2262
1905.00,0.2263
1904.00,0.2263
1903.00,0.2263
1902.00,0.2263
1901.00,0.2263
1900.00,0.2263
1899.00,0.2262
1898.00,0.2263
1897.00,0.2264
1896.00,0.2265
1895.00,0.2267
1894.00,0.2269
1893.00,0.2271
1892.00,0.2273
1891.00,0.2274
1890.00,0.2276
1889.00,0.2272
1888.00,0.2275
1887.00,0.2278
1886.00,0.2279
1885.00,0.2280
1884.00,0.2283
1883.00,0.2285
1882.00,0.2286
1881.00,0.2288
1880.00,0.2289
1879.00,0.2289
1878.00,0.2290
1877.00,0.2291
1876.00,0.2292
1875.00,0.2291
1874.00,0.2290
1873.00,0.2289
1872.00,0.2287
1871.00,0.2285
1870.00,0.2282
1869.00,0.2281
1868.00,0.2280
1867.00,0.2279
1866.00,0.2276
1865.00,0.2273
1864.00,0.2269
1863.00,0.2262
1862.00,0.2257
1861.00,0.2253
1860.00,0.2250
1859.00,0.2247
1858.00,0.2245
1857.00,0.2243
1856.00,0.2242
1855.00,0.2241
1854.00,0.2239
1853.00,0.2238
1852.00,0.2238
1851.00,0.2235
1850.00,0.2231
1849.00,0.2228
1848.00,0.2228
1847.00,0.2230
1846.00,0.2233
1845.00,0.2233
1844.00,0.2233
1843.00,0.2233
1842.00,0.2233
1841.00,0.2233
1840.00,0.2231
1839.00,0.2228
1838.00,0.2225
1837.00,0.2223
1836.00,0.2224
1835.00,0.2224
1834.00,0.2225
1833.00,0.2225
1832.00,0.2223
1831.00,0.2218
1830.00,0.2214
1829.00,0.2214
1828.00,0.2216
1827.00,0.2216
1826.00,0.2213
1825.00,0.2211
1824.00,0.2213
1823.00,0.2214
1822.00,0.2215
1821.00,0.2216
1820.00,0.2216
1819.00,0.2216
1818.00,0.2216
1817.00,0.2218
1816.00,0.2220
1815.00,0.2222
1814.00,0.2221
1813.00,0.2219
1812.00,0.2218
1811.00,0.2220
1810.00,0.2223
1809.00,0.2228
1808.00,0.2234
1807.00,0.2239
1806.00,0.2243
1805.00,0.2245
1804.00,0.2246
1803.00,0.2247
1802.00,0.2249
1801.00,0.2254
1800.00,0.2261
1799.00,0.2265
1798.00,0.2267
1797.00,0.2269
1796.00,0.2275
1795.00,0.2281
1794.00,0.2286
1793.00,0.2289
1792.00,0.2293
1791.00,0.2299
1790.00,0.2306
1789.00,0.2312
1788.00,0.2317
1787.00,0.2321
1786.00,0.2323
1785.00,0.2327
1784.00,0.2331
1783.00,0.2335
1782.00,0.2336
1781.00,0.2339
1780.00,0.2346
1779.00,0.2354
1778.00,0.2360
1777.00,0.2366
1776.00,0.2371
1775.00,0.2376
1774.00,0.2379
1773.00,0.2384
1772.00,0.2393
1771.00,0.2404
1770.00,0.2411
1769.00,0.2415
1768.00,0.2421
1767.00,0.2428
1766.00,0.2436
1765.00,0.2444
1764.00,0.2450
1763.00,0.2455
1762.00,0.2460
1761.00,0.2468
1760.00,0.2478
1759.00,0.2486
1758.00,0.2496
1757.00,0.2510
1756.00,0.2526
1755.00,0.2542
1754.00,0.2555
1753.00,0.2567
1752.00,0.2580
1751.00,0.2599
1750.00,0.2624
1749.00,0.2658
1748.00,0.2698
1747.00,0.2741
1746.00,0.2785
1745.00,0.2834
1744.00,0.2890
1743.00,0.2953
1742.00,0.3020
1741.00,0.3085
1740.00,0.3147
1739.00,0.3204
1738.00,0.3253
1737.00,0.3293
1736.00,0.3324
1735.00,0.3343
1734.00,0.3353
1733.00,0.3361
1732.00,0.3364
1731.00,0.3360
1730.00,0.3349
1729.00,0.3335
1728.00,0.3318
1727.00,0.3296
1726.00,0.3271
1725.00,0.3245
1724.00,0.3221
1723.00,0.3200
1722.00,0.3184
1721.00,0.3172
1720.00,0.3152
1719.00,0.3124
1718.00,0.3089
1717.00,0.3112
1716.00,0.3120
1715.00,0.3091
1714.00,0.3090
1713.00,0.3093
1712.00,0.3092
1711.00,0.3092
1710.00,0.3093
1709.00,0.3096
1708.00,0.3106
1707.00,0.3110
1706.00,0.3111
1705.00,0.3111
1704.00,0.3108
1703.00,0.3100
1702.00,0.3087
1701.00,0.3073
1700.00,0.3061
1699.00,0.3049
1698.00,0.3038
1697.00,0.3026
1696.00,0.3023
1695.00,0.3004
1694.00,0.3005
1693.00,0.3011
1692.00,0.3011
1691.00,0.3010
1690.00,0.3010
1689.00,0.3016
1688.00,0.3024
1687.00,0.3032
1686.00,0.3038
1685.00,0.3044
1684.00,0.3063
1683.00,0.3084
1682.00,0.3095
1681.00,0.3104
1680.00,0.3118
1679.00,0.3139
1678.00,0.3163
1677.00,0.3185
1676.00,0.3202
1675.00,0.3213
1674.00,0.3221
1673.00,0.3229
1672.00,0.3240
1671.00,0.3250
1670.00,0.3264
1669.00,0.3282
1668.00,0.3300
1667.00,0.3316
1666.00,0.3332
1665.00,0.3349
1664.00,0.3366
1663.00,0.3381
1662.00,0.3397
1661.00,0.3414
1660.00,0.3431
1659.00,0.3447
1658.00,0.3464
1657.00,0.3482
1656.00,0.3501
1655.00,0.3515
1654.00,0.3527
1653.00,0.3554
1652.00,0.3582
1651.00,0.3601
1650.00,0.3617
1649.00,0.3627
1648.00,0.3638
1647.00,0.3659
1646.00,0.3690
1645.00,0.3719
1644.00,0.3743
1643.00,0.3764
1642.00,0.3784
1641.00,0.3807
1640.00,0.3833
1639.00,0.3859
1638.00,0.3883
1637.00,0.3913
1636.00,0.3956
1635.00,0.4000
1634.00,0.4033
1633.00,0.4058
1632.00,0.4083
1631.00,0.4110
1630.00,0.4140
1629.00,0.4172
1628.00,0.4209
1627.00,0.4247
1626.00,0.4286
1625.00,0.4330
1624.00,0.4380
1623.00,0.4437
1622.00,0.4500
1621.00,0.4567
1620.00,0.4638
1619.00,0.4713
1618.00,0.4802
1617.00,0.4919
1616.00,0.5057
1615.00,0.5190
1614.00,0.5309
1613.00,0.5425
1612.00,0.5545
1611.00,0.5667
1610.00,0.5785
1609.00,0.5905
1608.00,0.6026
1607.00,0.6140
1606.00,0.6241
1605.00,0.6335
1604.00,0.6425
1603.00,0.6509
1602.00,0.6587
1601.00,0.6671
1600.00,0.6766
1599.00,0.6867
1598.00,0.6979
1597.00,0.7116
1596.00,0.7291
1595.00,0.7506
1594.00,0.7767
1593.00,0.8099
1592.00,0.8523
1591.00,0.9053
1590.00,0.9717
1589.00,1.0572
1588.00,1.1686
1587.00,1.3108
1586.00,1.4881
1585.00,1.7112
1584.00,2.0001
1583.00,2.3636
1582.00,2.7481
1581.00,3.0956
1580.00,3.5496
1579.00,3.4006
1578.00,2.7085
1577.00,2.2554
1576.00,1.9299
1575.00,1.6812
1574.00,1.4955
1573.00,1.3576
1572.00,1.2493
1571.00,1.1585
1570.00,1.0854
1569.00,1.0376
1568.00,1.0177
1567.00,1.0228
1566.00,1.0520
1565.00,1.1088
1564.00,1.1938
1563.00,1.2985
1562.00,1.4103
1561.00,1.5181
1560.00,1.5805
1559.00,1.5161
1558.00,1.3634
1557.00,1.2160
1556.00,1.0872
1555.00,0.9672
1554.00,0.8609
1553.00,0.7767
1552.00,0.7134
1551.00,0.6631
1550.00,0.6214
1549.00,0.5884
1548.00,0.5635
1547.00,0.5436
1546.00,0.5262
1545.00,0.5114
1544.00,0.4999
1543.00,0.4910
1542.00,0.4829
1541.00,0.4747
1540.00,0.4676
1539.00,0.4612
1538.00,0.4553
1537.00,0.4504
1536.00,0.4461
1535.00,0.4414
1534.00,0.4364
1533.00,0.4330
1532.00,0.4317
1531.00,0.4317
1530.00,0.4323
1529.00,0.4331
1528.00,0.4333
1527.00,0.4324
1526.00,0.4302
1525.00,0.4275
1524.00,0.4244
1523.00,0.4209
1522.00,0.4179
1521.00,0.4170
1520.00,0.4180
1519.00,0.4197
1518.00,0.4217
1517.00,0.4249
1516.00,0.4296
1515.00,0.4343
1514.00,0.4382
1513.00,0.4417
1512.00,0.4451
1511.00,0.4483
1510.00,0.4516
1509.00,0.4558
1508.00,0.4627
1507.00,0.4752
1506.00,0.4911
1505.00,0.5048
1504.00,0.5155
1503.00,0.5246
1502.00,0.5336
1501.00,0.5433
1500.00,0.5534
1499.00,0.5632
1498.00,0.5736
1497.00,0.5862
1496.00,0.6011
1495.00,0.6164
1494.00,0.6312
1493.00,0.6464
1492.00,0.6622
1491.00,0.6790
1490.00,0.6979
1489.00,0.7202
1488.00,0.7452
1487.00,0.7724
1486.00,0.8025
1485.00,0.8368
1484.00,0.8753
1483.00,0.9185
1482.00,0.9686
1481.00,1.0266
1480.00,1.0909
1479.00,1.1604
1478.00,1.2388
1477.00,1.3320
1476.00,1.4417
1475.00,1.5683
1474.00,1.7217
1473.00,1.9223
1472.00,2.1790
1471.00,2.4710
1470.00,2.7779
1469.00,3.1268
1468.00,3.5028
1467.00,3.6552
1466.00,3.6684
1465.00,3.7521
1464.00,3.8140
1463.00,3.7077
1462.00,3.7095
1461.00,4.1175
1460.00,4.5232
1459.00,3.9308
1458.00,3.6710
1457.00,3.7549
1456.00,3.9210
1455.00,3.7664
1454.00,3.8173
1453.00,4.3655
1452.00,4.5906
1451.00,4.1054
1450.00,3.8167
1449.00,3.8275
1448.00,3.6688
1447.00,3.3498
1446.00,3.1481
1445.00,3.0137
1444.00,2.8542
1443.00,2.6671
1442.00,2.5001
1441.00,2.3562
1440.00,2.2192
1439.00,2.0843
1438.00,1.9517
1437.00,1.8195
1436.00,1.6928
1435.00,1.5808
1434.00,1.4836
1433.00,1.3940
1432.00,1.3075
1431.00,1.2264
1430.00,1.1547
1429.00,1.0941
1428.00,1.0444
1427.00,1.0044
1426.00,0.9717
1425.00,0.9440
1424.00,0.9216
1423.00,0.9048
1422.00,0.8927
1421.00,0.8828
1420.00,0.8732
1419.00,0.8644
1418.00,0.8575
1417.00,0.8523
1416.00,0.8482
1415.00,0.8453
1414.00,0.8437
1413.00,0.8433
1412.00,0.8443
1411.00,0.8468
1410.00,0.8496
1409.00,0.8509
1408.00,0.8488
1407.00,0.8417
1406.00,0.8283
1405.00,0.8088
1404.00,0.7850
1403.00,0.7600
1402.00,0.7358
1401.00,0.7134
1400.00,0.6938
1399.00,0.6786
1398.00,0.6685
1397.00,0.6625
1396.00,0.6597
1395.00,0.6606
1394.00,0.6661
1393.00,0.6772
1392.00,0.6957
1391.00,0.7241
1390.00,0.7648
1389.00,0.8209
1388.00,0.8961
1387.00,0.9909
1386.00,1.0996
1385.00,1.2139
1384.00,1.3300
1383.00,1.4493
1382.00,1.5755
1381.00,1.7141
1380.00,1.8696
1379.00,2.0323
1378.00,2.1643
1377.00,2.2175
1376.00,2.1741
1375.00,2.0518
1374.00,1.8918
1373.00,1.7367
1372.00,1.6075
1371.00,1.5073
1370.00,1.4346
1369.00,1.3876
1368.00,1.3600
1367.00,1.3385
1366.00,1.3054
1365.00,1.2492
1364.00,1.1722
1363.00,1.0879
1362.00,1.0110
1361.00,0.9493
1360.00,0.9027
1359.00,0.8683
1358.00,0.8432
1357.00,0.8256
1356.00,0.8141
1355.00,0.8076
1354.00,0.8051
1353.00,0.8052
1352.00,0.8067
1351.00,0.8084
1350.00,0.8101
1349.00,0.8115
1348.00,0.8129
1347.00,0.8140
1346.00,0.8146
1345.00,0.8144
1344.00,0.8129
1343.00,0.8095
1342.00,0.8037
1341.00,0.7955
1340.00,0.7855
1339.00,0.7740
1338.00,0.7612
1337.00,0.7471
1336.00,0.7320
1335.00,0.7166
1334.00,0.7014
1333.00,0.6866
1332.00,0.6726
1331.00,0.6596
1330.00,0.6481
1329.00,0.6385
1328.00,0.6312
1327.00,0.6262
1326.00,0.6230
1325.00,0.6214
1324.00,0.6209
1323.00,0.6214
1322.00,0.6227
1321.00,0.6245
1320.00,0.6265
1319.00,0.6283
1318.00,0.6297
1317.00,0.6304
1316.00,0.6308
1315.00,0.6313
1314.00,0.6326
1313.00,0.6352
1312.00,0.6388
1311.00,0.6433
1310.00,0.6478
1309.00,0.6520
1308.00,0.6556
1307.00,0.6587
1306.00,0.6610
1305.00,0.6621
1304.00,0.6617
1303.00,0.6598
1302.00,0.6569
1301.00,0.6531
1300.00,0.6486
1299.00,0.6430
1298.00,0.6363
1297.00,0.6288
1296.00,0.6214
1295.00,0.6147
1294.00,0.6089
1293.00,0.6041
1292.00,0.5998
1291.00,0.5959
1290.00,0.5924
1289.00,0.5892
1288.00,0.5864
1287.00,0.5841
1286.00,0.5820
1285.00,0.5798
1284.00,0.5774
1283.00,0.5749
1282.00,0.5726
1281.00,0.5704
1280.00,0.5681
1279.00,0.5657
1278.00,0.5631
1277.00,0.5603
1276.00,0.5575
1275.00,0.5550
1274.00,0.5530
1273.00,0.5519
1272.00,0.5518
1271.00,0.5530
1270.00,0.5553
1269.00,0.5579
1268.00,0.5599
1267.00,0.5600
1266.00,0.5575
1265.00,0.5525
1264.00,0.5464
1263.00,0.5409
1262.00,0.5369
1261.00,0.5345
1260.00,0.5334
1259.00,0.5328
1258.00,0.5323
1257.00,0.5315
1256.00,0.5304
1255.00,0.5294
1254.00,0.5291
1253.00,0.5294
1252.00,0.5302
1251.00,0.5315
1250.00,0.5329
1249.00,0.5344
1248.00,0.5356
1247.00,0.5364
1246.00,0.5365
1245.00,0.5356
1244.00,0.5336
1243.00,0.5308
1242.00,0.5278
1241.00,0.5245
1240.00,0.5213
1239.00,0.5183
1238.00,0.5157
1237.00,0.5135
1236.00,0.5117
1235.00,0.5106
1234.00,0.5102
1233.00,0.5109
1232.00,0.5128
1231.00,0.5159
1230.00,0.5196
1229.00,0.5229
1228.00,0.5246
1227.00,0.5239
1226.00,0.5209
1225.00,0.5161
1224.00,0.5107
1223.00,0.5057
1222.00,0.5016
1221.00,0.4986
1220.00,0.4965
1219.00,0.4952
1218.00,0.4948
1217.00,0.4953
1216.00,0.4966
1215.00,0.4987
1214.00,0.5012
1213.00,0.5033
1212.00,0.5041
1211.00,0.5035
1210.00,0.5017
1209.00,0.4995
1208.00,0.4977
1207.00,0.4967
1206.00,0.4963
1205.00,0.4963
1204.00,0.4967
1203.00,0.4972
1202.00,0.4976
1201.00,0.4977
1200.00,0.4975
1199.00,0.4971
1198.00,0.4963
1197.00,0.4948
1196.00,0.4925
1195.00,0.4898
1194.00,0.4869
1193.00,0.4841
1192.00,0.4815
1191.00,0.4792
1190.00,0.4773
1189.00,0.4758
1188.00,0.4748
1187.00,0.4743
1186.00,0.4739
1185.00,0.4735
1184.00,0.4730
1183.00,0.4728
1182.00,0.4730
1181.00,0.4737
1180.00,0.4747
1179.00,0.4760
1178.00,0.4775
1177.00,0.4795
1176.00,0.4821
1175.00,0.4855
1174.00,0.4899
1173.00,0.4951
1172.00,0.5007
1171.00,0.5059
1170.00,0.5101
1169.00,0.5127
1168.00,0.5138
1167.00,0.5140
1166.00,0.5138
1165.00,0.5139
1164.00,0.5144
1163.00,0.5156
1162.00,0.5176
1161.00,0.5199
1160.00,0.5225
1159.00,0.5252
1158.00,0.5276
1157.00,0.5294
1156.00,0.5304
1155.00,0.5305
1154.00,0.5296
1153.00,0.5278
1152.00,0.5254
1151.00,0.5225
1150.00,0.5193
1149.00,0.5160
1148.00,0.5128
1147.00,0.5098
1146.00,0.5070
1145.00,0.5046
1144.00,0.5031
1143.00,0.5030
1142.00,0.5048
1141.00,0.5086
1140.00,0.5144
1139.00,0.5223
1138.00,0.5322
1137.00,0.5439
1136.00,0.5570
1135.00,0.5702
1134.00,0.5816
1133.00,0.5887
1132.00,0.5892
1131.00,0.5827
1130.00,0.5707
1129.00,0.5563
1128.00,0.5425
1127.00,0.5314
1126.00,0.5236
1125.00,0.5184
1124.00,0.5147
1123.00,0.5118
1122.00,0.5089
1121.00,0.5062
1120.00,0.5042
1119.00,0.5037
1118.00,0.5055
1117.00,0.5097
1116.00,0.5159
1115.00,0.5224
1114.00,0.5268
1113.00,0.5272
1112.00,0.5233
1111.00,0.5170
1110.00,0.5111
1109.00,0.5073
1108.00,0.5063
1107.00,0.5071
1106.00,0.5080
1105.00,0.5070
1104.00,0.5033
1103.00,0.4970
1102.00,0.4892
1101.00,0.4809
1100.00,0.4729
1099.00,0.4656
1098.00,0.4587
1097.00,0.4526
1096.00,0.4473
1095.00,0.4432
1094.00,0.4406
1093.00,0.4393
1092.00,0.4393
1091.00,0.4406
1090.00,0.4430
1089.00,0.4464
1088.00,0.4508
1087.00,0.4566
1086.00,0.4639
1085.00,0.4724
1084.00,0.4822
1083.00,0.4931
1082.00,0.5051
1081.00,0.5179
1080.00,0.5309
1079.00,0.5432
1078.00,0.5535
1077.00,0.5601
1076.00,0.5617
1075.00,0.5582
1074.00,0.5507
1073.00,0.5409
1072.00,0.5309
1071.00,0.5219
1070.00,0.5146
1069.00,0.5088
1068.00,0.5046
1067.00,0.5015
1066.00,0.4993
1065.00,0.4974
1064.00,0.4960
1063.00,0.4952
1062.00,0.4953
1061.00,0.4960
1060.00,0.4968
1059.00,0.4973
1058.00,0.4967
1057.00,0.4949
1056.00,0.4921
1055.00,0.4886
1054.00,0.4850
1053.00,0.4816
1052.00,0.4792
1051.00,0.4782
1050.00,0.4791
1049.00,0.4813
1048.00,0.4843
1047.00,0.4874
1046.00,0.4904
1045.00,0.4929
1044.00,0.4950
1043.00,0.4969
1042.00,0.4989
1041.00,0.5012
1040.00,0.5041
1039.00,0.5073
1038.00,0.5105
1037.00,0.5132
1036.00,0.5155
1035.00,0.5180
1034.00,0.5210
1033.00,0.5250
1032.00,0.5297
1031.00,0.5350
1030.00,0.5400
1029.00,0.5437
1028.00,0.5451
1027.00,0.5432
1026.00,0.5380
1025.00,0.5299
1024.00,0.5204
1023.00,0.5109
1022.00,0.5024
1021.00,0.4952
1020.00,0.4892
1019.00,0.4843
1018.00,0.4803
1017.00,0.4770
1016.00,0.4744
1015.00,0.4724
1014.00,0.4711
1013.00,0.4706
1012.00,0.4710
1011.00,0.4724
1010.00,0.4749
1009.00,0.4784
1008.00,0.4826
1007.00,0.4874
1006.00,0.4929
1005.00,0.4990
1004.00,0.5057
1003.00,0.5131
1002.00,0.5209
1001.00,0.5285
1000.00,0.5353
999.00,0.5406
998.00,0.5437
997.00,0.5443
996.00,0.5424
995.00,0.5385
994.00,0.5334
993.00,0.5273
992.00,0.5205
991.00,0.5131
990.00,0.5054
989.00,0.4976
988.00,0.4903
987.00,0.4840
986.00,0.4792
985.00,0.4763
984.00,0.4750
983.00,0.4751
982.00,0.4758
981.00,0.4763
980.00,0.4762
979.00,0.4753
978.00,0.4738
977.00,0.4721
976.00,0.4704
975.00,0.4687
974.00,0.4669
973.00,0.4649
972.00,0.4627
971.00,0.4605
970.00,0.4586
969.00,0.4569
968.00,0.4555
967.00,0.4543
966.00,0.4532
965.00,0.4518
964.00,0.4502
963.00,0.4481
962.00,0.4456
961.00,0.4428
960.00,0.4402
959.00,0.4382
958.00,0.4367
957.00,0.4355
956.00,0.4342
955.00,0.4326
954.00,0.4304
953.00,0.4276
952.00,0.4245
951.00,0.4214
950.00,0.4189
949.00,0.4171
948.00,0.4163
947.00,0.4164
946.00,0.4171
945.00,0.4184
944.00,0.4200
943.00,0.4219
942.00,0.4240
941.00,0.4261
940.00,0.4278
939.00,0.4289
938.00,0.4293
937.00,0.4290
936.00,0.4279
935.00,0.4263
934.00,0.4242
933.00,0.4219
932.00,0.4194
931.00,0.4173
930.00,0.4156
929.00,0.4147
928.00,0.4148
927.00,0.4163
926.00,0.4196
925.00,0.4250
924.00,0.4327
923.00,0.4420
922.00,0.4512
921.00,0.4579
920.00,0.4595
919.00,0.4551
918.00,0.4453
917.00,0.4324
916.00,0.4190
915.00,0.4067
914.00,0.3963
913.00,0.3878
912.00,0.3810
911.00,0.3757
910.00,0.3715
909.00,0.3680
908.00,0.3650
907.00,0.3625
906.00,0.3607
905.00,0.3594
904.00,0.3589
903.00,0.3591
902.00,0.3600
901.00,0.3615
900.00,0.3634
899.00,0.3658
898.00,0.3688
897.00,0.3722
896.00,0.3760
895.00,0.3802
894.00,0.3848
893.00,0.3896
892.00,0.3946
891.00,0.3995
890.00,0.4038
889.00,0.4065
888.00,0.4072
887.00,0.4057
886.00,0.4027
885.00,0.3989
884.00,0.3954
883.00,0.3928
882.00,0.3916
881.00,0.3917
880.00,0.3928
879.00,0.3944
878.00,0.3959
877.00,0.3975
876.00,0.3992
875.00,0.4016
874.00,0.4044
873.00,0.4073
872.00,0.4102
871.00,0.4131
870.00,0.4162
869.00,0.4199
868.00,0.4248
867.00,0.4312
866.00,0.4392
865.00,0.4487
864.00,0.4589
863.00,0.4680
862.00,0.4735
861.00,0.4733
860.00,0.4673
859.00,0.4574
858.00,0.4464
857.00,0.4364
856.00,0.4283
855.00,0.4223
854.00,0.4179
853.00,0.4148
852.00,0.4123
851.00,0.4102
850.00,0.4079
849.00,0.4054
848.00,0.4025
847.00,0.3994
846.00,0.3964
845.00,0.3933
844.00,0.3906
843.00,0.3889
842.00,0.3890
841.00,0.3916
840.00,0.3972
839.00,0.4060
838.00,0.4170
837.00,0.4279
836.00,0.4354
835.00,0.4366
834.00,0.4307
833.00,0.4196
832.00,0.4069
831.00,0.3960
830.00,0.3885
829.00,0.3846
828.00,0.3835
827.00,0.3848
826.00,0.3879
825.00,0.3923
824.00,0.3975
823.00,0.4035
822.00,0.4100
821.00,0.4170
820.00,0.4242
819.00,0.4317
818.00,0.4387
817.00,0.4446
816.00,0.4487
815.00,0.4508
814.00,0.4507
813.00,0.4483
812.00,0.4436
811.00,0.4373
810.00,0.4304
809.00,0.4236
808.00,0.4174
807.00,0.4121
806.00,0.4073
805.00,0.4026
804.00,0.3977
803.00,0.3925
802.00,0.3871
801.00,0.3818
800.00,0.3770
799.00,0.3733
798.00,0.3707
797.00,0.3692
796.00,0.3684
795.00,0.3680
794.00,0.3680
793.00,0.3683
792.00,0.3689
791.00,0.3699
790.00,0.3714
789.00,0.3729
788.00,0.3743
787.00,0.3757
786.00,0.3774
785.00,0.3798
784.00,0.3829
783.00,0.3865
782.00,0.3902
781.00,0.3937
780.00,0.3968
779.00,0.3997
778.00,0.4023
777.00,0.4045
776.00,0.4063
775.00,0.4080
774.00,0.4097
773.00,0.4115
772.00,0.4134
771.00,0.4155
770.00,0.4179
769.00,0.4206
768.00,0.4234
767.00,0.4264
766.00,0.4294
765.00,0.4323
764.00,0.4349
763.00,0.4377
762.00,0.4411
761.00,0.4451
760.00,0.4495
759.00,0.4535
758.00,0.4564
757.00,0.4579
756.00,0.4582
755.00,0.4580
754.00,0.4581
753.00,0.4591
752.00,0.4611
751.00,0.4642
750.00,0.4681
749.00,0.4722
748.00,0.4760
747.00,0.4798
746.00,0.4838
745.00,0.4888
744.00,0.4949
743.00,0.5022
742.00,0.5102
741.00,0.5186
740.00,0.5267
739.00,0.5343
738.00,0.5412
737.00,0.5476
736.00,0.5537
735.00,0.5598
734.00,0.5665
733.00,0.5737
732.00,0.5819
731.00,0.5914
730.00,0.6031
729.00,0.6180
728.00,0.6371
727.00,0.6611
726.00,0.6909
725.00,0.7258
724.00,0.7625
723.00,0.7942
722.00,0.8106
721.00,0.8032
720.00,0.7711
719.00,0.7235
718.00,0.6721
717.00,0.6255
716.00,0.5877
715.00,0.5590
714.00,0.5377
713.00,0.5213
712.00,0.5081
711.00,0.4974
710.00,0.4892
709.00,0.4831
708.00,0.4785
707.00,0.4750
706.00,0.4719
705.00,0.4685
704.00,0.4645
703.00,0.4604
702.00,0.4565
701.00,0.4528
700.00,0.4487
699.00,0.4433
698.00,0.4357
697.00,0.4260
696.00,0.4154
695.00,0.4054
694.00,0.3970
693.00,0.3904
692.00,0.3852
691.00,0.3811
690.00,0.3776
689.00,0.3743
688.00,0.3713
687.00,0.3689
686.00,0.3673
685.00,0.3662
684.00,0.3655
683.00,0.3652
682.00,0.3656
681.00,0.3668
680.00,0.3683
679.00,0.3700
678.00,0.3717
677.00,0.3733
676.00,0.3751
675.00,0.3771
674.00,0.3792
673.00,0.3814
672.00,0.3832
671.00,0.3846
670.00,0.3855
669.00,0.3857
668.00,0.3849
667.00,0.3834
666.00,0.3821
665.00,0.3813
664.00,0.3804
663.00,0.3795
662.00,0.3787
661.00,0.3778
660.00,0.3768
659.00,0.3757
658.00,0.3746
657.00,0.3736
656.00,0.3727
655.00,0.3719
654.00,0.3713
653.00,0.3709
652.00,0.3708
651.00,0.3709
650.00,0.3712
649.00,0.3715
648.00,0.3718
647.00,0.3722
646.00,0.3728
645.00,0.3735
644.00,0.3745
643.00,0.3762
642.00,0.3783
641.00,0.3804
640.00,0.3820
639.00,0.3832
638.00,0.3840
637.00,0.3847
636.00,0.3853
635.00,0.3858
634.00,0.3865
633.00,0.3873
632.00,0.3880
631.00,0.3889
630.00,0.3900
629.00,0.3915
628.00,0.3933
627.00,0.3951
626.00,0.3968
625.00,0.3983
624.00,0.3997
623.00,0.4011
622.00,0.4025
621.00,0.4036
620.00,0.4043
619.00,0.4047
618.00,0.4048
617.00,0.4047
616.00,0.4044
615.00,0.4038
614.00,0.4027
613.00,0.4010
612.00,0.3989
611.00,0.3968
610.00,0.3949
609.00,0.3931
608.00,0.3914
607.00,0.3897
606.00,0.3884
605.00,0.3877
604.00,0.3874
603.00,0.3872
602.00,0.3870
601.00,0.3868
600.00,0.3871
599.00,0.3882
598.00,0.3899
597.00,0.3915
596.00,0.3930
595.00,0.3945
594.00,0.3961
593.00,0.3978
592.00,0.3996
591.00,0.4017
590.00,0.4040
589.00,0.4063
588.00,0.4086
587.00,0.4108
586.00,0.4131
585.00,0.4155
584.00,0.4182
583.00,0.4213
582.00,0.4243
581.00,0.4270
580.00,0.4295
579.00,0.4321
578.00,0.4348
577.00,0.4376
576.00,0.4403
575.00,0.4428
574.00,0.4449
573.00,0.4469
572.00,0.4489
571.00,0.4510
570.00,0.4533
569.00,0.4559
568.00,0.4588
567.00,0.4620
566.00,0.4652
565.00,0.4680
564.00,0.4703
563.00,0.4723
562.00,0.4742
561.00,0.4757
560.00,0.4768
559.00,0.4778
558.00,0.4789
557.00,0.4802
556.00,0.4814
555.00,0.4825
554.00,0.4833
553.00,0.4836
552.00,0.4837
551.00,0.4839
550.00,0.4838
