Created as New Dataset,
cm-1,A
4000.00,0.3040
3999.00,0.3036
3998.00,0.3033
3997.00,0.3030
3996.00,0.3028
3995.00,0.3025
3994.00,0.3021
3993.00,0.3018
3992.00,0.3014
3991.00,0.3011
3990.00,0.3007
3989.00,0.3004
3988.00,0.3001
3987.00,0.2998
3986.00,0.2995
3985.00,0.2992
3984.00,0.2989
3983.00,0.2986
3982.00,0.2982
3981.00,0.2979
3980.00,0.2975
3979.00,0.2973
3978.00,0.2971
3977.00,0.2969
3976.00,0.2966
3975.00,0.2963
3974.00,0.2960
3973.00,0.2957
3972.00,0.2954
3971.00,0.2951
3970.00,0.2949
3969.00,0.2947
3968.00,0.2946
3967.00,0.2946
3966.00,0.2945
3965.00,0.2943
3964.00,0.2940
3963.00,0.2937
3962.00,0.2934
3961.00,0.2932
3960.00,0.2931
3959.00,0.2930
3958.00,0.2929
3957.00,0.2928
3956.00,0.2926
3955.00,0.2925
3954.00,0.2924
3953.00,0.2923
3952.00,0.2923
3951.00,0.2923
3950.00,0.2922
3949.00,0.2920
3948.00,0.2918
3947.00,0.2916
3946.00,0.2914
3945.00,0.2913
3944.00,0.2911
3943.00,0.2911
3942.00,0.2910
3941.00,0.2909
3940.00,0.2908
3939.00,0.2906
3938.00,0.2905
3937.00,0.2905
3936.00,0.2905
3935.00,0.2905
3934.00,0.2905
3933.00,0.2904
3932.00,0.2904
3931.00,0.2904
3930.00,0.2904
3929.00,0.2904
3928.00,0.2904
3927.00,0.2904
3926.00,0.2904
3925.00,0.2904
3924.00,0.2905
3923.00,0.2905
3922.00,0.2906
3921.00,0.2906
3920.00,0.2906
3919.00,0.2906
3918.00,0.2904
3917.00,0.2903
3916.00,0.2902
3915.00,0.2902
3914.00,0.2901
3913.00,0.2901
3912.00,0.2900
3911.00,0.2899
3910.00,0.2899
3909.00,0.2901
3908.00,0.2903
3907.00,0.2906
3906.00,0.2908
3905.00,0.2911
3904.00,0.2913
3903.00,0.2914
3902.00,0.2915
3901.00,0.2914
3900.00,0.2911
3899.00,0.2909
3898.00,0.2907
3897.00,0.2905
3896.00,0.2905
3895.00,0.2904
3894.00,0.2903
3893.00,0.2902
3892.00,0.2901
3891.00,0.2900
3890.00,0.2901
3889.00,0.2902
3888.00,0.2902
3887.00,0.2901
3886.00,0.2900
3885.00,0.2900
3884.00,0.2901
3883.00,0.2901
3882.00,0.2901
3881.00,0.2899
3880.00,0.2898
3879.00,0.2897
3878.00,0.2897
3877.00,0.2896
3876.00,0.2895
3875.00,0.2894
3874.00,0.2894
3873.00,0.2894
3872.00,0.2894
3871.00,0.2893
3870.00,0.2893
3869.00,0.2893
3868.00,0.2893
3867.00,0.2892
3866.00,0.2890
3865.00,0.2888
3864.00,0.2886
3863.00,0.2884
3862.00,0.2882
3861.00,0.2880
3860.00,0.2878
3859.00,0.2879
3858.00,0.2881
3857.00,0.2883
3856.00,0.2885
3855.00,0.2885
3854.00,0.2885
3853.00,0.2886
3852.00,0.2887
3851.00,0.2885
3850.00,0.2882
3849.00,0.2878
3848.00,0.2875
3847.00,0.2872
3846.00,0.2870
3845.00,0.2870
3844.00,0.2871
3843.00,0.2873
3842.00,0.2876
3841.00,0.2877
3840.00,0.2879
3839.00,0.2879
3838.00,0.2880
3837.00,0.2880
3836.00,0.2879
3835.00,0.2878
3834.00,0.2875
3833.00,0.2872
3832.00,0.2869
3831.00,0.2866
3830.00,0.2864
3829.00,0.2862
3828.00,0.2860
3827.00,0.2859
3826.00,0.2859
3825.00,0.2860
3824.00,0.2861
3823.00,0.2861
3822.00,0.2861
3821.00,0.2863
3820.00,0.2865
3819.00,0.2866
3818.00,0.2864
3817.00,0.2861
3816.00,0.2856
3815.00,0.2853
3814.00,0.2850
3813.00,0.2847
3812.00,0.2844
3811.00,0.2842
3810.00,0.2840
3809.00,0.2839
3808.00,0.2838
3807.00,0.2839
3806.00,0.2840
3805.00,0.2840
3804.00,0.2840
3803.00,0.2839
3802.00,0.2838
3801.00,0.2837
3800.00,0.2835
3799.00,0.2832
3798.00,0.2828
3797.00,0.2824
3796.00,0.2820
3795.00,0.2816
3794.00,0.2812
3793.00,0.2809
3792.00,0.2807
3791.00,0.2804
3790.00,0.2803
3789.00,0.2801
3788.00,0.2800
3787.00,0.2799
3786.00,0.2797
3785.00,0.2796
3784.00,0.2796
3783.00,0.2795
3782.00,0.2795
3781.00,0.2795
3780.00,0.2794
3779.00,0.2793
3778.00,0.2791
3777.00,0.2790
3776.00,0.2788
3775.00,0.2786
3774.00,0.2785
3773.00,0.2784
3772.00,0.2784
3771.00,0.2783
3770.00,0.2784
3769.00,0.2784
3768.00,0.2784
3767.00,0.2782
3766.00,0.2780
3765.00,0.2777
3764.00,0.2776
3763.00,0.2774
3762.00,0.2773
3761.00,0.2772
3760.00,0.2770
3759.00,0.2769
3758.00,0.2767
3757.00,0.2767
3756.00,0.2767
3755.00,0.2768
3754.00,0.2769
3753.00,0.2769
3752.00,0.2770
3751.00,0.2771
3750.00,0.2773
3749.00,0.2775
3748.00,0.2777
3747.00,0.2778
3746.00,0.2776
3745.00,0.2773
3744.00,0.2770
3743.00,0.2768
3742.00,0.2766
3741.00,0.2764
3740.00,0.2762
3739.00,0.2762
3738.00,0.2762
3737.00,0.2762
3736.00,0.2762
3735.00,0.2761
3734.00,0.2759
3733.00,0.2757
3732.00,0.2755
3731.00,0.2752
3730.00,0.2749
3729.00,0.2746
3728.00,0.2743
3727.00,0.2740
3726.00,0.2738
3725.00,0.2737
3724.00,0.2736
3723.00,0.2734
3722.00,0.2733
3721.00,0.2731
3720.00,0.2729
3719.00,0.2728
3718.00,0.2726
3717.00,0.2726
3716.00,0.2726
3715.00,0.2727
3714.00,0.2729
3713.00,0.2730
3712.00,0.2732
3711.00,0.2734
3710.00,0.2735
3709.00,0.2734
3708.00,0.2734
3707.00,0.2733
3706.00,0.2732
3705.00,0.2732
3704.00,0.2731
3703.00,0.2731
3702.00,0.2730
3701.00,0.2731
3700.00,0.2732
3699.00,0.2734
3698.00,0.2734
3697.00,0.2735
3696.00,0.2736
3695.00,0.2738
3694.00,0.2740
3693.00,0.2742
3692.00,0.2745
3691.00,0.2747
3690.00,0.2750
3689.00,0.2752
3688.00,0.2754
3687.00,0.2755
3686.00,0.2755
3685.00,0.2753
3684.00,0.2752
3683.00,0.2751
3682.00,0.2752
3681.00,0.2753
3680.00,0.2756
3679.00,0.2760
3678.00,0.2763
3677.00,0.2766
3676.00,0.2769
3675.00,0.2773
3674.00,0.2777
3673.00,0.2779
3672.00,0.2779
3671.00,0.2779
3670.00,0.2779
3669.00,0.2779
3668.00,0.2780
3667.00,0.2779
3666.00,0.2779
3665.00,0.2778
3664.00,0.2779
3663.00,0.2780
3662.00,0.2782
3661.00,0.2786
3660.00,0.2790
3659.00,0.2794
3658.00,0.2798
3657.00,0.2802
3656.00,0.2807
3655.00,0.2814
3654.00,0.2820
3653.00,0.2827
3652.00,0.2833
3651.00,0.2839
3650.00,0.2845
3649.00,0.2851
3648.00,0.2856
3647.00,0.2859
3646.00,0.2860
3645.00,0.2862
3644.00,0.2863
3643.00,0.2865
3642.00,0.2868
3641.00,0.2872
3640.00,0.2878
3639.00,0.2885
3638.00,0.2892
3637.00,0.2900
3636.00,0.2907
3635.00,0.2915
3634.00,0.2924
3633.00,0.2934
3632.00,0.2945
3631.00,0.2957
3630.00,0.2972
3629.00,0.2989
3628.00,0.3007
3627.00,0.3022
3626.00,0.3033
3625.00,0.3039
3624.00,0.3042
3623.00,0.3042
3622.00,0.3039
3621.00,0.3035
3620.00,0.3028
3619.00,0.3021
3618.00,0.3015
3617.00,0.3011
3616.00,0.3008
3615.00,0.3006
3614.00,0.3005
3613.00,0.3006
3612.00,0.3008
3611.00,0.3010
3610.00,0.3013
3609.00,0.3016
3608.00,0.3019
3607.00,0.3022
3606.00,0.3024
3605.00,0.3026
3604.00,0.3027
3603.00,0.3027
3602.00,0.3027
3601.00,0.3027
3600.00,0.3026
3599.00,0.3025
3598.00,0.3025
3597.00,0.3025
3596.00,0.3024
3595.00,0.3023
3594.00,0.3022
3593.00,0.3022
3592.00,0.3024
3591.00,0.3026
3590.00,0.3027
3589.00,0.3029
3588.00,0.3030
3587.00,0.3032
3586.00,0.3034
3585.00,0.3036
3584.00,0.3037
3583.00,0.3038
3582.00,0.3039
3581.00,0.3040
3580.00,0.3041
3579.00,0.3043
3578.00,0.3046
3577.00,0.3049
3576.00,0.3053
3575.00,0.3057
3574.00,0.3062
3573.00,0.3067
3572.00,0.3073
3571.00,0.3079
3570.00,0.3086
3569.00,0.3092
3568.00,0.3098
3567.00,0.3104
3566.00,0.3110
3565.00,0.3116
3564.00,0.3122
3563.00,0.3126
3562.00,0.3131
3561.00,0.3135
3560.00,0.3140
3559.00,0.3145
3558.00,0.3151
3557.00,0.3157
3556.00,0.3163
3555.00,0.3169
3554.00,0.3176
3553.00,0.3182
3552.00,0.3189
3551.00,0.3197
3550.00,0.3205
3549.00,0.3213
3548.00,0.3220
3547.00,0.3227
3546.00,0.3234
3545.00,0.3241
3544.00,0.3249
3543.00,0.3256
3542.00,0.3264
3541.00,0.3271
3540.00,0.3277
3539.00,0.3284
3538.00,0.3290
3537.00,0.3297
3536.00,0.3304
3535.00,0.3312
3534.00,0.3319
3533.00,0.3327
3532.00,0.3335
3531.00,0.3343
3530.00,0.3351
3529.00,0.3359
3528.00,0.3367
3527.00,0.3375
3526.00,0.3383
3525.00,0.3391
3524.00,0.3399
3523.00,0.3406
3522.00,0.3414
3521.00,0.3421
3520.00,0.3429
3519.00,0.3436
3518.00,0.3444
3517.00,0.3452
3516.00,0.3461
3515.00,0.3470
3514.00,0.3478
3513.00,0.3488
3512.00,0.3497
3511.00,0.3505
3510.00,0.3514
3509.00,0.3523
3508.00,0.3532
3507.00,0.3541
3506.00,0.3550
3505.00,0.3560
3504.00,0.3569
3503.00,0.3578
3502.00,0.3588
3501.00,0.3598
3500.00,0.3607
3499.00,0.3616
3498.00,0.3625
3497.00,0.3634
3496.00,0.3644
3495.00,0.3655
3494.00,0.3666
3493.00,0.3678
3492.00,0.3689
3491.00,0.3699
3490.00,0.3709
3489.00,0.3720
3488.00,0.3731
3487.00,0.3742
3486.00,0.3753
3485.00,0.3764
3484.00,0.3774
3483.00,0.3784
3482.00,0.3794
3481.00,0.3804
3480.00,0.3813
3479.00,0.3822
3478.00,0.3830
3477.00,0.3838
3476.00,0.3847
3475.00,0.3856
3474.00,0.3865
3473.00,0.3875
3472.00,0.3885
3471.00,0.3894
3470.00,0.3904
3469.00,0.3914
3468.00,0.3925
3467.00,0.3936
3466.00,0.3947
3465.00,0.3957
3464.00,0.3968
3463.00,0.3978
3462.00,0.3989
3461.00,0.4000
3460.00,0.4011
3459.00,0.4022
3458.00,0.4033
3457.00,0.4044
3456.00,0.4056
3455.00,0.4067
3454.00,0.4078
3453.00,0.4090
3452.00,0.4102
3451.00,0.4115
3450.00,0.4128
3449.00,0.4141
3448.00,0.4153
3447.00,0.4166
3446.00,0.4178
3445.00,0.4190
3444.00,0.4203
3443.00,0.4216
3442.00,0.4229
3441.00,0.4242
3440.00,0.4255
3439.00,0.4269
3438.00,0.4283
3437.00,0.4297
3436.00,0.4310
3435.00,0.4323
3434.00,0.4336
3433.00,0.4349
3432.00,0.4363
3431.00,0.4377
3430.00,0.4391
3429.00,0.4406
3428.00,0.4420
3427.00,0.4433
3426.00,0.4447
3425.00,0.4461
3424.00,0.4475
3423.00,0.4490
3422.00,0.4505
3421.00,0.4520
3420.00,0.4534
3419.00,0.4549
3418.00,0.4564
3417.00,0.4579
3416.00,0.4594
3415.00,0.4610
3414.00,0.4625
3413.00,0.4641
3412.00,0.4656
3411.00,0.4672
3410.00,0.4687
3409.00,0.4703
3408.00,0.4719
3407.00,0.4734
3406.00,0.4749
3405.00,0.4765
3404.00,0.4781
3403.00,0.4798
3402.00,0.4815
3401.00,0.4832
3400.00,0.4849
3399.00,0.4866
3398.00,0.4883
3397.00,0.4900
3396.00,0.4917
3395.00,0.4934
3394.00,0.4951
3393.00,0.4967
3392.00,0.4984
3391.00,0.5000
3390.00,0.5016
3389.00,0.5033
3388.00,0.5050
3387.00,0.5067
3386.00,0.5085
3385.00,0.5103
3384.00,0.5121
3383.00,0.5138
3382.00,0.5156
3381.00,0.5174
3380.00,0.5192
3379.00,0.5211
3378.00,0.5229
3377.00,0.5247
3376.00,0.5266
3375.00,0.5284
3374.00,0.5304
3373.00,0.5324
3372.00,0.5346
3371.00,0.5367
3370.00,0.5388
3369.00,0.5408
3368.00,0.5429
3367.00,0.5449
3366.00,0.5470
3365.00,0.5492
3364.00,0.5515
3363.00,0.5537
3362.00,0.5558
3361.00,0.5580
3360.00,0.5602
3359.00,0.5625
3358.00,0.5648
3357.00,0.5672
3356.00,0.5695
3355.00,0.5716
3354.00,0.5737
3353.00,0.5760
3352.00,0.5783
3351.00,0.5806
3350.00,0.5829
3349.00,0.5850
3348.00,0.5872
3347.00,0.5893
3346.00,0.5915
3345.00,0.5936
3344.00,0.5957
3343.00,0.5977
3342.00,0.5997
3341.00,0.6016
3340.00,0.6034
3339.00,0.6051
3338.00,0.6067
3337.00,0.6083
3336.00,0.6099
3335.00,0.6114
3334.00,0.6128
3333.00,0.6140
3332.00,0.6152
3331.00,0.6163
3330.00,0.6172
3329.00,0.6180
3328.00,0.6188
3327.00,0.6195
3326.00,0.6202
3325.00,0.6209
3324.00,0.6215
3323.00,0.6219
3322.00,0.6223
3321.00,0.6225
3320.00,0.6227
3319.00,0.6227
3318.00,0.6227
3317.00,0.6226
3316.00,0.6224
3315.00,0.6222
3314.00,0.6219
3313.00,0.6217
3312.00,0.6215
3311.00,0.6213
3310.00,0.6210
3309.00,0.6206
3308.00,0.6202
3307.00,0.6198
3306.00,0.6193
3305.00,0.6188
3304.00,0.6182
3303.00,0.6176
3302.00,0.6171
3301.00,0.6166
3300.00,0.6162
3299.00,0.6158
3298.00,0.6154
3297.00,0.6150
3296.00,0.6146
3295.00,0.6142
3294.00,0.6138
3293.00,0.6135
3292.00,0.6132
3291.00,0.6128
3290.00,0.6126
3289.00,0.6123
3288.00,0.6119
3287.00,0.6116
3286.00,0.6114
3285.00,0.6112
3284.00,0.6111
3283.00,0.6109
3282.00,0.6109
3281.00,0.6108
3280.00,0.6108
3279.00,0.6108
3278.00,0.6109
3277.00,0.6109
3276.00,0.6110
3275.00,0.6111
3274.00,0.6112
3273.00,0.6114
3272.00,0.6116
3271.00,0.6118
3270.00,0.6121
3269.00,0.6124
3268.00,0.6129
3267.00,0.6132
3266.00,0.6135
3265.00,0.6137
3264.00,0.6138
3263.00,0.6140
3262.00,0.6142
3261.00,0.6145
3260.00,0.6148
3259.00,0.6152
3258.00,0.6155
3257.00,0.6159
3256.00,0.6161
3255.00,0.6163
3254.00,0.6164
3253.00,0.6166
3252.00,0.6169
3251.00,0.6171
3250.00,0.6173
3249.00,0.6173
3248.00,0.6174
3247.00,0.6173
3246.00,0.6172
3245.00,0.6171
3244.00,0.6170
3243.00,0.6168
3242.00,0.6167
3241.00,0.6164
3240.00,0.6161
3239.00,0.6158
3238.00,0.6154
3237.00,0.6151
3236.00,0.6147
3235.00,0.6143
3234.00,0.6138
3233.00,0.6133
3232.00,0.6127
3231.00,0.6122
3230.00,0.6115
3229.00,0.6109
3228.00,0.6102
3227.00,0.6095
3226.00,0.6088
3225.00,0.6081
3224.00,0.6073
3223.00,0.6064
3222.00,0.6055
3221.00,0.6045
3220.00,0.6036
3219.00,0.6026
3218.00,0.6017
3217.00,0.6008
3216.00,0.5998
3215.00,0.5988
3214.00,0.5977
3213.00,0.5966
3212.00,0.5955
3211.00,0.5944
3210.00,0.5933
3209.00,0.5923
3208.00,0.5912
3207.00,0.5902
3206.00,0.5891
3205.00,0.5880
3204.00,0.5868
3203.00,0.5855
3202.00,0.5842
3201.00,0.5828
3200.00,0.5815
3199.00,0.5802
3198.00,0.5788
3197.00,0.5774
3196.00,0.5760
3195.00,0.5746
3194.00,0.5732
3193.00,0.5717
3192.00,0.5701
3191.00,0.5686
3190.00,0.5670
3189.00,0.5654
3188.00,0.5638
3187.00,0.5622
3186.00,0.5605
3185.00,0.5587
3184.00,0.5569
3183.00,0.5551
3182.00,0.5533
3181.00,0.5514
3180.00,0.5496
3179.00,0.5478
3178.00,0.5459
3177.00,0.5440
3176.00,0.5422
3175.00,0.5403
3174.00,0.5384
3173.00,0.5364
3172.00,0.5345
3171.00,0.5326
3170.00,0.5307
3169.00,0.5288
3168.00,0.5269
3167.00,0.5249
3166.00,0.5229
3165.00,0.5208
3164.00,0.5187
3163.00,0.5167
3162.00,0.5147
3161.00,0.5129
3160.00,0.5111
3159.00,0.5092
3158.00,0.5072
3157.00,0.5053
3156.00,0.5033
3155.00,0.5014
3154.00,0.4995
3153.00,0.4976
3152.00,0.4957
3151.00,0.4938
3150.00,0.4920
3149.00,0.4903
3148.00,0.4886
3147.00,0.4870
3146.00,0.4853
3145.00,0.4837
3144.00,0.4821
3143.00,0.4805
3142.00,0.4788
3141.00,0.4773
3140.00,0.4758
3139.00,0.4744
3138.00,0.4730
3137.00,0.4717
3136.00,0.4704
3135.00,0.4691
3134.00,0.4678
3133.00,0.4665
3132.00,0.4653
3131.00,0.4640
3130.00,0.4628
3129.00,0.4617
3128.00,0.4607
3127.00,0.4597
3126.00,0.4588
3125.00,0.4581
3124.00,0.4573
3123.00,0.4566
3122.00,0.4559
3121.00,0.4551
3120.00,0.4544
3119.00,0.4537
3118.00,0.4532
3117.00,0.4526
3116.00,0.4521
3115.00,0.4516
3114.00,0.4511
3113.00,0.4508
3112.00,0.4506
3111.00,0.4505
3110.00,0.4504
3109.00,0.4503
3108.00,0.4503
3107.00,0.4503
3106.00,0.4504
3105.00,0.4504
3104.00,0.4505
3103.00,0.4506
3102.00,0.4507
3101.00,0.4509
3100.00,0.4511
3099.00,0.4514
3098.00,0.4518
3097.00,0.4523
3096.00,0.4530
3095.00,0.4538
3094.00,0.4547
3093.00,0.4558
3092.00,0.4570
3091.00,0.4582
3090.00,0.4597
3089.00,0.4612
3088.00,0.4629
3087.00,0.4646
3086.00,0.4665
3085.00,0.4685
3084.00,0.4706
3083.00,0.4728
3082.00,0.4752
3081.00,0.4778
3080.00,0.4805
3079.00,0.4835
3078.00,0.4866
3077.00,0.4898
3076.00,0.4931
3075.00,0.4966
3074.00,0.5001
3073.00,0.5037
3072.00,0.5074
3071.00,0.5109
3070.00,0.5145
3069.00,0.5179
3068.00,0.5213
3067.00,0.5245
3066.00,0.5275
3065.00,0.5304
3064.00,0.5330
3063.00,0.5354
3062.00,0.5377
3061.00,0.5399
3060.00,0.5421
3059.00,0.5442
3058.00,0.5463
3057.00,0.5484
3056.00,0.5508
3055.00,0.5534
3054.00,0.5563
3053.00,0.5595
3052.00,0.5628
3051.00,0.5663
3050.00,0.5701
3049.00,0.5741
3048.00,0.5782
3047.00,0.5825
3046.00,0.5869
3045.00,0.5914
3044.00,0.5959
3043.00,0.6004
3042.00,0.6047
3041.00,0.6090
3040.00,0.6133
3039.00,0.6177
3038.00,0.6222
3037.00,0.6269
3036.00,0.6319
3035.00,0.6372
3034.00,0.6429
3033.00,0.6490
3032.00,0.6556
3031.00,0.6626
3030.00,0.6700
3029.00,0.6778
3028.00,0.6860
3027.00,0.6946
3026.00,0.7038
3025.00,0.7134
3024.00,0.7234
3023.00,0.7339
3022.00,0.7449
3021.00,0.7562
3020.00,0.7677
3019.00,0.7796
3018.00,0.7918
3017.00,0.8042
3016.00,0.8169
3015.00,0.8299
3014.00,0.8432
3013.00,0.8571
3012.00,0.8717
3011.00,0.8872
3010.00,0.9035
3009.00,0.9206
3008.00,0.9384
3007.00,0.9570
3006.00,0.9765
3005.00,0.9970
3004.00,1.0184
3003.00,1.0409
3002.00,1.0642
3001.00,1.0885
3000.00,1.1136
2999.00,1.1399
2998.00,1.1681
2997.00,1.1988
2996.00,1.2322
2995.00,1.2684
2994.00,1.3077
2993.00,1.3503
2992.00,1.3975
2991.00,1.4502
2990.00,1.5092
2989.00,1.5745
2988.00,1.6464
2987.00,1.7256
2986.00,1.8132
2985.00,1.9100
2984.00,2.0158
2983.00,2.1323
2982.00,2.2625
2981.00,2.4091
2980.00,2.5698
2979.00,2.7388
2978.00,2.9117
2977.00,3.0884
2976.00,3.2756
2975.00,3.4803
2974.00,3.7081
2973.00,3.9572
2972.00,4.0990
2971.00,4.0654
2970.00,3.9929
2969.00,3.9499
2968.00,3.9381
2967.00,3.8919
2966.00,3.7930
2965.00,3.6776
2964.00,3.6087
2963.00,3.6243
2962.00,3.6944
2961.00,3.7585
2960.00,3.7943
2959.00,3.8352
2958.00,3.8747
2957.00,3.8605
2956.00,3.8125
2955.00,3.7745
2954.00,3.7650
2953.00,3.7622
2952.00,3.7897
2951.00,3.8583
2950.00,4.0283
2949.00,4.2649
2948.00,4.1622
2947.00,4.0085
2946.00,4.0317
2945.00,4.3112
2944.00,4.5886
2943.00,4.5520
2942.00,4.3563
2941.00,4.0175
2940.00,3.7590
2939.00,3.6520
2938.00,3.6595
2937.00,3.6972
2936.00,3.7268
2935.00,3.7476
2934.00,3.7808
2933.00,3.8315
2932.00,3.8617
2931.00,3.8453
2930.00,3.8190
2929.00,3.8559
2928.00,4.0532
2927.00,4.2460
2926.00,4.0849
2925.00,3.9243
2924.00,3.8801
2923.00,3.9954
2922.00,4.1379
2921.00,4.1415
2920.00,4.0345
2919.00,3.9095
2918.00,3.9196
2917.00,4.0050
2916.00,4.1214
2915.00,4.3491
2914.00,4.6027
2913.00,4.6889
2912.00,4.3834
2911.00,4.2938
2910.00,4.4109
2909.00,4.1885
2908.00,3.9412
2907.00,3.8056
2906.00,3.8616
2905.00,4.0195
2904.00,4.1407
2903.00,4.1746
2902.00,3.9969
2901.00,3.8612
2900.00,3.8247
2899.00,3.8789
2898.00,3.8835
2897.00,3.7774
2896.00,3.6997
2895.00,3.7171
2894.00,3.8078
2893.00,3.8563
2892.00,3.7870
2891.00,3.6918
2890.00,3.6655
2889.00,3.7569
2888.00,3.9651
2887.00,4.1323
2886.00,4.1017
2885.00,4.0157
2884.00,4.0103
2883.00,4.0489
2882.00,4.0948
2881.00,4.1212
2880.00,4.0820
2879.00,4.0185
2878.00,3.9424
2877.00,3.8680
2876.00,3.8703
2875.00,3.9721
2874.00,4.2262
2873.00,4.6909
2872.00,4.7184
2871.00,4.4630
2870.00,4.2263
2869.00,4.1667
2868.00,4.1645
2867.00,4.2261
2866.00,4.2793
2865.00,4.1511
2864.00,4.0099
2863.00,4.0066
2862.00,4.1964
2861.00,4.2745
2860.00,4.1027
2859.00,3.9991
2858.00,4.0137
2857.00,4.0072
2856.00,3.9960
2855.00,4.1500
2854.00,4.3792
2853.00,4.2525
2852.00,4.0261
2851.00,3.9476
2850.00,4.0104
2849.00,4.2422
2848.00,4.5562
2847.00,4.4617
2846.00,4.2479
2845.00,4.0908
2844.00,4.0036
2843.00,3.9546
2842.00,3.9491
2841.00,3.9285
2840.00,3.8475
2839.00,3.7538
2838.00,3.6020
2837.00,3.3613
2836.00,3.0995
2835.00,2.8654
2834.00,2.6629
2833.00,2.4852
2832.00,2.3275
2831.00,2.1859
2830.00,2.0572
2829.00,1.9397
2828.00,1.8335
2827.00,1.7386
2826.00,1.6541
2825.00,1.5786
2824.00,1.5106
2823.00,1.4491
2822.00,1.3931
2821.00,1.3413
2820.00,1.2934
2819.00,1.2491
2818.00,1.2082
2817.00,1.1703
2816.00,1.1350
2815.00,1.1019
2814.00,1.0709
2813.00,1.0418
2812.00,1.0145
2811.00,0.9888
2810.00,0.9647
2809.00,0.9419
2808.00,0.9203
2807.00,0.8997
2806.00,0.8802
2805.00,0.8615
2804.00,0.8437
2803.00,0.8268
2802.00,0.8107
2801.00,0.7954
2800.00,0.7808
2799.00,0.7670
2798.00,0.7538
2797.00,0.7411
2796.00,0.7288
2795.00,0.7169
2794.00,0.7057
2793.00,0.6948
2792.00,0.6842
2791.00,0.6737
2790.00,0.6633
2789.00,0.6531
2788.00,0.6432
2787.00,0.6336
2786.00,0.6242
2785.00,0.6151
2784.00,0.6063
2783.00,0.5977
2782.00,0.5894
2781.00,0.5815
2780.00,0.5739
2779.00,0.5666
2778.00,0.5596
2777.00,0.5529
2776.00,0.5466
2775.00,0.5407
2774.00,0.5351
2773.00,0.5299
2772.00,0.5251
2771.00,0.5207
2770.00,0.5166
2769.00,0.5128
2768.00,0.5094
2767.00,0.5062
2766.00,0.5034
2765.00,0.5010
2764.00,0.4988
2763.00,0.4970
2762.00,0.4953
2761.00,0.4939
2760.00,0.4925
2759.00,0.4912
2758.00,0.4899
2757.00,0.4886
2756.00,0.4873
2755.00,0.4862
2754.00,0.4851
2753.00,0.4843
2752.00,0.4836
2751.00,0.4831
2750.00,0.4829
2749.00,0.4829
2748.00,0.4831
2747.00,0.4834
2746.00,0.4841
2745.00,0.4850
2744.00,0.4861
2743.00,0.4876
2742.00,0.4895
2741.00,0.4918
2740.00,0.4945
2739.00,0.4976
2738.00,0.5013
2737.00,0.5055
2736.00,0.5103
2735.00,0.5155
2734.00,0.5210
2733.00,0.5263
2732.00,0.5312
2731.00,0.5354
2730.00,0.5387
2729.00,0.5409
2728.00,0.5421
2727.00,0.5423
2726.00,0.5419
2725.00,0.5409
2724.00,0.5393
2723.00,0.5373
2722.00,0.5347
2721.00,0.5316
2720.00,0.5281
2719.00,0.5241
2718.00,0.5199
2717.00,0.5154
2716.00,0.5107
2715.00,0.5058
2714.00,0.5009
2713.00,0.4962
2712.00,0.4916
2711.00,0.4874
2710.00,0.4836
2709.00,0.4804
2708.00,0.4775
2707.00,0.4751
2706.00,0.4730
2705.00,0.4712
2704.00,0.4697
2703.00,0.4685
2702.00,0.4676
2701.00,0.4670
2700.00,0.4666
2699.00,0.4664
2698.00,0.4663
2697.00,0.4664
2696.00,0.4667
2695.00,0.4670
2694.00,0.4674
2693.00,0.4680
2692.00,0.4686
2691.00,0.4692
2690.00,0.4698
2689.00,0.4704
2688.00,0.4710
2687.00,0.4716
2686.00,0.4721
2685.00,0.4725
2684.00,0.4729
2683.00,0.4732
2682.00,0.4735
2681.00,0.4739
2680.00,0.4744
2679.00,0.4749
2678.00,0.4756
2677.00,0.4762
2676.00,0.4768
2675.00,0.4774
2674.00,0.4780
2673.00,0.4786
2672.00,0.4792
2671.00,0.4795
2670.00,0.4796
2669.00,0.4794
2668.00,0.4789
2667.00,0.4780
2666.00,0.4768
2665.00,0.4754
2664.00,0.4738
2663.00,0.4720
2662.00,0.4700
2661.00,0.4680
2660.00,0.4658
2659.00,0.4635
2658.00,0.4613
2657.00,0.4592
2656.00,0.4571
2655.00,0.4551
2654.00,0.4531
2653.00,0.4512
2652.00,0.4494
2651.00,0.4476
2650.00,0.4458
2649.00,0.4442
2648.00,0.4426
2647.00,0.4412
2646.00,0.4397
2645.00,0.4384
2644.00,0.4370
2643.00,0.4358
2642.00,0.4346
2641.00,0.4336
2640.00,0.4325
2639.00,0.4316
2638.00,0.4307
2637.00,0.4299
2636.00,0.4290
2635.00,0.4281
2634.00,0.4273
2633.00,0.4264
2632.00,0.4256
2631.00,0.4247
2630.00,0.4238
2629.00,0.4228
2628.00,0.4217
2627.00,0.4206
2626.00,0.4196
2625.00,0.4186
2624.00,0.4177
2623.00,0.4167
2622.00,0.4158
2621.00,0.4149
2620.00,0.4139
2619.00,0.4129
2618.00,0.4118
2617.00,0.4107
2616.00,0.4097
2615.00,0.4087
2614.00,0.4077
2613.00,0.4067
2612.00,0.4055
2611.00,0.4044
2610.00,0.4033
2609.00,0.4023
2608.00,0.4013
2607.00,0.4003
2606.00,0.3992
2605.00,0.3981
2604.00,0.3970
2603.00,0.3960
2602.00,0.3949
2601.00,0.3939
2600.00,0.3927
2599.00,0.3915
2598.00,0.3901
2597.00,0.3888
2596.00,0.3873
2595.00,0.3858
2594.00,0.3842
2593.00,0.3825
2592.00,0.3809
2591.00,0.3792
2590.00,0.3774
2589.00,0.3756
2588.00,0.3739
2587.00,0.3721
2586.00,0.3703
2585.00,0.3685
2584.00,0.3667
2583.00,0.3648
2582.00,0.3629
2581.00,0.3611
2580.00,0.3592
2579.00,0.3573
2578.00,0.3555
2577.00,0.3537
2576.00,0.3519
2575.00,0.3502
2574.00,0.3485
2573.00,0.3469
2572.00,0.3453
2571.00,0.3438
2570.00,0.3423
2569.00,0.3409
2568.00,0.3395
2567.00,0.3381
2566.00,0.3366
2565.00,0.3351
2564.00,0.3337
2563.00,0.3322
2562.00,0.3309
2561.00,0.3296
2560.00,0.3283
2559.00,0.3271
2558.00,0.3258
2557.00,0.3245
2556.00,0.3233
2555.00,0.3221
2554.00,0.3209
2553.00,0.3197
2552.00,0.3185
2551.00,0.3174
2550.00,0.3163
2549.00,0.3153
2548.00,0.3143
2547.00,0.3133
2546.00,0.3122
2545.00,0.3112
2544.00,0.3103
2543.00,0.3094
2542.00,0.3085
2541.00,0.3077
2540.00,0.3070
2539.00,0.3062
2538.00,0.3055
2537.00,0.3048
2536.00,0.3041
2535.00,0.3035
2534.00,0.3028
2533.00,0.3022
2532.00,0.3015
2531.00,0.3008
2530.00,0.3001
2529.00,0.2993
2528.00,0.2985
2527.00,0.2976
2526.00,0.2968
2525.00,0.2959
2524.00,0.2950
2523.00,0.2940
2522.00,0.2931
2521.00,0.2921
2520.00,0.2912
2519.00,0.2903
2518.00,0.2894
2517.00,0.2885
2516.00,0.2877
2515.00,0.2869
2514.00,0.2862
2513.00,0.2855
2512.00,0.2848
2511.00,0.2841
2510.00,0.2834
2509.00,0.2828
2508.00,0.2822
2507.00,0.2816
2506.00,0.2811
2505.00,0.2806
2504.00,0.2802
2503.00,0.2798
2502.00,0.2794
2501.00,0.2790
2500.00,0.2787
2499.00,0.2783
2498.00,0.2780
2497.00,0.2777
2496.00,0.2774
2495.00,0.2771
2494.00,0.2769
2493.00,0.2766
2492.00,0.2763
2491.00,0.2761
2490.00,0.2758
2489.00,0.2755
2488.00,0.2752
2487.00,0.2748
2486.00,0.2745
2485.00,0.2742
2484.00,0.2739
2483.00,0.2735
2482.00,0.2732
2481.00,0.2729
2480.00,0.2726
2479.00,0.2722
2478.00,0.2719
2477.00,0.2716
2476.00,0.2712
2475.00,0.2709
2474.00,0.2706
2473.00,0.2703
2472.00,0.2700
2471.00,0.2697
2470.00,0.2693
2469.00,0.2690
2468.00,0.2687
2467.00,0.2684
2466.00,0.2681
2465.00,0.2678
2464.00,0.2675
2463.00,0.2672
2462.00,0.2669
2461.00,0.2667
2460.00,0.2665
2459.00,0.2664
2458.00,0.2662
2457.00,0.2661
2456.00,0.2660
2455.00,0.2659
2454.00,0.2658
2453.00,0.2657
2452.00,0.2656
2451.00,0.2655
2450.00,0.2654
2449.00,0.2653
2448.00,0.2654
2447.00,0.2654
2446.00,0.2654
2445.00,0.2654
2444.00,0.2655
2443.00,0.2655
2442.00,0.2655
2441.00,0.2656
2440.00,0.2657
2439.00,0.2658
2438.00,0.2659
2437.00,0.2660
2436.00,0.2660
2435.00,0.2660
2434.00,0.2660
2433.00,0.2660
2432.00,0.2661
2431.00,0.2662
2430.00,0.2663
2429.00,0.2664
2428.00,0.2665
2427.00,0.2665
2426.00,0.2666
2425.00,0.2668
2424.00,0.2669
2423.00,0.2671
2422.00,0.2672
2421.00,0.2673
2420.00,0.2673
2419.00,0.2674
2418.00,0.2674
2417.00,0.2675
2416.00,0.2676
2415.00,0.2677
2414.00,0.2678
2413.00,0.2679
2412.00,0.2680
2411.00,0.2680
2410.00,0.2681
2409.00,0.2681
2408.00,0.2681
2407.00,0.2680
2406.00,0.2680
2405.00,0.2679
2404.00,0.2679
2403.00,0.2678
2402.00,0.2676
2401.00,0.2675
2400.00,0.2673
2399.00,0.2672
2398.00,0.2671
2397.00,0.2669
2396.00,0.2668
2395.00,0.2666
2394.00,0.2665
2393.00,0.2664
2392.00,0.2663
2391.00,0.2662
2390.00,0.2661
2389.00,0.2661
2388.00,0.2660
2387.00,0.2661
2386.00,0.2661
2385.00,0.2661
2384.00,0.2662
2383.00,0.2663
2382.00,0.2664
2381.00,0.2665
2380.00,0.2667
2379.00,0.2668
2378.00,0.2669
2377.00,0.2669
2376.00,0.2669
2375.00,0.2668
2374.00,0.2667
2373.00,0.2666
2372.00,0.2665
2371.00,0.2664
2370.00,0.2663
2369.00,0.2661
2368.00,0.2660
2367.00,0.2659
2366.00,0.2660
2365.00,0.2662
2364.00,0.2664
2363.00,0.2664
2362.00,0.2664
2361.00,0.2663
2360.00,0.2662
2359.00,0.2662
2358.00,0.2661
2357.00,0.2661
2356.00,0.2662
2355.00,0.2662
2354.00,0.2662
2353.00,0.2663
2352.00,0.2663
2351.00,0.2662
2350.00,0.2660
2349.00,0.2657
2348.00,0.2655
2347.00,0.2654
2346.00,0.2653
2345.00,0.2653
2344.00,0.2652
2343.00,0.2651
2342.00,0.2649
2341.00,0.2648
2340.00,0.2647
2339.00,0.2646
2338.00,0.2645
2337.00,0.2645
2336.00,0.2643
2335.00,0.2642
2334.00,0.2641
2333.00,0.2641
2332.00,0.2640
2331.00,0.2638
2330.00,0.2635
2329.00,0.2632
2328.00,0.2630
2327.00,0.2629
2326.00,0.2627
2325.00,0.2625
2324.00,0.2623
2323.00,0.2621
2322.00,0.2618
2321.00,0.2615
2320.00,0.2613
2319.00,0.2609
2318.00,0.2606
2317.00,0.2603
2316.00,0.2601
2315.00,0.2599
2314.00,0.2598
2313.00,0.2596
2312.00,0.2594
2311.00,0.2592
2310.00,0.2589
2309.00,0.2587
2308.00,0.2583
2307.00,0.2580
2306.00,0.2577
2305.00,0.2574
2304.00,0.2572
2303.00,0.2569
2302.00,0.2567
2301.00,0.2564
2300.00,0.2562
2299.00,0.2559
2298.00,0.2556
2297.00,0.2553
2296.00,0.2551
2295.00,0.2548
2294.00,0.2545
2293.00,0.2542
2292.00,0.2539
2291.00,0.2536
2290.00,0.2533
2289.00,0.2529
2288.00,0.2526
2287.00,0.2523
2286.00,0.2520
2285.00,0.2517
2284.00,0.2514
2283.00,0.2511
2282.00,0.2508
2281.00,0.2505
2280.00,0.2503
2279.00,0.2500
2278.00,0.2497
2277.00,0.2494
2276.00,0.2491
2275.00,0.2489
2274.00,0.2487
2273.00,0.2485
2272.00,0.2483
2271.00,0.2481
2270.00,0.2479
2269.00,0.2478
2268.00,0.2477
2267.00,0.2475
2266.00,0.2474
2265.00,0.2472
2264.00,0.2469
2263.00,0.2467
2262.00,0.2465
2261.00,0.2462
2260.00,0.2460
2259.00,0.2457
2258.00,0.2455
2257.00,0.2452
2256.00,0.2450
2255.00,0.2448
2254.00,0.2445
2253.00,0.2442
2252.00,0.2440
2251.00,0.2437
2250.00,0.2434
2249.00,0.2432
2248.00,0.2429
2247.00,0.2427
2246.00,0.2425
2245.00,0.2423
2244.00,0.2421
2243.00,0.2419
2242.00,0.2418
2241.00,0.2416
2240.00,0.2414
2239.00,0.2412
2238.00,0.2410
2237.00,0.2409
2236.00,0.2408
2235.00,0.2407
2234.00,0.2405
2233.00,0.2404
2232.00,0.2402
2231.00,0.2401
2230.00,0.2400
2229.00,0.2399
2228.00,0.2399
2227.00,0.2398
2226.00,0.2396
2225.00,0.2395
2224.00,0.2394
2223.00,0.2393
2222.00,0.2392
2221.00,0.2391
2220.00,0.2390
2219.00,0.2389
2218.00,0.2389
2217.00,0.2388
2216.00,0.2387
2215.00,0.2386
2214.00,0.2386
2213.00,0.2386
2212.00,0.2386
2211.00,0.2386
2210.00,0.2385
2209.00,0.2385
2208.00,0.2384
2207.00,0.2383
2206.00,0.2383
2205.00,0.2383
2204.00,0.2383
2203.00,0.2383
2202.00,0.2383
2201.00,0.2383
2200.00,0.2382
2199.00,0.2382
2198.00,0.2382
2197.00,0.2382
2196.00,0.2382
2195.00,0.2382
2194.00,0.2381
2193.00,0.2381
2192.00,0.2381
2191.00,0.2381
2190.00,0.2381
2189.00,0.2381
2188.00,0.2381
2187.00,0.2381
2186.00,0.2381
2185.00,0.2381
2184.00,0.2380
2183.00,0.2380
2182.00,0.2379
2181.00,0.2379
2180.00,0.2379
2179.00,0.2378
2178.00,0.2377
2177.00,0.2377
2176.00,0.2376
2175.00,0.2374
2174.00,0.2373
2173.00,0.2372
2172.00,0.2371
2171.00,0.2370
2170.00,0.2369
2169.00,0.2368
2168.00,0.2366
2167.00,0.2365
2166.00,0.2363
2165.00,0.2361
2164.00,0.2359
2163.00,0.2357
2162.00,0.2356
2161.00,0.2354
2160.00,0.2353
2159.00,0.2351
2158.00,0.2349
2157.00,0.2346
2156.00,0.2344
2155.00,0.2342
2154.00,0.2340
2153.00,0.2339
2152.00,0.2338
2151.00,0.2336
2150.00,0.2335
2149.00,0.2333
2148.00,0.2330
2147.00,0.2327
2146.00,0.2324
2145.00,0.2320
2144.00,0.2316
2143.00,0.2312
2142.00,0.2308
2141.00,0.2305
2140.00,0.2302
2139.00,0.2299
2138.00,0.2295
2137.00,0.2292
2136.00,0.2290
2135.00,0.2287
2134.00,0.2285
2133.00,0.2283
2132.00,0.2281
2131.00,0.2278
2130.00,0.2276
2129.00,0.2273
2128.00,0.2271
2127.00,0.2269
2126.00,0.2267
2125.00,0.2265
2124.00,0.2263
2123.00,0.2262
2122.00,0.2260
2121.00,0.2259
2120.00,0.2258
2119.00,0.2257
2118.00,0.2256
2117.00,0.2256
2116.00,0.2255
2115.00,0.2254
2114.00,0.2253
2113.00,0.2253
2112.00,0.2252
2111.00,0.2252
2110.00,0.2252
2109.00,0.2251
2108.00,0.2251
2107.00,0.2250
2106.00,0.2249
2105.00,0.2249
2104.00,0.2249
2103.00,0.2248
2102.00,0.2248
2101.00,0.2247
2100.00,0.2247
2099.00,0.2246
2098.00,0.2246
2097.00,0.2245
2096.00,0.2245
2095.00,0.2244
2094.00,0.2243
2093.00,0.2242
2092.00,0.2241
2091.00,0.2240
2090.00,0.2239
2089.00,0.2239
2088.00,0.2239
2087.00,0.2239
2086.00,0.2238
2085.00,0.2238
2084.00,0.2237
2083.00,0.2237
2082.00,0.2236
2081.00,0.2235
2080.00,0.2235
2079.00,0.2234
2078.00,0.2234
2077.00,0.2234
2076.00,0.2234
2075.00,0.2234
2074.00,0.2234
2073.00,0.2235
2072.00,0.2236
2071.00,0.2236
2070.00,0.2236
2069.00,0.2237
2068.00,0.2237
2067.00,0.2238
2066.00,0.2238
2065.00,0.2239
2064.00,0.2241
2063.00,0.2242
2062.00,0.2243
2061.00,0.2244
2060.00,0.2244
2059.00,0.2244
2058.00,0.2244
2057.00,0.2244
2056.00,0.2245
2055.00,0.2245
2054.00,0.2246
2053.00,0.2246
2052.00,0.2247
2051.00,0.2248
2050.00,0.2248
2049.00,0.2249
2048.00,0.2250
2047.00,0.2251
2046.00,0.2252
2045.00,0.2254
2044.00,0.2255
2043.00,0.2255
2042.00,0.2256
2041.00,0.2258
2040.00,0.2260
2039.00,0.2262
2038.00,0.2263
2037.00,0.2265
2036.00,0.2266
2035.00,0.2267
2034.00,0.2267
2033.00,0.2268
2032.00,0.2268
2031.00,0.2269
2030.00,0.2269
2029.00,0.2268
2028.00,0.2268
2027.00,0.2268
2026.00,0.2267
2025.00,0.2266
2024.00,0.2264
2023.00,0.2261
2022.00,0.2258
2021.00,0.2253
2020.00,0.2248
2019.00,0.2242
2018.00,0.2236
2017.00,0.2231
2016.00,0.2227
2015.00,0.2222
2014.00,0.2217
2013.00,0.2212
2012.00,0.2207
2011.00,0.2202
2010.00,0.2196
2009.00,0.2192
2008.00,0.2189
2007.00,0.2186
2006.00,0.2184
2005.00,0.2182
2004.00,0.2181
2003.00,0.2179
2002.00,0.2178
2001.00,0.2177
2000.00,0.2177
1999.00,0.2176
1998.00,0.2176
1997.00,0.2175
1996.00,0.2174
1995.00,0.2172
1994.00,0.2169
1993.00,0.2168
1992.00,0.2168
1991.00,0.2169
1990.00,0.2170
1989.00,0.2169
1988.00,0.2169
1987.00,0.2168
1986.00,0.2168
1985.00,0.2168
1984.00,0.2167
1983.00,0.2166
1982.00,0.2164
1981.00,0.2163
1980.00,0.2162
1979.00,0.2160
1978.00,0.2159
1977.00,0.2158
1976.00,0.2157
1975.00,0.2156
1974.00,0.2156
1973.00,0.2156
1972.00,0.2156
1971.00,0.2155
1970.00,0.2154
1969.00,0.2152
1968.00,0.2151
1967.00,0.2152
1966.00,0.2155
1965.00,0.2158
1964.00,0.2160
1963.00,0.2161
1962.00,0.2162
1961.00,0.2163
1960.00,0.2164
1959.00,0.2166
1958.00,0.2167
1957.00,0.2169
1956.00,0.2171
1955.00,0.2173
1954.00,0.2174
1953.00,0.2176
1952.00,0.2178
1951.00,0.2178
1950.00,0.2178
1949.00,0.2177
1948.00,0.2176
1947.00,0.2175
1946.00,0.2174
1945.00,0.2174
1944.00,0.2175
1943.00,0.2177
1942.00,0.2181
1941.00,0.2187
1940.00,0.2192
1939.00,0.2194
1938.00,0.2195
1937.00,0.2196
1936.00,0.2196
1935.00,0.2195
1934.00,0.2194
1933.00,0.2194
1932.00,0.2194
1931.00,0.2195
1930.00,0.2196
1929.00,0.2198
1928.00,0.2200
1927.00,0.2202
1926.00,0.2202
1925.00,0.2201
1924.00,0.2202
1923.00,0.2206
1922.00,0.2213
1921.00,0.2222
1920.00,0.2230
1919.00,0.2235
1918.00,0.2240
1917.00,0.2245
1916.00,0.2247
1915.00,0.2247
1914.00,0.2246
1913.00,0.2244
1912.00,0.2241
1911.00,0.2238
1910.00,0.2235
1909.00,0.2235
1908.00,0.2236
1907.00,0.2237
1906.00,0.2238
1905.00,0.2238
1904.00,0.2238
1903.00,0.2238
1902.00,0.2239
1901.00,0.2240
1900.00,0.2241
1899.00,0.2241
1898.00,0.2241
1897.00,0.2241
1896.00,0.2242
1895.00,0.2244
1894.00,0.2248
1893.00,0.2251
1892.00,0.2253
1891.00,0.2254
1890.00,0.2255
1889.00,0.2259
1888.00,0.2262
1887.00,0.2264
1886.00,0.2265
1885.00,0.2267
1884.00,0.2269
1883.00,0.2272
1882.00,0.2273
1881.00,0.2273
1880.00,0.2274
1879.00,0.2274
1878.00,0.2274
1877.00,0.2274
1876.00,0.2274
1875.00,0.2273
1874.00,0.2271
1873.00,0.2268
1872.00,0.2265
1871.00,0.2259
1870.00,0.2252
1869.00,0.2247
1868.00,0.2246
1867.00,0.2247
1866.00,0.2247
1865.00,0.2247
1864.00,0.2245
1863.00,0.2241
1862.00,0.2237
1861.00,0.2234
1860.00,0.2232
1859.00,0.2230
1858.00,0.2229
1857.00,0.2228
1856.00,0.2227
1855.00,0.2226
1854.00,0.2225
1853.00,0.2225
1852.00,0.2225
1851.00,0.2223
1850.00,0.2221
1849.00,0.2218
1848.00,0.2218
1847.00,0.2219
1846.00,0.2220
1845.00,0.2221
1844.00,0.2222
1843.00,0.2223
1842.00,0.2222
1841.00,0.2220
1840.00,0.2217
1839.00,0.2213
1838.00,0.2210
1837.00,0.2208
1836.00,0.2208
1835.00,0.2207
1834.00,0.2206
1833.00,0.2204
1832.00,0.2201
1831.00,0.2197
1830.00,0.2194
1829.00,0.2196
1828.00,0.2197
1827.00,0.2197
1826.00,0.2196
1825.00,0.2197
1824.00,0.2199
1823.00,0.2201
1822.00,0.2201
1821.00,0.2201
1820.00,0.2202
1819.00,0.2203
1818.00,0.2204
1817.00,0.2206
1816.00,0.2208
1815.00,0.2209
1814.00,0.2208
1813.00,0.2207
1812.00,0.2208
1811.00,0.2210
1810.00,0.2213
1809.00,0.2217
1808.00,0.2222
1807.00,0.2226
1806.00,0.2229
1805.00,0.2231
1804.00,0.2232
1803.00,0.2232
1802.00,0.2234
1801.00,0.2238
1800.00,0.2244
1799.00,0.2248
1798.00,0.2251
1797.00,0.2253
1796.00,0.2257
1795.00,0.2262
1794.00,0.2267
1793.00,0.2271
1792.00,0.2278
1791.00,0.2285
1790.00,0.2291
1789.00,0.2296
1788.00,0.2301
1787.00,0.2305
1786.00,0.2308
1785.00,0.2313
1784.00,0.2317
1783.00,0.2319
1782.00,0.2320
1781.00,0.2323
1780.00,0.2329
1779.00,0.2337
1778.00,0.2344
1777.00,0.2349
1776.00,0.2353
1775.00,0.2355
1774.00,0.2358
1773.00,0.2363
1772.00,0.2373
1771.00,0.2383
1770.00,0.2391
1769.00,0.2396
1768.00,0.2401
1767.00,0.2407
1766.00,0.2412
1765.00,0.2417
1764.00,0.2422
1763.00,0.2428
1762.00,0.2435
1761.00,0.2444
1760.00,0.2453
1759.00,0.2461
1758.00,0.2471
1757.00,0.2485
1756.00,0.2501
1755.00,0.2516
1754.00,0.2529
1753.00,0.2543
1752.00,0.2560
1751.00,0.2581
1750.00,0.2607
1749.00,0.2641
1748.00,0.2681
1747.00,0.2725
1746.00,0.2772
1745.00,0.2824
1744.00,0.2882
1743.00,0.2946
1742.00,0.3012
1741.00,0.3078
1740.00,0.3142
1739.00,0.3201
1738.00,0.3251
1737.00,0.3292
1736.00,0.3324
1735.00,0.3347
1734.00,0.3364
1733.00,0.3373
1732.00,0.3374
1731.00,0.3365
1730.00,0.3349
1729.00,0.3330
1728.00,0.3308
1727.00,0.3282
1726.00,0.3253
1725.00,0.3224
1724.00,0.3197
1723.00,0.3172
1722.00,0.3152
1721.00,0.3134
1720.00,0.3113
1719.00,0.3087
1718.00,0.3062
1717.00,0.3052
1716.00,0.3052
1715.00,0.3055
1714.00,0.3055
1713.00,0.3054
1712.00,0.3053
1711.00,0.3052
1710.00,0.3053
1709.00,0.3056
1708.00,0.3060
1707.00,0.3061
1706.00,0.3062
1705.00,0.3065
1704.00,0.3070
1703.00,0.3075
1702.00,0.3077
1701.00,0.3067
1700.00,0.3043
1699.00,0.3013
1698.00,0.2987
1697.00,0.2974
1696.00,0.2976
1695.00,0.2982
1694.00,0.2985
1693.00,0.2986
1692.00,0.2986
1691.00,0.2985
1690.00,0.2987
1689.00,0.2993
1688.00,0.2999
1687.00,0.3005
1686.00,0.3011
1685.00,0.3021
1684.00,0.3043
1683.00,0.3065
1682.00,0.3075
1681.00,0.3082
1680.00,0.3093
1679.00,0.3109
1678.00,0.3127
1677.00,0.3145
1676.00,0.3163
1675.00,0.3177
1674.00,0.3186
1673.00,0.3193
1672.00,0.3202
1671.00,0.3213
1670.00,0.3228
1669.00,0.3249
1668.00,0.3269
1667.00,0.3284
1666.00,0.3298
1665.00,0.3313
1664.00,0.3330
1663.00,0.3347
1662.00,0.3364
1661.00,0.3381
1660.00,0.3397
1659.00,0.3412
1658.00,0.3426
1657.00,0.3441
1656.00,0.3456
1655.00,0.3467
1654.00,0.3483
1653.00,0.3515
1652.00,0.3546
1651.00,0.3560
1650.00,0.3568
1649.00,0.3575
1648.00,0.3586
1647.00,0.3609
1646.00,0.3640
1645.00,0.3668
1644.00,0.3689
1643.00,0.3707
1642.00,0.3724
1641.00,0.3744
1640.00,0.3765
1639.00,0.3784
1638.00,0.3802
1637.00,0.3827
1636.00,0.3866
1635.00,0.3909
1634.00,0.3940
1633.00,0.3962
1632.00,0.3983
1631.00,0.4005
1630.00,0.4028
1629.00,0.4056
1628.00,0.4089
1627.00,0.4122
1626.00,0.4155
1625.00,0.4192
1624.00,0.4236
1623.00,0.4288
1622.00,0.4343
1621.00,0.4402
1620.00,0.4463
1619.00,0.4529
1618.00,0.4611
1617.00,0.4720
1616.00,0.4848
1615.00,0.4969
1614.00,0.5077
1613.00,0.5182
1612.00,0.5292
1611.00,0.5404
1610.00,0.5514
1609.00,0.5624
1608.00,0.5734
1607.00,0.5835
1606.00,0.5924
1605.00,0.6006
1604.00,0.6086
1603.00,0.6161
1602.00,0.6233
1601.00,0.6310
1600.00,0.6396
1599.00,0.6489
1598.00,0.6592
1597.00,0.6722
1596.00,0.6888
1595.00,0.7093
1594.00,0.7342
1593.00,0.7657
1592.00,0.8059
1591.00,0.8564
1590.00,0.9197
1589.00,1.0012
1588.00,1.1073
1587.00,1.2425
1586.00,1.4111
1585.00,1.6232
1584.00,1.8964
1583.00,2.2389
1582.00,2.6112
1581.00,2.9692
1580.00,3.4019
1579.00,3.2753
1578.00,2.6299
1577.00,2.1842
1576.00,1.8621
1575.00,1.6185
1574.00,1.4377
1573.00,1.3033
1572.00,1.1975
1571.00,1.1088
1570.00,1.0374
1569.00,0.9906
1568.00,0.9708
1567.00,0.9753
1566.00,1.0035
1565.00,1.0584
1564.00,1.1402
1563.00,1.2401
1562.00,1.3458
1561.00,1.4459
1560.00,1.5019
1559.00,1.4406
1558.00,1.2973
1557.00,1.1581
1556.00,1.0363
1555.00,0.9229
1554.00,0.8225
1553.00,0.7430
1552.00,0.6833
1551.00,0.6361
1550.00,0.5970
1549.00,0.5659
1548.00,0.5423
1547.00,0.5236
1546.00,0.5075
1545.00,0.4936
1544.00,0.4826
1543.00,0.4739
1542.00,0.4661
1541.00,0.4587
1540.00,0.4528
1539.00,0.4475
1538.00,0.4422
1537.00,0.4374
1536.00,0.4333
1535.00,0.4289
1534.00,0.4247
1533.00,0.4220
1532.00,0.4212
1531.00,0.4213
1530.00,0.4219
1529.00,0.4227
1528.00,0.4232
1527.00,0.4226
1526.00,0.4207
1525.00,0.4181
1524.00,0.4152
1523.00,0.4121
1522.00,0.4098
1521.00,0.4093
1520.00,0.4104
1519.00,0.4120
1518.00,0.4141
1517.00,0.4178
1516.00,0.4227
1515.00,0.4274
1514.00,0.4313
1513.00,0.4348
1512.00,0.4383
1511.00,0.4416
1510.00,0.4450
1509.00,0.4495
1508.00,0.4569
1507.00,0.4695
1506.00,0.4850
1505.00,0.4984
1504.00,0.5087
1503.00,0.5174
1502.00,0.5260
1501.00,0.5353
1500.00,0.5450
1499.00,0.5546
1498.00,0.5648
1497.00,0.5774
1496.00,0.5921
1495.00,0.6070
1494.00,0.6214
1493.00,0.6361
1492.00,0.6519
1491.00,0.6690
1490.00,0.6886
1489.00,0.7115
1488.00,0.7367
1487.00,0.7636
1486.00,0.7936
1485.00,0.8278
1484.00,0.8665
1483.00,0.9101
1482.00,0.9608
1481.00,1.0195
1480.00,1.0845
1479.00,1.1544
1478.00,1.2330
1477.00,1.3260
1476.00,1.4350
1475.00,1.5601
1474.00,1.7110
1473.00,1.9086
1472.00,2.1636
1471.00,2.4593
1470.00,2.7803
1469.00,3.1435
1468.00,3.4933
1467.00,3.5683
1466.00,3.6198
1465.00,3.8841
1464.00,4.1127
1463.00,4.5335
1462.00,4.3400
1461.00,3.9374
1460.00,3.8272
1459.00,3.7388
1458.00,3.6191
1457.00,3.7075
1456.00,3.7710
1455.00,3.8008
1454.00,4.0531
1453.00,4.1502
1452.00,4.0851
1451.00,4.1629
1450.00,3.8776
1449.00,3.9426
1448.00,3.9208
1447.00,3.5424
1446.00,3.2800
1445.00,3.0844
1444.00,2.8655
1443.00,2.6467
1442.00,2.4734
1441.00,2.3338
1440.00,2.2017
1439.00,2.0673
1438.00,1.9319
1437.00,1.7968
1436.00,1.6690
1435.00,1.5570
1434.00,1.4598
1433.00,1.3699
1432.00,1.2831
1431.00,1.2017
1430.00,1.1295
1429.00,1.0682
1428.00,1.0180
1427.00,0.9778
1426.00,0.9453
1425.00,0.9182
1424.00,0.8961
1423.00,0.8795
1422.00,0.8672
1421.00,0.8571
1420.00,0.8477
1419.00,0.8392
1418.00,0.8324
1417.00,0.8272
1416.00,0.8232
1415.00,0.8206
1414.00,0.8193
1413.00,0.8191
1412.00,0.8201
1411.00,0.8221
1410.00,0.8241
1409.00,0.8246
1408.00,0.8221
1407.00,0.8152
1406.00,0.8029
1405.00,0.7851
1404.00,0.7635
1403.00,0.7408
1402.00,0.7189
1401.00,0.6987
1400.00,0.6812
1399.00,0.6679
1398.00,0.6592
1397.00,0.6543
1396.00,0.6526
1395.00,0.6547
1394.00,0.6612
1393.00,0.6732
1392.00,0.6928
1391.00,0.7225
1390.00,0.7649
1389.00,0.8232
1388.00,0.9009
1387.00,0.9985
1386.00,1.1098
1385.00,1.2262
1384.00,1.3439
1383.00,1.4647
1382.00,1.5918
1381.00,1.7304
1380.00,1.8859
1379.00,2.0514
1378.00,2.1911
1377.00,2.2517
1376.00,2.2073
1375.00,2.0769
1374.00,1.9084
1373.00,1.7473
1372.00,1.6144
1371.00,1.5125
1370.00,1.4396
1369.00,1.3934
1368.00,1.3669
1367.00,1.3461
1366.00,1.3128
1365.00,1.2558
1364.00,1.1776
1363.00,1.0917
1362.00,1.0131
1361.00,0.9497
1360.00,0.9019
1359.00,0.8668
1358.00,0.8411
1357.00,0.8228
1356.00,0.8107
1355.00,0.8036
1354.00,0.8006
1353.00,0.8002
1352.00,0.8011
1351.00,0.8024
1350.00,0.8034
1349.00,0.8041
1348.00,0.8047
1347.00,0.8052
1346.00,0.8055
1345.00,0.8051
1344.00,0.8035
1343.00,0.8004
1342.00,0.7952
1341.00,0.7877
1340.00,0.7781
1339.00,0.7667
1338.00,0.7537
1337.00,0.7392
1336.00,0.7237
1335.00,0.7080
1334.00,0.6926
1333.00,0.6780
1332.00,0.6643
1331.00,0.6519
1330.00,0.6410
1329.00,0.6321
1328.00,0.6254
1327.00,0.6208
1326.00,0.6180
1325.00,0.6166
1324.00,0.6162
1323.00,0.6165
1322.00,0.6174
1321.00,0.6186
1320.00,0.6200
1319.00,0.6215
1318.00,0.6228
1317.00,0.6238
1316.00,0.6246
1315.00,0.6255
1314.00,0.6273
1313.00,0.6301
1312.00,0.6338
1311.00,0.6379
1310.00,0.6419
1309.00,0.6455
1308.00,0.6489
1307.00,0.6519
1306.00,0.6541
1305.00,0.6551
1304.00,0.6544
1303.00,0.6522
1302.00,0.6489
1301.00,0.6448
1300.00,0.6401
1299.00,0.6345
1298.00,0.6282
1297.00,0.6212
1296.00,0.6143
1295.00,0.6081
1294.00,0.6027
1293.00,0.5979
1292.00,0.5937
1291.00,0.5899
1290.00,0.5866
1289.00,0.5836
1288.00,0.5809
1287.00,0.5786
1286.00,0.5764
1285.00,0.5742
1284.00,0.5717
1283.00,0.5691
1282.00,0.5665
1281.00,0.5641
1280.00,0.5618
1279.00,0.5595
1278.00,0.5573
1277.00,0.5550
1276.00,0.5526
1275.00,0.5504
1274.00,0.5485
1273.00,0.5474
1272.00,0.5472
1271.00,0.5482
1270.00,0.5502
1269.00,0.5524
1268.00,0.5538
1267.00,0.5533
1266.00,0.5504
1265.00,0.5455
1264.00,0.5398
1263.00,0.5347
1262.00,0.5310
1261.00,0.5286
1260.00,0.5273
1259.00,0.5267
1258.00,0.5262
1257.00,0.5255
1256.00,0.5246
1255.00,0.5237
1254.00,0.5232
1253.00,0.5231
1252.00,0.5237
1251.00,0.5249
1250.00,0.5263
1249.00,0.5277
1248.00,0.5287
1247.00,0.5292
1246.00,0.5292
1245.00,0.5283
1244.00,0.5265
1243.00,0.5240
1242.00,0.5212
1241.00,0.5183
1240.00,0.5153
1239.00,0.5126
1238.00,0.5102
1237.00,0.5079
1236.00,0.5061
1235.00,0.5048
1234.00,0.5043
1233.00,0.5047
1232.00,0.5062
1231.00,0.5086
1230.00,0.5115
1229.00,0.5139
1228.00,0.5150
1227.00,0.5141
1226.00,0.5110
1225.00,0.5063
1224.00,0.5011
1223.00,0.4963
1222.00,0.4927
1221.00,0.4901
1220.00,0.4884
1219.00,0.4875
1218.00,0.4872
1217.00,0.4875
1216.00,0.4884
1215.00,0.4902
1214.00,0.4923
1213.00,0.4940
1212.00,0.4945
1211.00,0.4937
1210.00,0.4922
1209.00,0.4906
1208.00,0.4894
1207.00,0.4890
1206.00,0.4891
1205.00,0.4896
1204.00,0.4902
1203.00,0.4908
1202.00,0.4910
1201.00,0.4909
1200.00,0.4904
1199.00,0.4897
1198.00,0.4888
1197.00,0.4873
1196.00,0.4851
1195.00,0.4825
1194.00,0.4798
1193.00,0.4772
1192.00,0.4748
1191.00,0.4726
1190.00,0.4707
1189.00,0.4692
1188.00,0.4681
1187.00,0.4675
1186.00,0.4671
1185.00,0.4669
1184.00,0.4666
1183.00,0.4665
1182.00,0.4667
1181.00,0.4672
1180.00,0.4683
1179.00,0.4698
1178.00,0.4718
1177.00,0.4741
1176.00,0.4769
1175.00,0.4806
1174.00,0.4851
1173.00,0.4905
1172.00,0.4961
1171.00,0.5014
1170.00,0.5055
1169.00,0.5079
1168.00,0.5086
1167.00,0.5082
1166.00,0.5073
1165.00,0.5066
1164.00,0.5066
1163.00,0.5074
1162.00,0.5091
1161.00,0.5113
1160.00,0.5140
1159.00,0.5169
1158.00,0.5196
1157.00,0.5219
1156.00,0.5235
1155.00,0.5243
1154.00,0.5242
1153.00,0.5231
1152.00,0.5211
1151.00,0.5187
1150.00,0.5159
1149.00,0.5129
1148.00,0.5099
1147.00,0.5071
1146.00,0.5045
1145.00,0.5024
1144.00,0.5012
1143.00,0.5013
1142.00,0.5029
1141.00,0.5062
1140.00,0.5113
1139.00,0.5183
1138.00,0.5272
1137.00,0.5377
1136.00,0.5493
1135.00,0.5610
1134.00,0.5709
1133.00,0.5768
1132.00,0.5766
1131.00,0.5702
1130.00,0.5590
1129.00,0.5459
1128.00,0.5335
1127.00,0.5238
1126.00,0.5170
1125.00,0.5125
1124.00,0.5095
1123.00,0.5071
1122.00,0.5048
1121.00,0.5025
1120.00,0.5009
1119.00,0.5007
1118.00,0.5024
1117.00,0.5064
1116.00,0.5121
1115.00,0.5181
1114.00,0.5223
1113.00,0.5227
1112.00,0.5190
1111.00,0.5131
1110.00,0.5075
1109.00,0.5040
1108.00,0.5031
1107.00,0.5038
1106.00,0.5045
1105.00,0.5035
1104.00,0.5001
1103.00,0.4943
1102.00,0.4873
1101.00,0.4799
1100.00,0.4727
1099.00,0.4661
1098.00,0.4599
1097.00,0.4545
1096.00,0.4501
1095.00,0.4469
1094.00,0.4450
1093.00,0.4442
1092.00,0.4443
1091.00,0.4454
1090.00,0.4474
1089.00,0.4504
1088.00,0.4544
1087.00,0.4598
1086.00,0.4664
1085.00,0.4743
1084.00,0.4833
1083.00,0.4935
1082.00,0.5044
1081.00,0.5160
1080.00,0.5277
1079.00,0.5389
1078.00,0.5481
1077.00,0.5538
1076.00,0.5550
1075.00,0.5515
1074.00,0.5445
1073.00,0.5357
1072.00,0.5268
1071.00,0.5189
1070.00,0.5126
1069.00,0.5078
1068.00,0.5042
1067.00,0.5016
1066.00,0.4999
1065.00,0.4987
1064.00,0.4981
1063.00,0.4979
1062.00,0.4982
1061.00,0.4991
1060.00,0.5001
1059.00,0.5009
1058.00,0.5008
1057.00,0.4997
1056.00,0.4976
1055.00,0.4950
1054.00,0.4921
1053.00,0.4896
1052.00,0.4880
1051.00,0.4877
1050.00,0.4888
1049.00,0.4910
1048.00,0.4938
1047.00,0.4970
1046.00,0.5001
1045.00,0.5026
1044.00,0.5046
1043.00,0.5064
1042.00,0.5083
1041.00,0.5106
1040.00,0.5132
1039.00,0.5158
1038.00,0.5182
1037.00,0.5202
1036.00,0.5220
1035.00,0.5243
1034.00,0.5273
1033.00,0.5309
1032.00,0.5352
1031.00,0.5395
1030.00,0.5436
1029.00,0.5464
1028.00,0.5472
1027.00,0.5452
1026.00,0.5402
1025.00,0.5326
1024.00,0.5237
1023.00,0.5148
1022.00,0.5067
1021.00,0.4997
1020.00,0.4939
1019.00,0.4892
1018.00,0.4854
1017.00,0.4823
1016.00,0.4798
1015.00,0.4781
1014.00,0.4770
1013.00,0.4767
1012.00,0.4772
1011.00,0.4787
1010.00,0.4811
1009.00,0.4843
1008.00,0.4882
1007.00,0.4929
1006.00,0.4983
1005.00,0.5043
1004.00,0.5109
1003.00,0.5180
1002.00,0.5253
1001.00,0.5324
1000.00,0.5386
999.00,0.5434
998.00,0.5462
997.00,0.5466
996.00,0.5448
995.00,0.5413
994.00,0.5364
993.00,0.5305
992.00,0.5236
991.00,0.5161
990.00,0.5083
989.00,0.5006
988.00,0.4935
987.00,0.4876
986.00,0.4830
985.00,0.4800
984.00,0.4785
983.00,0.4782
982.00,0.4786
981.00,0.4789
980.00,0.4787
979.00,0.4778
978.00,0.4763
977.00,0.4747
976.00,0.4730
975.00,0.4713
974.00,0.4695
973.00,0.4673
972.00,0.4649
971.00,0.4625
970.00,0.4603
969.00,0.4584
968.00,0.4569
967.00,0.4557
966.00,0.4545
965.00,0.4532
964.00,0.4514
963.00,0.4492
962.00,0.4464
961.00,0.4433
960.00,0.4403
959.00,0.4379
958.00,0.4362
957.00,0.4350
956.00,0.4338
955.00,0.4323
954.00,0.4304
953.00,0.4278
952.00,0.4247
951.00,0.4217
950.00,0.4191
949.00,0.4173
948.00,0.4164
947.00,0.4163
946.00,0.4170
945.00,0.4180
944.00,0.4194
943.00,0.4210
942.00,0.4228
941.00,0.4247
940.00,0.4263
939.00,0.4275
938.00,0.4279
937.00,0.4275
936.00,0.4263
935.00,0.4246
934.00,0.4225
933.00,0.4202
932.00,0.4177
931.00,0.4155
930.00,0.4139
929.00,0.4129
928.00,0.4130
927.00,0.4144
926.00,0.4176
925.00,0.4227
924.00,0.4296
923.00,0.4380
922.00,0.4464
921.00,0.4523
920.00,0.4537
919.00,0.4494
918.00,0.4403
917.00,0.4283
916.00,0.4158
915.00,0.4042
914.00,0.3943
913.00,0.3861
912.00,0.3794
911.00,0.3741
910.00,0.3699
909.00,0.3664
908.00,0.3635
907.00,0.3610
906.00,0.3591
905.00,0.3577
904.00,0.3571
903.00,0.3571
902.00,0.3579
901.00,0.3593
900.00,0.3611
899.00,0.3635
898.00,0.3665
897.00,0.3698
896.00,0.3736
895.00,0.3777
894.00,0.3822
893.00,0.3869
892.00,0.3918
891.00,0.3964
890.00,0.4003
889.00,0.4029
888.00,0.4037
887.00,0.4025
886.00,0.3998
885.00,0.3964
884.00,0.3933
883.00,0.3911
882.00,0.3902
881.00,0.3905
880.00,0.3916
879.00,0.3932
878.00,0.3949
877.00,0.3966
876.00,0.3984
875.00,0.4006
874.00,0.4032
873.00,0.4062
872.00,0.4093
871.00,0.4125
870.00,0.4160
869.00,0.4200
868.00,0.4248
867.00,0.4309
866.00,0.4385
865.00,0.4471
864.00,0.4562
863.00,0.4642
862.00,0.4692
861.00,0.4693
860.00,0.4642
859.00,0.4554
858.00,0.4452
857.00,0.4358
856.00,0.4283
855.00,0.4228
854.00,0.4190
853.00,0.4162
852.00,0.4140
851.00,0.4120
850.00,0.4101
849.00,0.4077
848.00,0.4050
847.00,0.4020
846.00,0.3988
845.00,0.3956
844.00,0.3928
843.00,0.3908
842.00,0.3905
841.00,0.3924
840.00,0.3973
839.00,0.4054
838.00,0.4156
837.00,0.4256
836.00,0.4323
835.00,0.4332
834.00,0.4276
833.00,0.4174
832.00,0.4060
831.00,0.3962
830.00,0.3896
829.00,0.3862
828.00,0.3855
827.00,0.3870
826.00,0.3903
825.00,0.3948
824.00,0.4003
823.00,0.4065
822.00,0.4132
821.00,0.4204
820.00,0.4277
819.00,0.4350
818.00,0.4418
817.00,0.4477
816.00,0.4519
815.00,0.4541
814.00,0.4541
813.00,0.4516
812.00,0.4469
811.00,0.4407
810.00,0.4337
809.00,0.4266
808.00,0.4201
807.00,0.4143
806.00,0.4094
805.00,0.4048
804.00,0.4001
803.00,0.3951
802.00,0.3898
801.00,0.3843
800.00,0.3793
799.00,0.3753
798.00,0.3725
797.00,0.3706
796.00,0.3694
795.00,0.3687
794.00,0.3686
793.00,0.3688
792.00,0.3694
791.00,0.3705
790.00,0.3719
789.00,0.3732
788.00,0.3744
787.00,0.3756
786.00,0.3774
785.00,0.3800
784.00,0.3832
783.00,0.3869
782.00,0.3906
781.00,0.3942
780.00,0.3974
779.00,0.4001
778.00,0.4024
777.00,0.4045
776.00,0.4063
775.00,0.4082
774.00,0.4102
773.00,0.4123
772.00,0.4144
771.00,0.4167
770.00,0.4192
769.00,0.4220
768.00,0.4249
767.00,0.4280
766.00,0.4310
765.00,0.4334
764.00,0.4356
763.00,0.4380
762.00,0.4411
761.00,0.4449
760.00,0.4491
759.00,0.4530
758.00,0.4558
757.00,0.4570
756.00,0.4571
755.00,0.4570
754.00,0.4577
753.00,0.4594
752.00,0.4621
751.00,0.4654
750.00,0.4690
749.00,0.4728
748.00,0.4764
747.00,0.4802
746.00,0.4844
745.00,0.4894
744.00,0.4953
743.00,0.5021
742.00,0.5098
741.00,0.5178
740.00,0.5255
739.00,0.5327
738.00,0.5392
737.00,0.5451
736.00,0.5510
735.00,0.5570
734.00,0.5632
733.00,0.5693
732.00,0.5760
731.00,0.5843
730.00,0.5955
729.00,0.6101
728.00,0.6288
727.00,0.6523
726.00,0.6809
725.00,0.7138
724.00,0.7479
723.00,0.7769
722.00,0.7917
721.00,0.7839
720.00,0.7523
719.00,0.7059
718.00,0.6567
717.00,0.6130
716.00,0.5777
715.00,0.5506
714.00,0.5301
713.00,0.5140
712.00,0.5011
711.00,0.4907
710.00,0.4827
709.00,0.4767
708.00,0.4722
707.00,0.4686
706.00,0.4653
705.00,0.4619
704.00,0.4582
703.00,0.4544
702.00,0.4509
701.00,0.4476
700.00,0.4437
699.00,0.4384
698.00,0.4309
697.00,0.4216
696.00,0.4115
695.00,0.4021
694.00,0.3943
693.00,0.3881
692.00,0.3833
691.00,0.3795
690.00,0.3764
689.00,0.3736
688.00,0.3712
687.00,0.3694
686.00,0.3683
685.00,0.3677
684.00,0.3677
683.00,0.3683
682.00,0.3697
681.00,0.3715
680.00,0.3734
679.00,0.3753
678.00,0.3771
677.00,0.3788
676.00,0.3806
675.00,0.3826
674.00,0.3846
673.00,0.3866
672.00,0.3882
671.00,0.3896
670.00,0.3905
669.00,0.3908
668.00,0.3899
667.00,0.3882
666.00,0.3871
665.00,0.3865
664.00,0.3856
663.00,0.3842
662.00,0.3824
661.00,0.3808
660.00,0.3793
659.00,0.3781
658.00,0.3770
657.00,0.3761
656.00,0.3752
655.00,0.3747
654.00,0.3743
653.00,0.3740
652.00,0.3735
651.00,0.3730
650.00,0.3728
649.00,0.3727
648.00,0.3728
647.00,0.3731
646.00,0.3738
645.00,0.3748
644.00,0.3760
643.00,0.3774
642.00,0.3790
641.00,0.3807
640.00,0.3823
639.00,0.3836
638.00,0.3847
637.00,0.3856
636.00,0.3863
635.00,0.3870
634.00,0.3875
633.00,0.3881
632.00,0.3887
631.00,0.3895
630.00,0.3907
629.00,0.3923
628.00,0.3941
627.00,0.3960
626.00,0.3977
625.00,0.3992
624.00,0.4007
623.00,0.4024
622.00,0.4040
621.00,0.4052
620.00,0.4057
619.00,0.4060
618.00,0.4061
617.00,0.4061
616.00,0.4057
615.00,0.4049
614.00,0.4038
613.00,0.4024
612.00,0.4009
611.00,0.3993
610.00,0.3974
609.00,0.3953
608.00,0.3933
607.00,0.3918
606.00,0.3909
605.00,0.3901
604.00,0.3894
603.00,0.3889
602.00,0.3891
601.00,0.3897
600.00,0.3905
599.00,0.3914
598.00,0.3925
597.00,0.3939
596.00,0.3956
595.00,0.3975
594.00,0.3996
593.00,0.4015
592.00,0.4032
591.00,0.4048
590.00,0.4064
589.00,0.4080
588.00,0.4099
587.00,0.4123
586.00,0.4151
585.00,0.4181
584.00,0.4210
583.00,0.4239
582.00,0.4263
581.00,0.4282
580.00,0.4300
579.00,0.4319
578.00,0.4342
577.00,0.4366
576.00,0.4394
575.00,0.4423
574.00,0.4450
573.00,0.4475
572.00,0.4500
571.00,0.4527
570.00,0.4556
569.00,0.4582
568.00,0.4604
567.00,0.4624
566.00,0.4647
565.00,0.4672
564.00,0.4698
563.00,0.4723
562.00,0.4746
561.00,0.4761
560.00,0.4768
559.00,0.4772
558.00,0.4777
557.00,0.4788
556.00,0.4804
555.00,0.4820
554.00,0.4828
553.00,0.4827
552.00,0.4822
551.00,0.4820
550.00,0.4820
