Created as New Dataset,
cm-1,A
4000.00,0.3009
3999.00,0.3005
3998.00,0.3002
3997.00,0.2999
3996.00,0.2996
3995.00,0.2992
3994.00,0.2989
3993.00,0.2986
3992.00,0.2983
3991.00,0.2980
3990.00,0.2976
3989.00,0.2973
3988.00,0.2970
3987.00,0.2966
3986.00,0.2963
3985.00,0.2960
3984.00,0.2957
3983.00,0.2954
3982.00,0.2951
3981.00,0.2947
3980.00,0.2944
3979.00,0.2941
3978.00,0.2938
3977.00,0.2936
3976.00,0.2933
3975.00,0.2930
3974.00,0.2926
3973.00,0.2923
3972.00,0.2921
3971.00,0.2918
3970.00,0.2916
3969.00,0.2913
3968.00,0.2911
3967.00,0.2909
3966.00,0.2907
3965.00,0.2905
3964.00,0.2903
3963.00,0.2901
3962.00,0.2899
3961.00,0.2897
3960.00,0.2896
3959.00,0.2895
3958.00,0.2894
3957.00,0.2893
3956.00,0.2892
3955.00,0.2891
3954.00,0.2891
3953.00,0.2890
3952.00,0.2890
3951.00,0.2889
3950.00,0.2888
3949.00,0.2886
3948.00,0.2884
3947.00,0.2882
3946.00,0.2880
3945.00,0.2878
3944.00,0.2877
3943.00,0.2875
3942.00,0.2874
3941.00,0.2873
3940.00,0.2872
3939.00,0.2870
3938.00,0.2869
3937.00,0.2868
3936.00,0.2868
3935.00,0.2868
3934.00,0.2867
3933.00,0.2867
3932.00,0.2866
3931.00,0.2865
3930.00,0.2865
3929.00,0.2866
3928.00,0.2866
3927.00,0.2866
3926.00,0.2867
3925.00,0.2866
3924.00,0.2866
3923.00,0.2867
3922.00,0.2867
3921.00,0.2868
3920.00,0.2868
3919.00,0.2867
3918.00,0.2866
3917.00,0.2865
3916.00,0.2864
3915.00,0.2864
3914.00,0.2864
3913.00,0.2863
3912.00,0.2862
3911.00,0.2861
3910.00,0.2861
3909.00,0.2862
3908.00,0.2863
3907.00,0.2865
3906.00,0.2866
3905.00,0.2867
3904.00,0.2868
3903.00,0.2870
3902.00,0.2872
3901.00,0.2872
3900.00,0.2871
3899.00,0.2868
3898.00,0.2866
3897.00,0.2864
3896.00,0.2863
3895.00,0.2862
3894.00,0.2860
3893.00,0.2859
3892.00,0.2857
3891.00,0.2857
3890.00,0.2857
3889.00,0.2859
3888.00,0.2859
3887.00,0.2860
3886.00,0.2859
3885.00,0.2859
3884.00,0.2859
3883.00,0.2860
3882.00,0.2859
3881.00,0.2857
3880.00,0.2855
3879.00,0.2853
3878.00,0.2852
3877.00,0.2851
3876.00,0.2849
3875.00,0.2848
3874.00,0.2847
3873.00,0.2847
3872.00,0.2847
3871.00,0.2847
3870.00,0.2846
3869.00,0.2846
3868.00,0.2846
3867.00,0.2846
3866.00,0.2845
3865.00,0.2843
3864.00,0.2842
3863.00,0.2840
3862.00,0.2837
3861.00,0.2835
3860.00,0.2833
3859.00,0.2832
3858.00,0.2832
3857.00,0.2833
3856.00,0.2834
3855.00,0.2834
3854.00,0.2834
3853.00,0.2837
3852.00,0.2839
3851.00,0.2840
3850.00,0.2839
3849.00,0.2835
3848.00,0.2832
3847.00,0.2828
3846.00,0.2825
3845.00,0.2823
3844.00,0.2823
3843.00,0.2824
3842.00,0.2825
3841.00,0.2827
3840.00,0.2827
3839.00,0.2828
3838.00,0.2828
3837.00,0.2828
3836.00,0.2828
3835.00,0.2826
3834.00,0.2824
3833.00,0.2821
3832.00,0.2818
3831.00,0.2815
3830.00,0.2813
3829.00,0.2811
3828.00,0.2810
3827.00,0.2809
3826.00,0.2809
3825.00,0.2809
3824.00,0.2810
3823.00,0.2811
3822.00,0.2811
3821.00,0.2811
3820.00,0.2813
3819.00,0.2814
3818.00,0.2814
3817.00,0.2810
3816.00,0.2806
3815.00,0.2802
3814.00,0.2798
3813.00,0.2795
3812.00,0.2792
3811.00,0.2789
3810.00,0.2787
3809.00,0.2785
3808.00,0.2783
3807.00,0.2782
3806.00,0.2782
3805.00,0.2782
3804.00,0.2782
3803.00,0.2780
3802.00,0.2778
3801.00,0.2776
3800.00,0.2775
3799.00,0.2774
3798.00,0.2772
3797.00,0.2767
3796.00,0.2762
3795.00,0.2757
3794.00,0.2753
3793.00,0.2751
3792.00,0.2749
3791.00,0.2747
3790.00,0.2746
3789.00,0.2745
3788.00,0.2744
3787.00,0.2742
3786.00,0.2741
3785.00,0.2740
3784.00,0.2739
3783.00,0.2739
3782.00,0.2739
3781.00,0.2738
3780.00,0.2737
3779.00,0.2735
3778.00,0.2733
3777.00,0.2731
3776.00,0.2729
3775.00,0.2727
3774.00,0.2725
3773.00,0.2724
3772.00,0.2723
3771.00,0.2721
3770.00,0.2720
3769.00,0.2719
3768.00,0.2718
3767.00,0.2716
3766.00,0.2714
3765.00,0.2711
3764.00,0.2710
3763.00,0.2709
3762.00,0.2708
3761.00,0.2706
3760.00,0.2703
3759.00,0.2701
3758.00,0.2700
3757.00,0.2699
3756.00,0.2699
3755.00,0.2699
3754.00,0.2700
3753.00,0.2700
3752.00,0.2700
3751.00,0.2701
3750.00,0.2703
3749.00,0.2704
3748.00,0.2706
3747.00,0.2707
3746.00,0.2705
3745.00,0.2701
3744.00,0.2699
3743.00,0.2698
3742.00,0.2696
3741.00,0.2693
3740.00,0.2690
3739.00,0.2688
3738.00,0.2687
3737.00,0.2686
3736.00,0.2686
3735.00,0.2686
3734.00,0.2684
3733.00,0.2682
3732.00,0.2679
3731.00,0.2676
3730.00,0.2673
3729.00,0.2669
3728.00,0.2666
3727.00,0.2662
3726.00,0.2660
3725.00,0.2658
3724.00,0.2657
3723.00,0.2655
3722.00,0.2653
3721.00,0.2650
3720.00,0.2647
3719.00,0.2645
3718.00,0.2643
3717.00,0.2642
3716.00,0.2642
3715.00,0.2643
3714.00,0.2645
3713.00,0.2646
3712.00,0.2649
3711.00,0.2651
3710.00,0.2652
3709.00,0.2651
3708.00,0.2650
3707.00,0.2648
3706.00,0.2646
3705.00,0.2645
3704.00,0.2643
3703.00,0.2642
3702.00,0.2641
3701.00,0.2641
3700.00,0.2642
3699.00,0.2642
3698.00,0.2642
3697.00,0.2641
3696.00,0.2640
3695.00,0.2640
3694.00,0.2641
3693.00,0.2643
3692.00,0.2645
3691.00,0.2647
3690.00,0.2649
3689.00,0.2651
3688.00,0.2652
3687.00,0.2653
3686.00,0.2652
3685.00,0.2649
3684.00,0.2647
3683.00,0.2644
3682.00,0.2644
3681.00,0.2644
3680.00,0.2646
3679.00,0.2649
3678.00,0.2652
3677.00,0.2655
3676.00,0.2658
3675.00,0.2661
3674.00,0.2663
3673.00,0.2664
3672.00,0.2663
3671.00,0.2662
3670.00,0.2660
3669.00,0.2659
3668.00,0.2659
3667.00,0.2657
3666.00,0.2655
3665.00,0.2653
3664.00,0.2652
3663.00,0.2651
3662.00,0.2651
3661.00,0.2653
3660.00,0.2655
3659.00,0.2658
3658.00,0.2662
3657.00,0.2665
3656.00,0.2669
3655.00,0.2674
3654.00,0.2679
3653.00,0.2685
3652.00,0.2690
3651.00,0.2695
3650.00,0.2700
3649.00,0.2705
3648.00,0.2710
3647.00,0.2712
3646.00,0.2713
3645.00,0.2713
3644.00,0.2713
3643.00,0.2714
3642.00,0.2715
3641.00,0.2718
3640.00,0.2723
3639.00,0.2729
3638.00,0.2736
3637.00,0.2743
3636.00,0.2749
3635.00,0.2756
3634.00,0.2763
3633.00,0.2770
3632.00,0.2780
3631.00,0.2791
3630.00,0.2805
3629.00,0.2822
3628.00,0.2839
3627.00,0.2854
3626.00,0.2864
3625.00,0.2870
3624.00,0.2872
3623.00,0.2870
3622.00,0.2866
3621.00,0.2860
3620.00,0.2852
3619.00,0.2844
3618.00,0.2837
3617.00,0.2832
3616.00,0.2828
3615.00,0.2825
3614.00,0.2823
3613.00,0.2822
3612.00,0.2823
3611.00,0.2825
3610.00,0.2827
3609.00,0.2829
3608.00,0.2831
3607.00,0.2834
3606.00,0.2835
3605.00,0.2837
3604.00,0.2837
3603.00,0.2837
3602.00,0.2836
3601.00,0.2834
3600.00,0.2832
3599.00,0.2831
3598.00,0.2830
3597.00,0.2828
3596.00,0.2825
3595.00,0.2822
3594.00,0.2819
3593.00,0.2817
3592.00,0.2816
3591.00,0.2816
3590.00,0.2817
3589.00,0.2817
3588.00,0.2818
3587.00,0.2819
3586.00,0.2820
3585.00,0.2820
3584.00,0.2821
3583.00,0.2821
3582.00,0.2821
3581.00,0.2821
3580.00,0.2822
3579.00,0.2823
3578.00,0.2825
3577.00,0.2827
3576.00,0.2829
3575.00,0.2832
3574.00,0.2835
3573.00,0.2840
3572.00,0.2844
3571.00,0.2849
3570.00,0.2855
3569.00,0.2860
3568.00,0.2865
3567.00,0.2871
3566.00,0.2876
3565.00,0.2881
3564.00,0.2886
3563.00,0.2889
3562.00,0.2892
3561.00,0.2895
3560.00,0.2899
3559.00,0.2903
3558.00,0.2907
3557.00,0.2912
3556.00,0.2918
3555.00,0.2924
3554.00,0.2929
3553.00,0.2935
3552.00,0.2941
3551.00,0.2948
3550.00,0.2956
3549.00,0.2963
3548.00,0.2969
3547.00,0.2976
3546.00,0.2982
3545.00,0.2989
3544.00,0.2995
3543.00,0.3001
3542.00,0.3007
3541.00,0.3013
3540.00,0.3019
3539.00,0.3025
3538.00,0.3031
3537.00,0.3037
3536.00,0.3044
3535.00,0.3051
3534.00,0.3058
3533.00,0.3065
3532.00,0.3073
3531.00,0.3080
3530.00,0.3088
3529.00,0.3095
3528.00,0.3102
3527.00,0.3109
3526.00,0.3116
3525.00,0.3124
3524.00,0.3132
3523.00,0.3140
3522.00,0.3147
3521.00,0.3153
3520.00,0.3160
3519.00,0.3166
3518.00,0.3173
3517.00,0.3179
3516.00,0.3187
3515.00,0.3194
3514.00,0.3202
3513.00,0.3211
3512.00,0.3220
3511.00,0.3228
3510.00,0.3237
3509.00,0.3245
3508.00,0.3254
3507.00,0.3263
3506.00,0.3271
3505.00,0.3280
3504.00,0.3289
3503.00,0.3298
3502.00,0.3306
3501.00,0.3314
3500.00,0.3322
3499.00,0.3330
3498.00,0.3339
3497.00,0.3349
3496.00,0.3359
3495.00,0.3370
3494.00,0.3381
3493.00,0.3392
3492.00,0.3402
3491.00,0.3411
3490.00,0.3421
3489.00,0.3431
3488.00,0.3441
3487.00,0.3452
3486.00,0.3462
3485.00,0.3472
3484.00,0.3481
3483.00,0.3490
3482.00,0.3499
3481.00,0.3508
3480.00,0.3518
3479.00,0.3527
3478.00,0.3536
3477.00,0.3546
3476.00,0.3555
3475.00,0.3563
3474.00,0.3572
3473.00,0.3581
3472.00,0.3590
3471.00,0.3600
3470.00,0.3610
3469.00,0.3620
3468.00,0.3629
3467.00,0.3639
3466.00,0.3649
3465.00,0.3659
3464.00,0.3670
3463.00,0.3681
3462.00,0.3692
3461.00,0.3703
3460.00,0.3714
3459.00,0.3724
3458.00,0.3734
3457.00,0.3744
3456.00,0.3755
3455.00,0.3766
3454.00,0.3778
3453.00,0.3790
3452.00,0.3802
3451.00,0.3814
3450.00,0.3827
3449.00,0.3839
3448.00,0.3852
3447.00,0.3865
3446.00,0.3878
3445.00,0.3890
3444.00,0.3903
3443.00,0.3915
3442.00,0.3927
3441.00,0.3940
3440.00,0.3953
3439.00,0.3967
3438.00,0.3981
3437.00,0.3994
3436.00,0.4007
3435.00,0.4020
3434.00,0.4033
3433.00,0.4047
3432.00,0.4060
3431.00,0.4074
3430.00,0.4088
3429.00,0.4102
3428.00,0.4116
3427.00,0.4130
3426.00,0.4144
3425.00,0.4158
3424.00,0.4172
3423.00,0.4186
3422.00,0.4201
3421.00,0.4216
3420.00,0.4231
3419.00,0.4246
3418.00,0.4261
3417.00,0.4277
3416.00,0.4293
3415.00,0.4309
3414.00,0.4325
3413.00,0.4341
3412.00,0.4356
3411.00,0.4372
3410.00,0.4389
3409.00,0.4405
3408.00,0.4422
3407.00,0.4437
3406.00,0.4454
3405.00,0.4470
3404.00,0.4488
3403.00,0.4505
3402.00,0.4522
3401.00,0.4540
3400.00,0.4558
3399.00,0.4575
3398.00,0.4593
3397.00,0.4610
3396.00,0.4627
3395.00,0.4644
3394.00,0.4661
3393.00,0.4678
3392.00,0.4696
3391.00,0.4714
3390.00,0.4732
3389.00,0.4750
3388.00,0.4768
3387.00,0.4786
3386.00,0.4805
3385.00,0.4824
3384.00,0.4843
3383.00,0.4862
3382.00,0.4881
3381.00,0.4900
3380.00,0.4919
3379.00,0.4938
3378.00,0.4958
3377.00,0.4978
3376.00,0.4999
3375.00,0.5020
3374.00,0.5041
3373.00,0.5063
3372.00,0.5085
3371.00,0.5107
3370.00,0.5128
3369.00,0.5150
3368.00,0.5172
3367.00,0.5195
3366.00,0.5217
3365.00,0.5240
3364.00,0.5264
3363.00,0.5289
3362.00,0.5313
3361.00,0.5337
3360.00,0.5360
3359.00,0.5384
3358.00,0.5408
3357.00,0.5433
3356.00,0.5458
3355.00,0.5483
3354.00,0.5508
3353.00,0.5533
3352.00,0.5557
3351.00,0.5581
3350.00,0.5604
3349.00,0.5627
3348.00,0.5650
3347.00,0.5673
3346.00,0.5696
3345.00,0.5718
3344.00,0.5741
3343.00,0.5764
3342.00,0.5786
3341.00,0.5808
3340.00,0.5829
3339.00,0.5848
3338.00,0.5867
3337.00,0.5885
3336.00,0.5901
3335.00,0.5917
3334.00,0.5932
3333.00,0.5948
3332.00,0.5963
3331.00,0.5976
3330.00,0.5989
3329.00,0.6000
3328.00,0.6010
3327.00,0.6018
3326.00,0.6026
3325.00,0.6033
3324.00,0.6039
3323.00,0.6044
3322.00,0.6048
3321.00,0.6052
3320.00,0.6056
3319.00,0.6059
3318.00,0.6061
3317.00,0.6062
3316.00,0.6063
3315.00,0.6062
3314.00,0.6062
3313.00,0.6062
3312.00,0.6062
3311.00,0.6062
3310.00,0.6062
3309.00,0.6060
3308.00,0.6059
3307.00,0.6056
3306.00,0.6052
3305.00,0.6049
3304.00,0.6044
3303.00,0.6040
3302.00,0.6036
3301.00,0.6032
3300.00,0.6028
3299.00,0.6025
3298.00,0.6022
3297.00,0.6020
3296.00,0.6016
3295.00,0.6013
3294.00,0.6009
3293.00,0.6005
3292.00,0.6002
3291.00,0.6000
3290.00,0.5998
3289.00,0.5996
3288.00,0.5995
3287.00,0.5993
3286.00,0.5991
3285.00,0.5990
3284.00,0.5988
3283.00,0.5987
3282.00,0.5987
3281.00,0.5986
3280.00,0.5985
3279.00,0.5984
3278.00,0.5985
3277.00,0.5986
3276.00,0.5988
3275.00,0.5990
3274.00,0.5992
3273.00,0.5995
3272.00,0.5997
3271.00,0.5998
3270.00,0.6000
3269.00,0.6003
3268.00,0.6006
3267.00,0.6009
3266.00,0.6012
3265.00,0.6014
3264.00,0.6016
3263.00,0.6018
3262.00,0.6021
3261.00,0.6025
3260.00,0.6029
3259.00,0.6033
3258.00,0.6036
3257.00,0.6039
3256.00,0.6042
3255.00,0.6045
3254.00,0.6048
3253.00,0.6052
3252.00,0.6055
3251.00,0.6057
3250.00,0.6057
3249.00,0.6058
3248.00,0.6059
3247.00,0.6060
3246.00,0.6060
3245.00,0.6061
3244.00,0.6060
3243.00,0.6059
3242.00,0.6056
3241.00,0.6054
3240.00,0.6052
3239.00,0.6049
3238.00,0.6047
3237.00,0.6045
3236.00,0.6043
3235.00,0.6040
3234.00,0.6036
3233.00,0.6032
3232.00,0.6027
3231.00,0.6022
3230.00,0.6016
3229.00,0.6011
3228.00,0.6005
3227.00,0.6000
3226.00,0.5994
3225.00,0.5989
3224.00,0.5983
3223.00,0.5975
3222.00,0.5966
3221.00,0.5957
3220.00,0.5948
3219.00,0.5939
3218.00,0.5931
3217.00,0.5922
3216.00,0.5913
3215.00,0.5903
3214.00,0.5894
3213.00,0.5885
3212.00,0.5875
3211.00,0.5865
3210.00,0.5855
3209.00,0.5844
3208.00,0.5834
3207.00,0.5823
3206.00,0.5811
3205.00,0.5800
3204.00,0.5788
3203.00,0.5777
3202.00,0.5766
3201.00,0.5755
3200.00,0.5743
3199.00,0.5730
3198.00,0.5718
3197.00,0.5704
3196.00,0.5690
3195.00,0.5675
3194.00,0.5661
3193.00,0.5646
3192.00,0.5632
3191.00,0.5617
3190.00,0.5602
3189.00,0.5586
3188.00,0.5570
3187.00,0.5553
3186.00,0.5536
3185.00,0.5519
3184.00,0.5501
3183.00,0.5484
3182.00,0.5467
3181.00,0.5451
3180.00,0.5433
3179.00,0.5414
3178.00,0.5395
3177.00,0.5376
3176.00,0.5357
3175.00,0.5337
3174.00,0.5318
3173.00,0.5298
3172.00,0.5279
3171.00,0.5260
3170.00,0.5241
3169.00,0.5221
3168.00,0.5201
3167.00,0.5181
3166.00,0.5162
3165.00,0.5142
3164.00,0.5122
3163.00,0.5102
3162.00,0.5082
3161.00,0.5062
3160.00,0.5042
3159.00,0.5023
3158.00,0.5005
3157.00,0.4986
3156.00,0.4967
3155.00,0.4948
3154.00,0.4930
3153.00,0.4912
3152.00,0.4893
3151.00,0.4875
3150.00,0.4857
3149.00,0.4840
3148.00,0.4823
3147.00,0.4806
3146.00,0.4789
3145.00,0.4773
3144.00,0.4757
3143.00,0.4741
3142.00,0.4726
3141.00,0.4710
3140.00,0.4695
3139.00,0.4680
3138.00,0.4667
3137.00,0.4654
3136.00,0.4641
3135.00,0.4628
3134.00,0.4615
3133.00,0.4603
3132.00,0.4591
3131.00,0.4580
3130.00,0.4569
3129.00,0.4559
3128.00,0.4549
3127.00,0.4539
3126.00,0.4530
3125.00,0.4522
3124.00,0.4514
3123.00,0.4507
3122.00,0.4499
3121.00,0.4492
3120.00,0.4486
3119.00,0.4481
3118.00,0.4475
3117.00,0.4470
3116.00,0.4466
3115.00,0.4462
3114.00,0.4458
3113.00,0.4455
3112.00,0.4453
3111.00,0.4452
3110.00,0.4451
3109.00,0.4451
3108.00,0.4450
3107.00,0.4450
3106.00,0.4451
3105.00,0.4453
3104.00,0.4455
3103.00,0.4458
3102.00,0.4460
3101.00,0.4463
3100.00,0.4466
3099.00,0.4470
3098.00,0.4474
3097.00,0.4480
3096.00,0.4486
3095.00,0.4494
3094.00,0.4504
3093.00,0.4514
3092.00,0.4526
3091.00,0.4539
3090.00,0.4554
3089.00,0.4570
3088.00,0.4588
3087.00,0.4607
3086.00,0.4627
3085.00,0.4648
3084.00,0.4670
3083.00,0.4693
3082.00,0.4718
3081.00,0.4745
3080.00,0.4772
3079.00,0.4802
3078.00,0.4833
3077.00,0.4866
3076.00,0.4899
3075.00,0.4934
3074.00,0.4970
3073.00,0.5006
3072.00,0.5042
3071.00,0.5078
3070.00,0.5114
3069.00,0.5150
3068.00,0.5184
3067.00,0.5217
3066.00,0.5248
3065.00,0.5277
3064.00,0.5304
3063.00,0.5330
3062.00,0.5353
3061.00,0.5376
3060.00,0.5397
3059.00,0.5418
3058.00,0.5439
3057.00,0.5462
3056.00,0.5487
3055.00,0.5514
3054.00,0.5542
3053.00,0.5573
3052.00,0.5606
3051.00,0.5643
3050.00,0.5681
3049.00,0.5722
3048.00,0.5765
3047.00,0.5809
3046.00,0.5854
3045.00,0.5900
3044.00,0.5945
3043.00,0.5989
3042.00,0.6032
3041.00,0.6074
3040.00,0.6118
3039.00,0.6163
3038.00,0.6210
3037.00,0.6259
3036.00,0.6311
3035.00,0.6364
3034.00,0.6421
3033.00,0.6482
3032.00,0.6546
3031.00,0.6615
3030.00,0.6688
3029.00,0.6766
3028.00,0.6848
3027.00,0.6935
3026.00,0.7026
3025.00,0.7123
3024.00,0.7223
3023.00,0.7327
3022.00,0.7435
3021.00,0.7549
3020.00,0.7667
3019.00,0.7787
3018.00,0.7910
3017.00,0.8034
3016.00,0.8161
3015.00,0.8290
3014.00,0.8423
3013.00,0.8561
3012.00,0.8707
3011.00,0.8860
3010.00,0.9022
3009.00,0.9193
3008.00,0.9371
3007.00,0.9558
3006.00,0.9754
3005.00,0.9960
3004.00,1.0174
3003.00,1.0397
3002.00,1.0627
3001.00,1.0865
3000.00,1.1112
2999.00,1.1374
2998.00,1.1654
2997.00,1.1959
2996.00,1.2291
2995.00,1.2651
2994.00,1.3041
2993.00,1.3467
2992.00,1.3938
2991.00,1.4463
2990.00,1.5048
2989.00,1.5696
2988.00,1.6408
2987.00,1.7191
2986.00,1.8055
2985.00,1.9011
2984.00,2.0068
2983.00,2.1237
2982.00,2.2527
2981.00,2.3926
2980.00,2.5411
2979.00,2.6990
2978.00,2.8711
2977.00,3.0593
2976.00,3.2633
2975.00,3.4785
2974.00,3.6995
2973.00,3.8879
2972.00,3.8818
2971.00,3.7540
2970.00,3.6596
2969.00,3.6457
2968.00,3.7054
2967.00,3.8028
2966.00,3.9213
2965.00,4.0126
2964.00,4.0373
2963.00,4.0243
2962.00,3.9495
2961.00,3.7957
2960.00,3.6438
2959.00,3.5530
2958.00,3.5323
2957.00,3.5642
2956.00,3.6334
2955.00,3.7631
2954.00,3.9971
2953.00,4.3481
2952.00,4.8136
2951.00,4.9926
2950.00,4.7410
2949.00,4.3678
2948.00,4.1301
2947.00,3.9939
2946.00,4.0311
2945.00,4.2984
2944.00,4.2121
2943.00,3.9032
2942.00,3.7400
2941.00,3.7689
2940.00,3.8977
2939.00,3.9593
2938.00,4.0072
2937.00,4.0470
2936.00,4.1277
2935.00,4.2716
2934.00,4.0943
2933.00,3.8683
2932.00,3.7485
2931.00,3.8302
2930.00,4.1208
2929.00,4.0547
2928.00,3.7970
2927.00,3.6545
2926.00,3.6943
2925.00,3.8448
2924.00,3.9825
2923.00,4.1017
2922.00,4.1001
2921.00,3.9502
2920.00,3.7807
2919.00,3.6616
2918.00,3.6383
2917.00,3.6926
2916.00,3.8726
2915.00,4.2432
2914.00,4.3410
2913.00,4.2473
2912.00,4.1451
2911.00,4.1309
2910.00,4.0267
2909.00,3.9079
2908.00,3.9135
2907.00,3.9527
2906.00,4.1555
2905.00,4.5285
2904.00,4.4409
2903.00,4.1913
2902.00,4.0533
2901.00,4.0213
2900.00,3.9401
2899.00,3.8430
2898.00,3.7990
2897.00,3.8159
2896.00,3.9200
2895.00,4.0655
2894.00,4.1137
2893.00,4.0110
2892.00,3.8904
2891.00,3.8173
2890.00,3.7783
2889.00,3.7683
2888.00,3.8203
2887.00,3.9654
2886.00,4.1486
2885.00,4.3292
2884.00,4.5017
2883.00,4.5044
2882.00,4.4740
2881.00,4.4153
2880.00,4.4323
2879.00,4.4401
2878.00,4.3619
2877.00,4.2514
2876.00,4.1398
2875.00,4.1056
2874.00,4.0687
2873.00,3.9634
2872.00,3.8639
2871.00,3.8031
2870.00,3.7874
2869.00,3.8289
2868.00,4.0057
2867.00,4.4034
2866.00,4.5389
2865.00,4.2612
2864.00,4.0563
2863.00,4.0058
2862.00,4.0309
2861.00,4.2136
2860.00,4.5414
2859.00,4.4612
2858.00,4.4557
2857.00,4.5423
2856.00,4.2440
2855.00,3.9096
2854.00,3.7777
2853.00,3.7990
2852.00,3.9022
2851.00,4.0624
2850.00,4.2189
2849.00,4.4578
2848.00,4.5915
2847.00,4.3709
2846.00,4.1820
2845.00,4.0970
2844.00,4.0286
2843.00,3.9893
2842.00,4.0511
2841.00,4.0765
2840.00,3.9802
2839.00,3.7862
2838.00,3.5375
2837.00,3.2887
2836.00,3.0672
2835.00,2.8661
2834.00,2.6746
2833.00,2.4950
2832.00,2.3318
2831.00,2.1865
2830.00,2.0572
2829.00,1.9408
2828.00,1.8360
2827.00,1.7420
2826.00,1.6581
2825.00,1.5829
2824.00,1.5149
2823.00,1.4531
2822.00,1.3966
2821.00,1.3446
2820.00,1.2967
2819.00,1.2525
2818.00,1.2115
2817.00,1.1735
2816.00,1.1382
2815.00,1.1053
2814.00,1.0745
2813.00,1.0456
2812.00,1.0184
2811.00,0.9927
2810.00,0.9684
2809.00,0.9454
2808.00,0.9235
2807.00,0.9026
2806.00,0.8828
2805.00,0.8640
2804.00,0.8461
2803.00,0.8293
2802.00,0.8134
2801.00,0.7983
2800.00,0.7839
2799.00,0.7700
2798.00,0.7567
2797.00,0.7440
2796.00,0.7319
2795.00,0.7201
2794.00,0.7086
2793.00,0.6975
2792.00,0.6868
2791.00,0.6764
2790.00,0.6662
2789.00,0.6562
2788.00,0.6463
2787.00,0.6366
2786.00,0.6272
2785.00,0.6180
2784.00,0.6091
2783.00,0.6005
2782.00,0.5923
2781.00,0.5844
2780.00,0.5768
2779.00,0.5696
2778.00,0.5627
2777.00,0.5561
2776.00,0.5497
2775.00,0.5438
2774.00,0.5381
2773.00,0.5329
2772.00,0.5279
2771.00,0.5234
2770.00,0.5192
2769.00,0.5154
2768.00,0.5120
2767.00,0.5090
2766.00,0.5063
2765.00,0.5039
2764.00,0.5018
2763.00,0.4998
2762.00,0.4981
2761.00,0.4966
2760.00,0.4952
2759.00,0.4939
2758.00,0.4927
2757.00,0.4914
2756.00,0.4901
2755.00,0.4890
2754.00,0.4880
2753.00,0.4872
2752.00,0.4866
2751.00,0.4861
2750.00,0.4858
2749.00,0.4858
2748.00,0.4859
2747.00,0.4863
2746.00,0.4869
2745.00,0.4878
2744.00,0.4890
2743.00,0.4906
2742.00,0.4925
2741.00,0.4948
2740.00,0.4975
2739.00,0.5007
2738.00,0.5044
2737.00,0.5086
2736.00,0.5132
2735.00,0.5183
2734.00,0.5237
2733.00,0.5290
2732.00,0.5339
2731.00,0.5381
2730.00,0.5413
2729.00,0.5435
2728.00,0.5446
2727.00,0.5448
2726.00,0.5443
2725.00,0.5431
2724.00,0.5416
2723.00,0.5395
2722.00,0.5371
2721.00,0.5342
2720.00,0.5308
2719.00,0.5270
2718.00,0.5227
2717.00,0.5181
2716.00,0.5133
2715.00,0.5084
2714.00,0.5035
2713.00,0.4987
2712.00,0.4943
2711.00,0.4901
2710.00,0.4864
2709.00,0.4831
2708.00,0.4802
2707.00,0.4778
2706.00,0.4757
2705.00,0.4739
2704.00,0.4725
2703.00,0.4713
2702.00,0.4705
2701.00,0.4698
2700.00,0.4694
2699.00,0.4691
2698.00,0.4690
2697.00,0.4690
2696.00,0.4692
2695.00,0.4695
2694.00,0.4700
2693.00,0.4706
2692.00,0.4712
2691.00,0.4719
2690.00,0.4725
2689.00,0.4732
2688.00,0.4738
2687.00,0.4743
2686.00,0.4747
2685.00,0.4751
2684.00,0.4755
2683.00,0.4759
2682.00,0.4763
2681.00,0.4767
2680.00,0.4771
2679.00,0.4775
2678.00,0.4780
2677.00,0.4786
2676.00,0.4792
2675.00,0.4799
2674.00,0.4805
2673.00,0.4811
2672.00,0.4816
2671.00,0.4819
2670.00,0.4820
2669.00,0.4818
2668.00,0.4813
2667.00,0.4805
2666.00,0.4792
2665.00,0.4778
2664.00,0.4762
2663.00,0.4744
2662.00,0.4725
2661.00,0.4705
2660.00,0.4683
2659.00,0.4661
2658.00,0.4639
2657.00,0.4617
2656.00,0.4595
2655.00,0.4574
2654.00,0.4554
2653.00,0.4535
2652.00,0.4516
2651.00,0.4499
2650.00,0.4482
2649.00,0.4466
2648.00,0.4451
2647.00,0.4436
2646.00,0.4421
2645.00,0.4408
2644.00,0.4394
2643.00,0.4382
2642.00,0.4372
2641.00,0.4362
2640.00,0.4353
2639.00,0.4344
2638.00,0.4334
2637.00,0.4325
2636.00,0.4315
2635.00,0.4306
2634.00,0.4297
2633.00,0.4288
2632.00,0.4279
2631.00,0.4269
2630.00,0.4260
2629.00,0.4251
2628.00,0.4241
2627.00,0.4231
2626.00,0.4221
2625.00,0.4210
2624.00,0.4200
2623.00,0.4190
2622.00,0.4180
2621.00,0.4171
2620.00,0.4162
2619.00,0.4152
2618.00,0.4143
2617.00,0.4134
2616.00,0.4124
2615.00,0.4113
2614.00,0.4102
2613.00,0.4091
2612.00,0.4079
2611.00,0.4068
2610.00,0.4057
2609.00,0.4046
2608.00,0.4035
2607.00,0.4025
2606.00,0.4016
2605.00,0.4006
2604.00,0.3995
2603.00,0.3985
2602.00,0.3974
2601.00,0.3963
2600.00,0.3952
2599.00,0.3940
2598.00,0.3927
2597.00,0.3913
2596.00,0.3897
2595.00,0.3881
2594.00,0.3864
2593.00,0.3847
2592.00,0.3830
2591.00,0.3812
2590.00,0.3795
2589.00,0.3778
2588.00,0.3760
2587.00,0.3743
2586.00,0.3725
2585.00,0.3708
2584.00,0.3690
2583.00,0.3671
2582.00,0.3652
2581.00,0.3634
2580.00,0.3615
2579.00,0.3596
2578.00,0.3577
2577.00,0.3559
2576.00,0.3541
2575.00,0.3524
2574.00,0.3507
2573.00,0.3491
2572.00,0.3476
2571.00,0.3461
2570.00,0.3446
2569.00,0.3432
2568.00,0.3418
2567.00,0.3403
2566.00,0.3389
2565.00,0.3374
2564.00,0.3360
2563.00,0.3345
2562.00,0.3331
2561.00,0.3317
2560.00,0.3304
2559.00,0.3291
2558.00,0.3279
2557.00,0.3267
2556.00,0.3255
2555.00,0.3243
2554.00,0.3230
2553.00,0.3218
2552.00,0.3207
2551.00,0.3195
2550.00,0.3184
2549.00,0.3174
2548.00,0.3164
2547.00,0.3154
2546.00,0.3144
2545.00,0.3134
2544.00,0.3124
2543.00,0.3115
2542.00,0.3106
2541.00,0.3098
2540.00,0.3090
2539.00,0.3082
2538.00,0.3075
2537.00,0.3068
2536.00,0.3061
2535.00,0.3054
2534.00,0.3048
2533.00,0.3041
2532.00,0.3035
2531.00,0.3028
2530.00,0.3020
2529.00,0.3012
2528.00,0.3003
2527.00,0.2994
2526.00,0.2986
2525.00,0.2977
2524.00,0.2967
2523.00,0.2958
2522.00,0.2948
2521.00,0.2939
2520.00,0.2929
2519.00,0.2920
2518.00,0.2911
2517.00,0.2902
2516.00,0.2894
2515.00,0.2886
2514.00,0.2879
2513.00,0.2872
2512.00,0.2865
2511.00,0.2857
2510.00,0.2850
2509.00,0.2844
2508.00,0.2837
2507.00,0.2832
2506.00,0.2826
2505.00,0.2822
2504.00,0.2818
2503.00,0.2814
2502.00,0.2810
2501.00,0.2806
2500.00,0.2803
2499.00,0.2800
2498.00,0.2796
2497.00,0.2794
2496.00,0.2791
2495.00,0.2788
2494.00,0.2785
2493.00,0.2783
2492.00,0.2780
2491.00,0.2777
2490.00,0.2774
2489.00,0.2771
2488.00,0.2767
2487.00,0.2764
2486.00,0.2761
2485.00,0.2758
2484.00,0.2755
2483.00,0.2751
2482.00,0.2747
2481.00,0.2744
2480.00,0.2740
2479.00,0.2736
2478.00,0.2733
2477.00,0.2730
2476.00,0.2727
2475.00,0.2724
2474.00,0.2720
2473.00,0.2717
2472.00,0.2714
2471.00,0.2711
2470.00,0.2707
2469.00,0.2704
2468.00,0.2701
2467.00,0.2697
2466.00,0.2694
2465.00,0.2691
2464.00,0.2688
2463.00,0.2685
2462.00,0.2682
2461.00,0.2679
2460.00,0.2677
2459.00,0.2675
2458.00,0.2673
2457.00,0.2672
2456.00,0.2671
2455.00,0.2670
2454.00,0.2669
2453.00,0.2668
2452.00,0.2667
2451.00,0.2667
2450.00,0.2667
2449.00,0.2667
2448.00,0.2667
2447.00,0.2666
2446.00,0.2666
2445.00,0.2666
2444.00,0.2666
2443.00,0.2667
2442.00,0.2667
2441.00,0.2668
2440.00,0.2668
2439.00,0.2669
2438.00,0.2670
2437.00,0.2670
2436.00,0.2671
2435.00,0.2671
2434.00,0.2671
2433.00,0.2671
2432.00,0.2672
2431.00,0.2673
2430.00,0.2674
2429.00,0.2674
2428.00,0.2675
2427.00,0.2676
2426.00,0.2677
2425.00,0.2678
2424.00,0.2679
2423.00,0.2680
2422.00,0.2681
2421.00,0.2681
2420.00,0.2682
2419.00,0.2683
2418.00,0.2684
2417.00,0.2685
2416.00,0.2686
2415.00,0.2688
2414.00,0.2689
2413.00,0.2690
2412.00,0.2691
2411.00,0.2691
2410.00,0.2691
2409.00,0.2691
2408.00,0.2691
2407.00,0.2691
2406.00,0.2691
2405.00,0.2690
2404.00,0.2689
2403.00,0.2687
2402.00,0.2686
2401.00,0.2684
2400.00,0.2682
2399.00,0.2680
2398.00,0.2679
2397.00,0.2677
2396.00,0.2675
2395.00,0.2674
2394.00,0.2673
2393.00,0.2673
2392.00,0.2672
2391.00,0.2672
2390.00,0.2671
2389.00,0.2670
2388.00,0.2670
2387.00,0.2670
2386.00,0.2670
2385.00,0.2671
2384.00,0.2673
2383.00,0.2674
2382.00,0.2676
2381.00,0.2678
2380.00,0.2681
2379.00,0.2683
2378.00,0.2685
2377.00,0.2686
2376.00,0.2687
2375.00,0.2688
2374.00,0.2688
2373.00,0.2688
2372.00,0.2688
2371.00,0.2687
2370.00,0.2686
2369.00,0.2684
2368.00,0.2682
2367.00,0.2680
2366.00,0.2679
2365.00,0.2680
2364.00,0.2681
2363.00,0.2682
2362.00,0.2681
2361.00,0.2681
2360.00,0.2681
2359.00,0.2681
2358.00,0.2681
2357.00,0.2681
2356.00,0.2680
2355.00,0.2679
2354.00,0.2678
2353.00,0.2677
2352.00,0.2676
2351.00,0.2675
2350.00,0.2674
2349.00,0.2673
2348.00,0.2673
2347.00,0.2673
2346.00,0.2675
2345.00,0.2677
2344.00,0.2678
2343.00,0.2678
2342.00,0.2675
2341.00,0.2672
2340.00,0.2670
2339.00,0.2667
2338.00,0.2665
2337.00,0.2663
2336.00,0.2661
2335.00,0.2658
2334.00,0.2655
2333.00,0.2653
2332.00,0.2651
2331.00,0.2648
2330.00,0.2645
2329.00,0.2643
2328.00,0.2641
2327.00,0.2638
2326.00,0.2636
2325.00,0.2634
2324.00,0.2632
2323.00,0.2629
2322.00,0.2627
2321.00,0.2624
2320.00,0.2621
2319.00,0.2618
2318.00,0.2614
2317.00,0.2611
2316.00,0.2607
2315.00,0.2605
2314.00,0.2603
2313.00,0.2602
2312.00,0.2601
2311.00,0.2599
2310.00,0.2596
2309.00,0.2592
2308.00,0.2589
2307.00,0.2586
2306.00,0.2583
2305.00,0.2580
2304.00,0.2577
2303.00,0.2574
2302.00,0.2571
2301.00,0.2568
2300.00,0.2565
2299.00,0.2562
2298.00,0.2558
2297.00,0.2555
2296.00,0.2552
2295.00,0.2550
2294.00,0.2547
2293.00,0.2545
2292.00,0.2542
2291.00,0.2538
2290.00,0.2534
2289.00,0.2531
2288.00,0.2528
2287.00,0.2524
2286.00,0.2521
2285.00,0.2518
2284.00,0.2516
2283.00,0.2513
2282.00,0.2510
2281.00,0.2508
2280.00,0.2505
2279.00,0.2502
2278.00,0.2498
2277.00,0.2495
2276.00,0.2493
2275.00,0.2490
2274.00,0.2487
2273.00,0.2485
2272.00,0.2483
2271.00,0.2481
2270.00,0.2479
2269.00,0.2477
2268.00,0.2476
2267.00,0.2475
2266.00,0.2473
2265.00,0.2471
2264.00,0.2470
2263.00,0.2467
2262.00,0.2465
2261.00,0.2463
2260.00,0.2460
2259.00,0.2458
2258.00,0.2456
2257.00,0.2453
2256.00,0.2450
2255.00,0.2448
2254.00,0.2444
2253.00,0.2441
2252.00,0.2438
2251.00,0.2436
2250.00,0.2433
2249.00,0.2431
2248.00,0.2429
2247.00,0.2427
2246.00,0.2425
2245.00,0.2423
2244.00,0.2421
2243.00,0.2419
2242.00,0.2417
2241.00,0.2415
2240.00,0.2413
2239.00,0.2411
2238.00,0.2409
2237.00,0.2408
2236.00,0.2406
2235.00,0.2405
2234.00,0.2404
2233.00,0.2402
2232.00,0.2400
2231.00,0.2399
2230.00,0.2397
2229.00,0.2396
2228.00,0.2395
2227.00,0.2394
2226.00,0.2393
2225.00,0.2392
2224.00,0.2391
2223.00,0.2390
2222.00,0.2389
2221.00,0.2388
2220.00,0.2388
2219.00,0.2387
2218.00,0.2386
2217.00,0.2386
2216.00,0.2385
2215.00,0.2385
2214.00,0.2384
2213.00,0.2384
2212.00,0.2384
2211.00,0.2383
2210.00,0.2383
2209.00,0.2382
2208.00,0.2382
2207.00,0.2381
2206.00,0.2380
2205.00,0.2380
2204.00,0.2380
2203.00,0.2380
2202.00,0.2379
2201.00,0.2379
2200.00,0.2379
2199.00,0.2378
2198.00,0.2378
2197.00,0.2378
2196.00,0.2378
2195.00,0.2377
2194.00,0.2377
2193.00,0.2377
2192.00,0.2377
2191.00,0.2376
2190.00,0.2376
2189.00,0.2376
2188.00,0.2377
2187.00,0.2377
2186.00,0.2377
2185.00,0.2377
2184.00,0.2377
2183.00,0.2377
2182.00,0.2376
2181.00,0.2376
2180.00,0.2376
2179.00,0.2375
2178.00,0.2374
2177.00,0.2372
2176.00,0.2371
2175.00,0.2370
2174.00,0.2368
2173.00,0.2367
2172.00,0.2366
2171.00,0.2365
2170.00,0.2364
2169.00,0.2363
2168.00,0.2361
2167.00,0.2359
2166.00,0.2357
2165.00,0.2356
2164.00,0.2354
2163.00,0.2352
2162.00,0.2350
2161.00,0.2347
2160.00,0.2346
2159.00,0.2345
2158.00,0.2343
2157.00,0.2342
2156.00,0.2340
2155.00,0.2338
2154.00,0.2336
2153.00,0.2334
2152.00,0.2334
2151.00,0.2333
2150.00,0.2331
2149.00,0.2329
2148.00,0.2327
2147.00,0.2324
2146.00,0.2321
2145.00,0.2317
2144.00,0.2313
2143.00,0.2308
2142.00,0.2304
2141.00,0.2301
2140.00,0.2297
2139.00,0.2294
2138.00,0.2291
2137.00,0.2288
2136.00,0.2285
2135.00,0.2282
2134.00,0.2279
2133.00,0.2276
2132.00,0.2273
2131.00,0.2271
2130.00,0.2269
2129.00,0.2267
2128.00,0.2265
2127.00,0.2263
2126.00,0.2261
2125.00,0.2259
2124.00,0.2257
2123.00,0.2256
2122.00,0.2254
2121.00,0.2253
2120.00,0.2252
2119.00,0.2251
2118.00,0.2250
2117.00,0.2250
2116.00,0.2249
2115.00,0.2249
2114.00,0.2248
2113.00,0.2248
2112.00,0.2248
2111.00,0.2247
2110.00,0.2246
2109.00,0.2246
2108.00,0.2246
2107.00,0.2245
2106.00,0.2244
2105.00,0.2244
2104.00,0.2244
2103.00,0.2243
2102.00,0.2242
2101.00,0.2241
2100.00,0.2240
2099.00,0.2240
2098.00,0.2239
2097.00,0.2238
2096.00,0.2237
2095.00,0.2236
2094.00,0.2235
2093.00,0.2234
2092.00,0.2233
2091.00,0.2232
2090.00,0.2232
2089.00,0.2231
2088.00,0.2231
2087.00,0.2231
2086.00,0.2230
2085.00,0.2230
2084.00,0.2230
2083.00,0.2230
2082.00,0.2229
2081.00,0.2229
2080.00,0.2229
2079.00,0.2228
2078.00,0.2228
2077.00,0.2228
2076.00,0.2228
2075.00,0.2229
2074.00,0.2229
2073.00,0.2230
2072.00,0.2230
2071.00,0.2231
2070.00,0.2232
2069.00,0.2233
2068.00,0.2233
2067.00,0.2233
2066.00,0.2232
2065.00,0.2233
2064.00,0.2234
2063.00,0.2236
2062.00,0.2236
2061.00,0.2236
2060.00,0.2236
2059.00,0.2236
2058.00,0.2236
2057.00,0.2237
2056.00,0.2238
2055.00,0.2238
2054.00,0.2239
2053.00,0.2240
2052.00,0.2241
2051.00,0.2241
2050.00,0.2242
2049.00,0.2244
2048.00,0.2245
2047.00,0.2247
2046.00,0.2248
2045.00,0.2250
2044.00,0.2252
2043.00,0.2253
2042.00,0.2254
2041.00,0.2256
2040.00,0.2258
2039.00,0.2260
2038.00,0.2261
2037.00,0.2262
2036.00,0.2263
2035.00,0.2263
2034.00,0.2264
2033.00,0.2264
2032.00,0.2265
2031.00,0.2265
2030.00,0.2265
2029.00,0.2265
2028.00,0.2265
2027.00,0.2264
2026.00,0.2263
2025.00,0.2262
2024.00,0.2261
2023.00,0.2258
2022.00,0.2256
2021.00,0.2252
2020.00,0.2247
2019.00,0.2241
2018.00,0.2234
2017.00,0.2228
2016.00,0.2223
2015.00,0.2219
2014.00,0.2213
2013.00,0.2208
2012.00,0.2203
2011.00,0.2198
2010.00,0.2193
2009.00,0.2189
2008.00,0.2186
2007.00,0.2183
2006.00,0.2181
2005.00,0.2179
2004.00,0.2178
2003.00,0.2177
2002.00,0.2175
2001.00,0.2175
2000.00,0.2175
1999.00,0.2174
1998.00,0.2174
1997.00,0.2174
1996.00,0.2174
1995.00,0.2173
1994.00,0.2171
1993.00,0.2169
1992.00,0.2168
1991.00,0.2167
1990.00,0.2167
1989.00,0.2167
1988.00,0.2167
1987.00,0.2166
1986.00,0.2165
1985.00,0.2164
1984.00,0.2163
1983.00,0.2162
1982.00,0.2161
1981.00,0.2159
1980.00,0.2158
1979.00,0.2156
1978.00,0.2154
1977.00,0.2154
1976.00,0.2153
1975.00,0.2153
1974.00,0.2153
1973.00,0.2153
1972.00,0.2153
1971.00,0.2152
1970.00,0.2151
1969.00,0.2150
1968.00,0.2150
1967.00,0.2151
1966.00,0.2153
1965.00,0.2156
1964.00,0.2159
1963.00,0.2160
1962.00,0.2161
1961.00,0.2162
1960.00,0.2164
1959.00,0.2165
1958.00,0.2167
1957.00,0.2169
1956.00,0.2171
1955.00,0.2172
1954.00,0.2173
1953.00,0.2175
1952.00,0.2176
1951.00,0.2176
1950.00,0.2176
1949.00,0.2175
1948.00,0.2175
1947.00,0.2174
1946.00,0.2173
1945.00,0.2173
1944.00,0.2174
1943.00,0.2175
1942.00,0.2179
1941.00,0.2184
1940.00,0.2189
1939.00,0.2192
1938.00,0.2193
1937.00,0.2193
1936.00,0.2193
1935.00,0.2192
1934.00,0.2191
1933.00,0.2191
1932.00,0.2192
1931.00,0.2194
1930.00,0.2195
1929.00,0.2197
1928.00,0.2199
1927.00,0.2201
1926.00,0.2202
1925.00,0.2202
1924.00,0.2203
1923.00,0.2207
1922.00,0.2215
1921.00,0.2224
1920.00,0.2231
1919.00,0.2236
1918.00,0.2239
1917.00,0.2242
1916.00,0.2244
1915.00,0.2245
1914.00,0.2244
1913.00,0.2241
1912.00,0.2239
1911.00,0.2235
1910.00,0.2233
1909.00,0.2232
1908.00,0.2233
1907.00,0.2234
1906.00,0.2234
1905.00,0.2234
1904.00,0.2233
1903.00,0.2233
1902.00,0.2233
1901.00,0.2233
1900.00,0.2234
1899.00,0.2235
1898.00,0.2235
1897.00,0.2236
1896.00,0.2237
1895.00,0.2240
1894.00,0.2244
1893.00,0.2249
1892.00,0.2252
1891.00,0.2253
1890.00,0.2253
1889.00,0.2256
1888.00,0.2259
1887.00,0.2261
1886.00,0.2262
1885.00,0.2264
1884.00,0.2265
1883.00,0.2267
1882.00,0.2268
1881.00,0.2269
1880.00,0.2270
1879.00,0.2270
1878.00,0.2270
1877.00,0.2269
1876.00,0.2269
1875.00,0.2267
1874.00,0.2265
1873.00,0.2264
1872.00,0.2262
1871.00,0.2258
1870.00,0.2250
1869.00,0.2244
1868.00,0.2240
1867.00,0.2240
1866.00,0.2240
1865.00,0.2239
1864.00,0.2237
1863.00,0.2235
1862.00,0.2231
1861.00,0.2228
1860.00,0.2226
1859.00,0.2224
1858.00,0.2222
1857.00,0.2222
1856.00,0.2222
1855.00,0.2221
1854.00,0.2220
1853.00,0.2220
1852.00,0.2220
1851.00,0.2219
1850.00,0.2216
1849.00,0.2215
1848.00,0.2216
1847.00,0.2219
1846.00,0.2220
1845.00,0.2219
1844.00,0.2217
1843.00,0.2215
1842.00,0.2214
1841.00,0.2212
1840.00,0.2210
1839.00,0.2206
1838.00,0.2203
1837.00,0.2201
1836.00,0.2201
1835.00,0.2201
1834.00,0.2201
1833.00,0.2202
1832.00,0.2200
1831.00,0.2195
1830.00,0.2191
1829.00,0.2192
1828.00,0.2194
1827.00,0.2194
1826.00,0.2192
1825.00,0.2191
1824.00,0.2192
1823.00,0.2194
1822.00,0.2195
1821.00,0.2197
1820.00,0.2198
1819.00,0.2199
1818.00,0.2200
1817.00,0.2202
1816.00,0.2204
1815.00,0.2206
1814.00,0.2207
1813.00,0.2207
1812.00,0.2206
1811.00,0.2207
1810.00,0.2210
1809.00,0.2214
1808.00,0.2218
1807.00,0.2222
1806.00,0.2226
1805.00,0.2229
1804.00,0.2232
1803.00,0.2234
1802.00,0.2236
1801.00,0.2240
1800.00,0.2244
1799.00,0.2248
1798.00,0.2250
1797.00,0.2254
1796.00,0.2260
1795.00,0.2267
1794.00,0.2272
1793.00,0.2275
1792.00,0.2279
1791.00,0.2285
1790.00,0.2291
1789.00,0.2298
1788.00,0.2304
1787.00,0.2309
1786.00,0.2314
1785.00,0.2319
1784.00,0.2325
1783.00,0.2329
1782.00,0.2332
1781.00,0.2336
1780.00,0.2343
1779.00,0.2352
1778.00,0.2360
1777.00,0.2366
1776.00,0.2373
1775.00,0.2378
1774.00,0.2381
1773.00,0.2385
1772.00,0.2393
1771.00,0.2404
1770.00,0.2412
1769.00,0.2417
1768.00,0.2422
1767.00,0.2427
1766.00,0.2434
1765.00,0.2442
1764.00,0.2449
1763.00,0.2454
1762.00,0.2459
1761.00,0.2468
1760.00,0.2478
1759.00,0.2489
1758.00,0.2499
1757.00,0.2512
1756.00,0.2529
1755.00,0.2546
1754.00,0.2562
1753.00,0.2578
1752.00,0.2596
1751.00,0.2619
1750.00,0.2647
1749.00,0.2683
1748.00,0.2724
1747.00,0.2768
1746.00,0.2815
1745.00,0.2867
1744.00,0.2925
1743.00,0.2989
1742.00,0.3055
1741.00,0.3120
1740.00,0.3183
1739.00,0.3242
1738.00,0.3294
1737.00,0.3337
1736.00,0.3369
1735.00,0.3388
1734.00,0.3399
1733.00,0.3409
1732.00,0.3415
1731.00,0.3412
1730.00,0.3400
1729.00,0.3385
1728.00,0.3367
1727.00,0.3346
1726.00,0.3324
1725.00,0.3301
1724.00,0.3280
1723.00,0.3263
1722.00,0.3252
1721.00,0.3244
1720.00,0.3231
1719.00,0.3209
1718.00,0.3185
1717.00,0.3175
1716.00,0.3179
1715.00,0.3185
1714.00,0.3187
1713.00,0.3188
1712.00,0.3187
1711.00,0.3186
1710.00,0.3186
1709.00,0.3188
1708.00,0.3190
1707.00,0.3188
1706.00,0.3182
1705.00,0.3179
1704.00,0.3181
1703.00,0.3185
1702.00,0.3182
1701.00,0.3161
1700.00,0.3125
1699.00,0.3088
1698.00,0.3061
1697.00,0.3042
1696.00,0.3034
1695.00,0.3033
1694.00,0.3035
1693.00,0.3038
1692.00,0.3039
1691.00,0.3037
1690.00,0.3037
1689.00,0.3041
1688.00,0.3048
1687.00,0.3054
1686.00,0.3057
1685.00,0.3061
1684.00,0.3076
1683.00,0.3094
1682.00,0.3105
1681.00,0.3112
1680.00,0.3122
1679.00,0.3138
1678.00,0.3156
1677.00,0.3174
1676.00,0.3188
1675.00,0.3196
1674.00,0.3204
1673.00,0.3213
1672.00,0.3224
1671.00,0.3234
1670.00,0.3244
1669.00,0.3257
1668.00,0.3273
1667.00,0.3287
1666.00,0.3301
1665.00,0.3317
1664.00,0.3333
1663.00,0.3347
1662.00,0.3362
1661.00,0.3378
1660.00,0.3395
1659.00,0.3411
1658.00,0.3428
1657.00,0.3448
1656.00,0.3468
1655.00,0.3480
1654.00,0.3485
1653.00,0.3502
1652.00,0.3527
1651.00,0.3550
1650.00,0.3571
1649.00,0.3585
1648.00,0.3597
1647.00,0.3616
1646.00,0.3642
1645.00,0.3668
1644.00,0.3691
1643.00,0.3712
1642.00,0.3731
1641.00,0.3755
1640.00,0.3782
1639.00,0.3809
1638.00,0.3834
1637.00,0.3861
1636.00,0.3898
1635.00,0.3938
1634.00,0.3971
1633.00,0.3999
1632.00,0.4028
1631.00,0.4057
1630.00,0.4087
1629.00,0.4120
1628.00,0.4156
1627.00,0.4195
1626.00,0.4234
1625.00,0.4278
1624.00,0.4327
1623.00,0.4382
1622.00,0.4444
1621.00,0.4511
1620.00,0.4582
1619.00,0.4657
1618.00,0.4743
1617.00,0.4855
1616.00,0.4988
1615.00,0.5118
1614.00,0.5234
1613.00,0.5347
1612.00,0.5465
1611.00,0.5583
1610.00,0.5699
1609.00,0.5816
1608.00,0.5933
1607.00,0.6042
1606.00,0.6138
1605.00,0.6227
1604.00,0.6313
1603.00,0.6392
1602.00,0.6465
1601.00,0.6543
1600.00,0.6631
1599.00,0.6726
1598.00,0.6830
1597.00,0.6959
1596.00,0.7125
1595.00,0.7328
1594.00,0.7578
1593.00,0.7895
1592.00,0.8301
1591.00,0.8809
1590.00,0.9446
1589.00,1.0267
1588.00,1.1339
1587.00,1.2707
1586.00,1.4414
1585.00,1.6559
1584.00,1.9322
1583.00,2.2769
1582.00,2.6413
1581.00,2.9671
1580.00,3.3093
1579.00,3.1853
1578.00,2.6221
1577.00,2.1967
1576.00,1.8801
1575.00,1.6368
1574.00,1.4550
1573.00,1.3195
1572.00,1.2129
1571.00,1.1236
1570.00,1.0520
1569.00,1.0051
1568.00,0.9855
1567.00,0.9902
1566.00,1.0183
1565.00,1.0731
1564.00,1.1550
1563.00,1.2555
1562.00,1.3619
1561.00,1.4630
1560.00,1.5206
1559.00,1.4604
1558.00,1.3161
1557.00,1.1752
1556.00,1.0518
1555.00,0.9367
1554.00,0.8346
1553.00,0.7539
1552.00,0.6933
1551.00,0.6452
1550.00,0.6052
1549.00,0.5733
1548.00,0.5493
1547.00,0.5303
1546.00,0.5140
1545.00,0.5001
1544.00,0.4892
1543.00,0.4808
1542.00,0.4729
1541.00,0.4650
1540.00,0.4579
1539.00,0.4517
1538.00,0.4462
1537.00,0.4417
1536.00,0.4378
1535.00,0.4333
1534.00,0.4287
1533.00,0.4255
1532.00,0.4245
1531.00,0.4246
1530.00,0.4254
1529.00,0.4264
1528.00,0.4268
1527.00,0.4261
1526.00,0.4240
1525.00,0.4214
1524.00,0.4185
1523.00,0.4153
1522.00,0.4125
1521.00,0.4117
1520.00,0.4128
1519.00,0.4146
1518.00,0.4168
1517.00,0.4202
1516.00,0.4248
1515.00,0.4293
1514.00,0.4333
1513.00,0.4370
1512.00,0.4408
1511.00,0.4446
1510.00,0.4486
1509.00,0.4534
1508.00,0.4605
1507.00,0.4720
1506.00,0.4864
1505.00,0.4994
1504.00,0.5100
1503.00,0.5193
1502.00,0.5282
1501.00,0.5378
1500.00,0.5476
1499.00,0.5571
1498.00,0.5673
1497.00,0.5800
1496.00,0.5949
1495.00,0.6100
1494.00,0.6248
1493.00,0.6398
1492.00,0.6558
1491.00,0.6729
1490.00,0.6922
1489.00,0.7147
1488.00,0.7394
1487.00,0.7661
1486.00,0.7957
1485.00,0.8298
1484.00,0.8685
1483.00,0.9119
1482.00,0.9622
1481.00,1.0202
1480.00,1.0846
1479.00,1.1544
1478.00,1.2331
1477.00,1.3267
1476.00,1.4366
1475.00,1.5628
1474.00,1.7145
1473.00,1.9116
1472.00,2.1658
1471.00,2.4652
1470.00,2.8049
1469.00,3.2353
1468.00,3.7163
1467.00,3.8412
1466.00,3.8589
1465.00,3.9857
1464.00,4.1477
1463.00,3.9118
1462.00,3.7095
1461.00,3.7267
1460.00,3.7077
1459.00,3.5445
1458.00,3.4358
1457.00,3.5467
1456.00,3.6741
1455.00,3.5652
1454.00,3.5721
1453.00,3.7754
1452.00,3.8413
1451.00,3.6054
1450.00,3.4975
1449.00,3.5273
1448.00,3.4797
1447.00,3.2935
1446.00,3.1366
1445.00,3.0164
1444.00,2.8466
1443.00,2.6478
1442.00,2.4771
1441.00,2.3350
1440.00,2.2010
1439.00,2.0676
1438.00,1.9351
1437.00,1.8028
1436.00,1.6766
1435.00,1.5656
1434.00,1.4693
1433.00,1.3803
1432.00,1.2943
1431.00,1.2134
1430.00,1.1415
1429.00,1.0807
1428.00,1.0308
1427.00,0.9910
1426.00,0.9587
1425.00,0.9318
1424.00,0.9098
1423.00,0.8934
1422.00,0.8815
1421.00,0.8718
1420.00,0.8625
1419.00,0.8539
1418.00,0.8468
1417.00,0.8411
1416.00,0.8368
1415.00,0.8337
1414.00,0.8320
1413.00,0.8317
1412.00,0.8327
1411.00,0.8349
1410.00,0.8371
1409.00,0.8379
1408.00,0.8357
1407.00,0.8289
1406.00,0.8163
1405.00,0.7975
1404.00,0.7745
1403.00,0.7503
1402.00,0.7273
1401.00,0.7061
1400.00,0.6878
1399.00,0.6738
1398.00,0.6647
1397.00,0.6593
1396.00,0.6571
1395.00,0.6584
1394.00,0.6642
1393.00,0.6758
1392.00,0.6950
1391.00,0.7244
1390.00,0.7665
1389.00,0.8242
1388.00,0.9010
1387.00,0.9977
1386.00,1.1081
1385.00,1.2238
1384.00,1.3409
1383.00,1.4609
1382.00,1.5876
1381.00,1.7264
1380.00,1.8828
1379.00,2.0487
1378.00,2.1862
1377.00,2.2427
1376.00,2.1963
1375.00,2.0674
1374.00,1.9015
1373.00,1.7423
1372.00,1.6104
1371.00,1.5086
1370.00,1.4357
1369.00,1.3896
1368.00,1.3636
1367.00,1.3435
1366.00,1.3110
1365.00,1.2545
1364.00,1.1767
1363.00,1.0917
1362.00,1.0139
1361.00,0.9511
1360.00,0.9037
1359.00,0.8686
1358.00,0.8431
1357.00,0.8251
1356.00,0.8132
1355.00,0.8063
1354.00,0.8032
1353.00,0.8027
1352.00,0.8037
1351.00,0.8050
1350.00,0.8062
1349.00,0.8070
1348.00,0.8077
1347.00,0.8083
1346.00,0.8088
1345.00,0.8087
1344.00,0.8073
1343.00,0.8042
1342.00,0.7991
1341.00,0.7916
1340.00,0.7818
1339.00,0.7702
1338.00,0.7570
1337.00,0.7426
1336.00,0.7275
1335.00,0.7122
1334.00,0.6972
1333.00,0.6826
1332.00,0.6688
1331.00,0.6562
1330.00,0.6451
1329.00,0.6360
1328.00,0.6290
1327.00,0.6242
1326.00,0.6213
1325.00,0.6198
1324.00,0.6193
1323.00,0.6198
1322.00,0.6209
1321.00,0.6224
1320.00,0.6242
1319.00,0.6260
1318.00,0.6276
1317.00,0.6286
1316.00,0.6292
1315.00,0.6300
1314.00,0.6314
1313.00,0.6340
1312.00,0.6375
1311.00,0.6416
1310.00,0.6457
1309.00,0.6494
1308.00,0.6527
1307.00,0.6556
1306.00,0.6580
1305.00,0.6594
1304.00,0.6592
1303.00,0.6575
1302.00,0.6545
1301.00,0.6507
1300.00,0.6461
1299.00,0.6406
1298.00,0.6342
1297.00,0.6270
1296.00,0.6199
1295.00,0.6133
1294.00,0.6076
1293.00,0.6028
1292.00,0.5985
1291.00,0.5946
1290.00,0.5911
1289.00,0.5880
1288.00,0.5853
1287.00,0.5830
1286.00,0.5809
1285.00,0.5787
1284.00,0.5762
1283.00,0.5737
1282.00,0.5714
1281.00,0.5691
1280.00,0.5669
1279.00,0.5646
1278.00,0.5622
1277.00,0.5596
1276.00,0.5569
1275.00,0.5545
1274.00,0.5526
1273.00,0.5514
1272.00,0.5512
1271.00,0.5523
1270.00,0.5546
1269.00,0.5573
1268.00,0.5593
1267.00,0.5594
1266.00,0.5569
1265.00,0.5521
1264.00,0.5462
1263.00,0.5407
1262.00,0.5367
1261.00,0.5343
1260.00,0.5331
1259.00,0.5325
1258.00,0.5320
1257.00,0.5312
1256.00,0.5302
1255.00,0.5291
1254.00,0.5285
1253.00,0.5285
1252.00,0.5292
1251.00,0.5305
1250.00,0.5321
1249.00,0.5335
1248.00,0.5346
1247.00,0.5353
1246.00,0.5354
1245.00,0.5345
1244.00,0.5327
1243.00,0.5301
1242.00,0.5272
1241.00,0.5241
1240.00,0.5211
1239.00,0.5183
1238.00,0.5156
1237.00,0.5133
1236.00,0.5115
1235.00,0.5105
1234.00,0.5103
1233.00,0.5110
1232.00,0.5127
1231.00,0.5154
1230.00,0.5187
1229.00,0.5218
1228.00,0.5236
1227.00,0.5233
1226.00,0.5207
1225.00,0.5162
1224.00,0.5111
1223.00,0.5065
1222.00,0.5029
1221.00,0.5004
1220.00,0.4987
1219.00,0.4978
1218.00,0.4977
1217.00,0.4984
1216.00,0.4998
1215.00,0.5020
1214.00,0.5045
1213.00,0.5066
1212.00,0.5077
1211.00,0.5072
1210.00,0.5056
1209.00,0.5035
1208.00,0.5017
1207.00,0.5006
1206.00,0.5003
1205.00,0.5005
1204.00,0.5011
1203.00,0.5019
1202.00,0.5024
1201.00,0.5025
1200.00,0.5021
1199.00,0.5014
1198.00,0.5004
1197.00,0.4988
1196.00,0.4966
1195.00,0.4939
1194.00,0.4910
1193.00,0.4882
1192.00,0.4856
1191.00,0.4833
1190.00,0.4814
1189.00,0.4799
1188.00,0.4788
1187.00,0.4781
1186.00,0.4775
1185.00,0.4770
1184.00,0.4765
1183.00,0.4764
1182.00,0.4766
1181.00,0.4772
1180.00,0.4783
1179.00,0.4797
1178.00,0.4815
1177.00,0.4835
1176.00,0.4860
1175.00,0.4892
1174.00,0.4935
1173.00,0.4987
1172.00,0.5043
1171.00,0.5096
1170.00,0.5138
1169.00,0.5163
1168.00,0.5172
1167.00,0.5171
1166.00,0.5166
1165.00,0.5163
1164.00,0.5165
1163.00,0.5175
1162.00,0.5195
1161.00,0.5219
1160.00,0.5246
1159.00,0.5270
1158.00,0.5292
1157.00,0.5308
1156.00,0.5318
1155.00,0.5321
1154.00,0.5316
1153.00,0.5301
1152.00,0.5279
1151.00,0.5252
1150.00,0.5222
1149.00,0.5190
1148.00,0.5157
1147.00,0.5125
1146.00,0.5096
1145.00,0.5071
1144.00,0.5054
1143.00,0.5050
1142.00,0.5064
1141.00,0.5099
1140.00,0.5153
1139.00,0.5228
1138.00,0.5321
1137.00,0.5429
1136.00,0.5550
1135.00,0.5674
1134.00,0.5784
1133.00,0.5852
1132.00,0.5858
1131.00,0.5798
1130.00,0.5686
1129.00,0.5551
1128.00,0.5423
1127.00,0.5319
1126.00,0.5246
1125.00,0.5197
1124.00,0.5163
1123.00,0.5136
1122.00,0.5111
1121.00,0.5090
1120.00,0.5075
1119.00,0.5075
1118.00,0.5096
1117.00,0.5140
1116.00,0.5203
1115.00,0.5269
1114.00,0.5315
1113.00,0.5323
1112.00,0.5292
1111.00,0.5241
1110.00,0.5191
1109.00,0.5161
1108.00,0.5155
1107.00,0.5166
1106.00,0.5177
1105.00,0.5169
1104.00,0.5131
1103.00,0.5065
1102.00,0.4981
1101.00,0.4890
1100.00,0.4800
1099.00,0.4714
1098.00,0.4635
1097.00,0.4564
1096.00,0.4505
1095.00,0.4459
1094.00,0.4428
1093.00,0.4411
1092.00,0.4406
1091.00,0.4413
1090.00,0.4431
1089.00,0.4460
1088.00,0.4501
1087.00,0.4555
1086.00,0.4623
1085.00,0.4704
1084.00,0.4797
1083.00,0.4902
1082.00,0.5017
1081.00,0.5137
1080.00,0.5260
1079.00,0.5377
1078.00,0.5477
1077.00,0.5543
1076.00,0.5562
1075.00,0.5534
1074.00,0.5467
1073.00,0.5376
1072.00,0.5281
1071.00,0.5197
1070.00,0.5129
1069.00,0.5078
1068.00,0.5039
1067.00,0.5009
1066.00,0.4987
1065.00,0.4969
1064.00,0.4958
1063.00,0.4953
1062.00,0.4955
1061.00,0.4963
1060.00,0.4972
1059.00,0.4977
1058.00,0.4974
1057.00,0.4963
1056.00,0.4942
1055.00,0.4914
1054.00,0.4881
1053.00,0.4851
1052.00,0.4828
1051.00,0.4820
1050.00,0.4828
1049.00,0.4850
1048.00,0.4878
1047.00,0.4909
1046.00,0.4936
1045.00,0.4959
1044.00,0.4980
1043.00,0.5000
1042.00,0.5024
1041.00,0.5051
1040.00,0.5081
1039.00,0.5112
1038.00,0.5141
1037.00,0.5165
1036.00,0.5187
1035.00,0.5211
1034.00,0.5241
1033.00,0.5277
1032.00,0.5321
1031.00,0.5369
1030.00,0.5416
1029.00,0.5451
1028.00,0.5463
1027.00,0.5441
1026.00,0.5388
1025.00,0.5309
1024.00,0.5219
1023.00,0.5130
1022.00,0.5048
1021.00,0.4978
1020.00,0.4919
1019.00,0.4871
1018.00,0.4832
1017.00,0.4800
1016.00,0.4773
1015.00,0.4751
1014.00,0.4736
1013.00,0.4730
1012.00,0.4735
1011.00,0.4750
1010.00,0.4774
1009.00,0.4806
1008.00,0.4846
1007.00,0.4893
1006.00,0.4947
1005.00,0.5008
1004.00,0.5077
1003.00,0.5151
1002.00,0.5228
1001.00,0.5302
1000.00,0.5367
999.00,0.5418
998.00,0.5448
997.00,0.5453
996.00,0.5433
995.00,0.5394
994.00,0.5341
993.00,0.5279
992.00,0.5211
991.00,0.5137
990.00,0.5060
989.00,0.4983
988.00,0.4910
987.00,0.4847
986.00,0.4800
985.00,0.4769
984.00,0.4753
983.00,0.4751
982.00,0.4755
981.00,0.4760
980.00,0.4759
979.00,0.4750
978.00,0.4736
977.00,0.4718
976.00,0.4701
975.00,0.4684
974.00,0.4666
973.00,0.4645
972.00,0.4622
971.00,0.4598
970.00,0.4576
969.00,0.4557
968.00,0.4542
967.00,0.4530
966.00,0.4518
965.00,0.4503
964.00,0.4484
963.00,0.4462
962.00,0.4436
961.00,0.4408
960.00,0.4381
959.00,0.4358
958.00,0.4342
957.00,0.4330
956.00,0.4318
955.00,0.4301
954.00,0.4280
953.00,0.4254
952.00,0.4225
951.00,0.4197
950.00,0.4173
949.00,0.4154
948.00,0.4143
947.00,0.4141
946.00,0.4145
945.00,0.4156
944.00,0.4173
943.00,0.4194
942.00,0.4216
941.00,0.4235
940.00,0.4250
939.00,0.4258
938.00,0.4260
937.00,0.4255
936.00,0.4242
935.00,0.4224
934.00,0.4203
933.00,0.4179
932.00,0.4156
931.00,0.4136
930.00,0.4120
929.00,0.4111
928.00,0.4112
927.00,0.4126
926.00,0.4157
925.00,0.4208
924.00,0.4278
923.00,0.4365
922.00,0.4453
921.00,0.4518
920.00,0.4534
919.00,0.4490
918.00,0.4394
917.00,0.4269
916.00,0.4139
915.00,0.4021
914.00,0.3920
913.00,0.3837
912.00,0.3768
911.00,0.3713
910.00,0.3668
909.00,0.3631
908.00,0.3601
907.00,0.3577
906.00,0.3559
905.00,0.3547
904.00,0.3541
903.00,0.3542
902.00,0.3549
901.00,0.3563
900.00,0.3584
899.00,0.3610
898.00,0.3641
897.00,0.3675
896.00,0.3712
895.00,0.3753
894.00,0.3798
893.00,0.3845
892.00,0.3894
891.00,0.3940
890.00,0.3980
889.00,0.4006
888.00,0.4013
887.00,0.4002
886.00,0.3974
885.00,0.3938
884.00,0.3904
883.00,0.3879
882.00,0.3867
881.00,0.3868
880.00,0.3877
879.00,0.3891
878.00,0.3906
877.00,0.3923
876.00,0.3942
875.00,0.3966
874.00,0.3994
873.00,0.4023
872.00,0.4052
871.00,0.4083
870.00,0.4118
869.00,0.4158
868.00,0.4207
867.00,0.4268
866.00,0.4345
865.00,0.4434
864.00,0.4530
863.00,0.4616
862.00,0.4669
861.00,0.4668
860.00,0.4609
859.00,0.4511
858.00,0.4400
857.00,0.4301
856.00,0.4223
855.00,0.4167
854.00,0.4128
853.00,0.4099
852.00,0.4075
851.00,0.4053
850.00,0.4030
849.00,0.4005
848.00,0.3976
847.00,0.3946
846.00,0.3914
845.00,0.3881
844.00,0.3853
843.00,0.3835
842.00,0.3833
841.00,0.3855
840.00,0.3905
839.00,0.3985
838.00,0.4088
837.00,0.4190
836.00,0.4262
835.00,0.4275
834.00,0.4222
833.00,0.4122
832.00,0.4007
831.00,0.3907
830.00,0.3838
829.00,0.3800
828.00,0.3790
827.00,0.3803
826.00,0.3833
825.00,0.3876
824.00,0.3929
823.00,0.3991
822.00,0.4059
821.00,0.4131
820.00,0.4205
819.00,0.4280
818.00,0.4351
817.00,0.4411
816.00,0.4454
815.00,0.4475
814.00,0.4471
813.00,0.4443
812.00,0.4393
811.00,0.4330
810.00,0.4259
809.00,0.4186
808.00,0.4118
807.00,0.4060
806.00,0.4011
805.00,0.3966
804.00,0.3918
803.00,0.3864
802.00,0.3807
801.00,0.3752
800.00,0.3705
799.00,0.3670
798.00,0.3647
797.00,0.3633
796.00,0.3624
795.00,0.3618
794.00,0.3615
793.00,0.3617
792.00,0.3624
791.00,0.3636
790.00,0.3650
789.00,0.3663
788.00,0.3674
787.00,0.3685
786.00,0.3702
785.00,0.3725
784.00,0.3757
783.00,0.3792
782.00,0.3828
781.00,0.3862
780.00,0.3892
779.00,0.3919
778.00,0.3944
777.00,0.3966
776.00,0.3987
775.00,0.4007
774.00,0.4026
773.00,0.4045
772.00,0.4063
771.00,0.4083
770.00,0.4108
769.00,0.4137
768.00,0.4170
767.00,0.4204
766.00,0.4235
765.00,0.4262
764.00,0.4285
763.00,0.4308
762.00,0.4336
761.00,0.4369
760.00,0.4407
759.00,0.4445
758.00,0.4474
757.00,0.4488
756.00,0.4490
755.00,0.4489
754.00,0.4493
753.00,0.4509
752.00,0.4533
751.00,0.4564
750.00,0.4599
749.00,0.4636
748.00,0.4673
747.00,0.4712
746.00,0.4754
745.00,0.4804
744.00,0.4862
743.00,0.4930
742.00,0.5005
741.00,0.5083
740.00,0.5158
739.00,0.5229
738.00,0.5297
737.00,0.5363
736.00,0.5426
735.00,0.5487
734.00,0.5548
733.00,0.5612
732.00,0.5684
731.00,0.5770
730.00,0.5881
729.00,0.6024
728.00,0.6209
727.00,0.6445
726.00,0.6736
725.00,0.7077
724.00,0.7434
723.00,0.7741
722.00,0.7901
721.00,0.7827
720.00,0.7510
719.00,0.7042
718.00,0.6539
717.00,0.6085
716.00,0.5715
715.00,0.5432
714.00,0.5219
713.00,0.5057
712.00,0.4932
711.00,0.4834
710.00,0.4757
709.00,0.4698
708.00,0.4652
707.00,0.4616
706.00,0.4585
705.00,0.4550
704.00,0.4511
703.00,0.4471
702.00,0.4434
701.00,0.4401
700.00,0.4364
699.00,0.4314
698.00,0.4241
697.00,0.4146
696.00,0.4040
695.00,0.3940
694.00,0.3858
693.00,0.3792
692.00,0.3741
691.00,0.3701
690.00,0.3669
689.00,0.3641
688.00,0.3615
687.00,0.3592
686.00,0.3576
685.00,0.3565
684.00,0.3560
683.00,0.3563
682.00,0.3573
681.00,0.3587
680.00,0.3603
679.00,0.3621
678.00,0.3642
677.00,0.3664
676.00,0.3685
675.00,0.3707
674.00,0.3727
673.00,0.3745
672.00,0.3761
671.00,0.3775
670.00,0.3786
669.00,0.3792
668.00,0.3786
667.00,0.3769
666.00,0.3754
665.00,0.3747
664.00,0.3739
663.00,0.3725
662.00,0.3710
661.00,0.3696
660.00,0.3684
659.00,0.3673
658.00,0.3663
657.00,0.3652
656.00,0.3643
655.00,0.3637
654.00,0.3634
653.00,0.3632
652.00,0.3629
651.00,0.3628
650.00,0.3630
649.00,0.3635
648.00,0.3642
647.00,0.3651
646.00,0.3661
645.00,0.3672
644.00,0.3684
643.00,0.3700
642.00,0.3719
641.00,0.3738
640.00,0.3753
639.00,0.3764
638.00,0.3770
637.00,0.3774
636.00,0.3776
635.00,0.3781
634.00,0.3787
633.00,0.3794
632.00,0.3802
631.00,0.3810
630.00,0.3821
629.00,0.3836
628.00,0.3854
627.00,0.3872
626.00,0.3888
625.00,0.3901
624.00,0.3910
623.00,0.3919
622.00,0.3927
621.00,0.3935
620.00,0.3941
619.00,0.3945
618.00,0.3945
617.00,0.3944
616.00,0.3941
615.00,0.3936
614.00,0.3927
613.00,0.3913
612.00,0.3895
611.00,0.3877
610.00,0.3862
609.00,0.3849
608.00,0.3837
607.00,0.3825
606.00,0.3812
605.00,0.3801
604.00,0.3793
603.00,0.3791
602.00,0.3794
601.00,0.3797
600.00,0.3798
599.00,0.3801
598.00,0.3809
597.00,0.3821
596.00,0.3838
595.00,0.3859
594.00,0.3883
593.00,0.3908
592.00,0.3932
591.00,0.3953
590.00,0.3974
589.00,0.3995
588.00,0.4017
587.00,0.4039
586.00,0.4061
585.00,0.4086
584.00,0.4113
583.00,0.4141
582.00,0.4166
581.00,0.4188
580.00,0.4210
579.00,0.4232
578.00,0.4252
577.00,0.4268
576.00,0.4286
575.00,0.4311
574.00,0.4339
573.00,0.4366
572.00,0.4390
571.00,0.4414
570.00,0.4440
569.00,0.4467
568.00,0.4496
567.00,0.4527
566.00,0.4558
565.00,0.4586
564.00,0.4612
563.00,0.4637
562.00,0.4656
561.00,0.4668
560.00,0.4678
559.00,0.4690
558.00,0.4704
557.00,0.4717
556.00,0.4725
555.00,0.4729
554.00,0.4729
553.00,0.4724
552.00,0.4719
551.00,0.4720
550.00,0.4725
