Created as New Dataset,
cm-1,A
4000.00,0.3026
3999.00,0.3023
3998.00,0.3020
3997.00,0.3016
3996.00,0.3013
3995.00,0.3010
3994.00,0.3007
3993.00,0.3004
3992.00,0.3001
3991.00,0.2997
3990.00,0.2993
3989.00,0.2989
3988.00,0.2985
3987.00,0.2981
3986.00,0.2977
3985.00,0.2972
3984.00,0.2968
3983.00,0.2964
3982.00,0.2960
3981.00,0.2956
3980.00,0.2952
3979.00,0.2949
3978.00,0.2946
3977.00,0.2944
3976.00,0.2942
3975.00,0.2940
3974.00,0.2938
3973.00,0.2936
3972.00,0.2933
3971.00,0.2930
3970.00,0.2928
3969.00,0.2926
3968.00,0.2925
3967.00,0.2923
3966.00,0.2922
3965.00,0.2920
3964.00,0.2919
3963.00,0.2918
3962.00,0.2917
3961.00,0.2916
3960.00,0.2915
3959.00,0.2914
3958.00,0.2912
3957.00,0.2911
3956.00,0.2910
3955.00,0.2909
3954.00,0.2907
3953.00,0.2906
3952.00,0.2904
3951.00,0.2902
3950.00,0.2900
3949.00,0.2897
3948.00,0.2895
3947.00,0.2892
3946.00,0.2890
3945.00,0.2888
3944.00,0.2887
3943.00,0.2885
3942.00,0.2883
3941.00,0.2882
3940.00,0.2881
3939.00,0.2880
3938.00,0.2879
3937.00,0.2879
3936.00,0.2878
3935.00,0.2878
3934.00,0.2878
3933.00,0.2879
3932.00,0.2879
3931.00,0.2880
3930.00,0.2880
3929.00,0.2880
3928.00,0.2881
3927.00,0.2881
3926.00,0.2881
3925.00,0.2881
3924.00,0.2881
3923.00,0.2882
3922.00,0.2882
3921.00,0.2882
3920.00,0.2882
3919.00,0.2881
3918.00,0.2880
3917.00,0.2879
3916.00,0.2878
3915.00,0.2877
3914.00,0.2876
3913.00,0.2874
3912.00,0.2873
3911.00,0.2872
3910.00,0.2872
3909.00,0.2872
3908.00,0.2873
3907.00,0.2874
3906.00,0.2875
3905.00,0.2876
3904.00,0.2877
3903.00,0.2878
3902.00,0.2880
3901.00,0.2881
3900.00,0.2880
3899.00,0.2879
3898.00,0.2878
3897.00,0.2877
3896.00,0.2876
3895.00,0.2875
3894.00,0.2874
3893.00,0.2873
3892.00,0.2872
3891.00,0.2871
3890.00,0.2871
3889.00,0.2871
3888.00,0.2872
3887.00,0.2871
3886.00,0.2870
3885.00,0.2869
3884.00,0.2869
3883.00,0.2869
3882.00,0.2868
3881.00,0.2866
3880.00,0.2865
3879.00,0.2863
3878.00,0.2862
3877.00,0.2861
3876.00,0.2859
3875.00,0.2858
3874.00,0.2858
3873.00,0.2858
3872.00,0.2857
3871.00,0.2857
3870.00,0.2856
3869.00,0.2856
3868.00,0.2855
3867.00,0.2855
3866.00,0.2854
3865.00,0.2853
3864.00,0.2851
3863.00,0.2849
3862.00,0.2847
3861.00,0.2845
3860.00,0.2844
3859.00,0.2844
3858.00,0.2846
3857.00,0.2847
3856.00,0.2848
3855.00,0.2849
3854.00,0.2849
3853.00,0.2850
3852.00,0.2851
3851.00,0.2850
3850.00,0.2847
3849.00,0.2843
3848.00,0.2839
3847.00,0.2835
3846.00,0.2833
3845.00,0.2831
3844.00,0.2831
3843.00,0.2832
3842.00,0.2834
3841.00,0.2836
3840.00,0.2837
3839.00,0.2838
3838.00,0.2839
3837.00,0.2839
3836.00,0.2838
3835.00,0.2837
3834.00,0.2835
3833.00,0.2832
3832.00,0.2829
3831.00,0.2827
3830.00,0.2825
3829.00,0.2824
3828.00,0.2822
3827.00,0.2821
3826.00,0.2821
3825.00,0.2822
3824.00,0.2822
3823.00,0.2822
3822.00,0.2822
3821.00,0.2822
3820.00,0.2822
3819.00,0.2822
3818.00,0.2821
3817.00,0.2818
3816.00,0.2814
3815.00,0.2810
3814.00,0.2806
3813.00,0.2802
3812.00,0.2798
3811.00,0.2796
3810.00,0.2794
3809.00,0.2793
3808.00,0.2791
3807.00,0.2791
3806.00,0.2791
3805.00,0.2791
3804.00,0.2791
3803.00,0.2790
3802.00,0.2789
3801.00,0.2788
3800.00,0.2787
3799.00,0.2785
3798.00,0.2782
3797.00,0.2779
3796.00,0.2776
3795.00,0.2773
3794.00,0.2769
3793.00,0.2766
3792.00,0.2763
3791.00,0.2761
3790.00,0.2759
3789.00,0.2757
3788.00,0.2755
3787.00,0.2753
3786.00,0.2751
3785.00,0.2750
3784.00,0.2749
3783.00,0.2748
3782.00,0.2747
3781.00,0.2745
3780.00,0.2743
3779.00,0.2740
3778.00,0.2738
3777.00,0.2736
3776.00,0.2734
3775.00,0.2732
3774.00,0.2731
3773.00,0.2730
3772.00,0.2729
3771.00,0.2728
3770.00,0.2728
3769.00,0.2728
3768.00,0.2729
3767.00,0.2728
3766.00,0.2726
3765.00,0.2725
3764.00,0.2723
3763.00,0.2722
3762.00,0.2721
3761.00,0.2720
3760.00,0.2718
3759.00,0.2716
3758.00,0.2714
3757.00,0.2713
3756.00,0.2712
3755.00,0.2712
3754.00,0.2711
3753.00,0.2711
3752.00,0.2710
3751.00,0.2710
3750.00,0.2711
3749.00,0.2712
3748.00,0.2713
3747.00,0.2712
3746.00,0.2709
3745.00,0.2704
3744.00,0.2701
3743.00,0.2699
3742.00,0.2697
3741.00,0.2694
3740.00,0.2692
3739.00,0.2690
3738.00,0.2689
3737.00,0.2688
3736.00,0.2688
3735.00,0.2687
3734.00,0.2686
3733.00,0.2685
3732.00,0.2683
3731.00,0.2682
3730.00,0.2680
3729.00,0.2677
3728.00,0.2675
3727.00,0.2672
3726.00,0.2671
3725.00,0.2670
3724.00,0.2668
3723.00,0.2667
3722.00,0.2665
3721.00,0.2662
3720.00,0.2659
3719.00,0.2656
3718.00,0.2653
3717.00,0.2651
3716.00,0.2650
3715.00,0.2650
3714.00,0.2651
3713.00,0.2651
3712.00,0.2653
3711.00,0.2653
3710.00,0.2653
3709.00,0.2652
3708.00,0.2650
3707.00,0.2648
3706.00,0.2646
3705.00,0.2644
3704.00,0.2643
3703.00,0.2643
3702.00,0.2643
3701.00,0.2643
3700.00,0.2644
3699.00,0.2643
3698.00,0.2643
3697.00,0.2643
3696.00,0.2643
3695.00,0.2644
3694.00,0.2646
3693.00,0.2649
3692.00,0.2652
3691.00,0.2655
3690.00,0.2656
3689.00,0.2657
3688.00,0.2657
3687.00,0.2657
3686.00,0.2656
3685.00,0.2654
3684.00,0.2652
3683.00,0.2650
3682.00,0.2648
3681.00,0.2648
3680.00,0.2648
3679.00,0.2650
3678.00,0.2652
3677.00,0.2653
3676.00,0.2653
3675.00,0.2654
3674.00,0.2655
3673.00,0.2655
3672.00,0.2654
3671.00,0.2652
3670.00,0.2651
3669.00,0.2650
3668.00,0.2649
3667.00,0.2648
3666.00,0.2647
3665.00,0.2646
3664.00,0.2645
3663.00,0.2646
3662.00,0.2647
3661.00,0.2650
3660.00,0.2653
3659.00,0.2656
3658.00,0.2659
3657.00,0.2662
3656.00,0.2666
3655.00,0.2670
3654.00,0.2674
3653.00,0.2679
3652.00,0.2684
3651.00,0.2688
3650.00,0.2693
3649.00,0.2697
3648.00,0.2700
3647.00,0.2701
3646.00,0.2701
3645.00,0.2701
3644.00,0.2701
3643.00,0.2701
3642.00,0.2703
3641.00,0.2706
3640.00,0.2709
3639.00,0.2714
3638.00,0.2719
3637.00,0.2724
3636.00,0.2730
3635.00,0.2736
3634.00,0.2742
3633.00,0.2749
3632.00,0.2757
3631.00,0.2768
3630.00,0.2782
3629.00,0.2798
3628.00,0.2816
3627.00,0.2830
3626.00,0.2840
3625.00,0.2847
3624.00,0.2849
3623.00,0.2848
3622.00,0.2844
3621.00,0.2838
3620.00,0.2830
3619.00,0.2821
3618.00,0.2812
3617.00,0.2806
3616.00,0.2801
3615.00,0.2797
3614.00,0.2796
3613.00,0.2795
3612.00,0.2796
3611.00,0.2797
3610.00,0.2798
3609.00,0.2800
3608.00,0.2800
3607.00,0.2801
3606.00,0.2801
3605.00,0.2800
3604.00,0.2799
3603.00,0.2798
3602.00,0.2797
3601.00,0.2795
3600.00,0.2793
3599.00,0.2790
3598.00,0.2787
3597.00,0.2784
3596.00,0.2780
3595.00,0.2777
3594.00,0.2774
3593.00,0.2772
3592.00,0.2772
3591.00,0.2772
3590.00,0.2773
3589.00,0.2774
3588.00,0.2775
3587.00,0.2775
3586.00,0.2775
3585.00,0.2776
3584.00,0.2776
3583.00,0.2776
3582.00,0.2776
3581.00,0.2776
3580.00,0.2776
3579.00,0.2777
3578.00,0.2779
3577.00,0.2781
3576.00,0.2783
3575.00,0.2785
3574.00,0.2787
3573.00,0.2790
3572.00,0.2793
3571.00,0.2796
3570.00,0.2800
3569.00,0.2804
3568.00,0.2808
3567.00,0.2813
3566.00,0.2818
3565.00,0.2822
3564.00,0.2826
3563.00,0.2829
3562.00,0.2831
3561.00,0.2833
3560.00,0.2836
3559.00,0.2840
3558.00,0.2845
3557.00,0.2851
3556.00,0.2857
3555.00,0.2863
3554.00,0.2869
3553.00,0.2875
3552.00,0.2881
3551.00,0.2887
3550.00,0.2893
3549.00,0.2900
3548.00,0.2906
3547.00,0.2912
3546.00,0.2918
3545.00,0.2924
3544.00,0.2929
3543.00,0.2935
3542.00,0.2941
3541.00,0.2946
3540.00,0.2952
3539.00,0.2958
3538.00,0.2964
3537.00,0.2971
3536.00,0.2976
3535.00,0.2982
3534.00,0.2987
3533.00,0.2993
3532.00,0.2999
3531.00,0.3005
3530.00,0.3012
3529.00,0.3019
3528.00,0.3026
3527.00,0.3033
3526.00,0.3040
3525.00,0.3046
3524.00,0.3053
3523.00,0.3060
3522.00,0.3067
3521.00,0.3075
3520.00,0.3082
3519.00,0.3090
3518.00,0.3097
3517.00,0.3105
3516.00,0.3112
3515.00,0.3119
3514.00,0.3126
3513.00,0.3134
3512.00,0.3142
3511.00,0.3150
3510.00,0.3158
3509.00,0.3166
3508.00,0.3174
3507.00,0.3182
3506.00,0.3190
3505.00,0.3199
3504.00,0.3208
3503.00,0.3216
3502.00,0.3225
3501.00,0.3234
3500.00,0.3242
3499.00,0.3249
3498.00,0.3258
3497.00,0.3266
3496.00,0.3276
3495.00,0.3286
3494.00,0.3295
3493.00,0.3305
3492.00,0.3315
3491.00,0.3325
3490.00,0.3335
3489.00,0.3346
3488.00,0.3357
3487.00,0.3367
3486.00,0.3378
3485.00,0.3387
3484.00,0.3397
3483.00,0.3406
3482.00,0.3415
3481.00,0.3424
3480.00,0.3432
3479.00,0.3441
3478.00,0.3449
3477.00,0.3457
3476.00,0.3466
3475.00,0.3475
3474.00,0.3484
3473.00,0.3493
3472.00,0.3502
3471.00,0.3511
3470.00,0.3521
3469.00,0.3531
3468.00,0.3540
3467.00,0.3550
3466.00,0.3559
3465.00,0.3569
3464.00,0.3579
3463.00,0.3590
3462.00,0.3601
3461.00,0.3612
3460.00,0.3622
3459.00,0.3633
3458.00,0.3643
3457.00,0.3654
3456.00,0.3665
3455.00,0.3676
3454.00,0.3687
3453.00,0.3699
3452.00,0.3712
3451.00,0.3725
3450.00,0.3738
3449.00,0.3751
3448.00,0.3764
3447.00,0.3778
3446.00,0.3790
3445.00,0.3803
3444.00,0.3815
3443.00,0.3827
3442.00,0.3839
3441.00,0.3852
3440.00,0.3865
3439.00,0.3879
3438.00,0.3892
3437.00,0.3905
3436.00,0.3918
3435.00,0.3931
3434.00,0.3944
3433.00,0.3958
3432.00,0.3971
3431.00,0.3983
3430.00,0.3996
3429.00,0.4010
3428.00,0.4025
3427.00,0.4041
3426.00,0.4056
3425.00,0.4071
3424.00,0.4085
3423.00,0.4099
3422.00,0.4114
3421.00,0.4129
3420.00,0.4145
3419.00,0.4160
3418.00,0.4175
3417.00,0.4191
3416.00,0.4207
3415.00,0.4223
3414.00,0.4239
3413.00,0.4256
3412.00,0.4272
3411.00,0.4289
3410.00,0.4305
3409.00,0.4322
3408.00,0.4338
3407.00,0.4354
3406.00,0.4370
3405.00,0.4387
3404.00,0.4404
3403.00,0.4422
3402.00,0.4439
3401.00,0.4456
3400.00,0.4475
3399.00,0.4493
3398.00,0.4510
3397.00,0.4528
3396.00,0.4546
3395.00,0.4564
3394.00,0.4582
3393.00,0.4600
3392.00,0.4617
3391.00,0.4635
3390.00,0.4653
3389.00,0.4672
3388.00,0.4692
3387.00,0.4711
3386.00,0.4730
3385.00,0.4749
3384.00,0.4768
3383.00,0.4786
3382.00,0.4806
3381.00,0.4825
3380.00,0.4845
3379.00,0.4866
3378.00,0.4886
3377.00,0.4907
3376.00,0.4927
3375.00,0.4948
3374.00,0.4969
3373.00,0.4991
3372.00,0.5013
3371.00,0.5035
3370.00,0.5057
3369.00,0.5080
3368.00,0.5103
3367.00,0.5126
3366.00,0.5149
3365.00,0.5172
3364.00,0.5196
3363.00,0.5220
3362.00,0.5244
3361.00,0.5269
3360.00,0.5294
3359.00,0.5319
3358.00,0.5344
3357.00,0.5369
3356.00,0.5394
3355.00,0.5419
3354.00,0.5443
3353.00,0.5469
3352.00,0.5494
3351.00,0.5520
3350.00,0.5545
3349.00,0.5570
3348.00,0.5595
3347.00,0.5619
3346.00,0.5643
3345.00,0.5666
3344.00,0.5689
3343.00,0.5712
3342.00,0.5734
3341.00,0.5756
3340.00,0.5777
3339.00,0.5796
3338.00,0.5813
3337.00,0.5830
3336.00,0.5846
3335.00,0.5863
3334.00,0.5879
3333.00,0.5894
3332.00,0.5908
3331.00,0.5921
3330.00,0.5933
3329.00,0.5944
3328.00,0.5955
3327.00,0.5964
3326.00,0.5972
3325.00,0.5979
3324.00,0.5986
3323.00,0.5992
3322.00,0.5997
3321.00,0.6000
3320.00,0.6003
3319.00,0.6005
3318.00,0.6006
3317.00,0.6008
3316.00,0.6009
3315.00,0.6010
3314.00,0.6009
3313.00,0.6009
3312.00,0.6008
3311.00,0.6007
3310.00,0.6006
3309.00,0.6004
3308.00,0.6003
3307.00,0.6000
3306.00,0.5998
3305.00,0.5995
3304.00,0.5992
3303.00,0.5987
3302.00,0.5983
3301.00,0.5979
3300.00,0.5975
3299.00,0.5972
3298.00,0.5969
3297.00,0.5965
3296.00,0.5961
3295.00,0.5958
3294.00,0.5955
3293.00,0.5952
3292.00,0.5950
3291.00,0.5947
3290.00,0.5943
3289.00,0.5940
3288.00,0.5937
3287.00,0.5936
3286.00,0.5935
3285.00,0.5935
3284.00,0.5935
3283.00,0.5935
3282.00,0.5936
3281.00,0.5937
3280.00,0.5937
3279.00,0.5938
3278.00,0.5939
3277.00,0.5941
3276.00,0.5944
3275.00,0.5948
3274.00,0.5950
3273.00,0.5953
3272.00,0.5956
3271.00,0.5959
3270.00,0.5962
3269.00,0.5965
3268.00,0.5968
3267.00,0.5971
3266.00,0.5974
3265.00,0.5977
3264.00,0.5981
3263.00,0.5985
3262.00,0.5988
3261.00,0.5992
3260.00,0.5996
3259.00,0.6000
3258.00,0.6005
3257.00,0.6010
3256.00,0.6014
3255.00,0.6017
3254.00,0.6021
3253.00,0.6024
3252.00,0.6026
3251.00,0.6027
3250.00,0.6029
3249.00,0.6030
3248.00,0.6032
3247.00,0.6034
3246.00,0.6034
3245.00,0.6035
3244.00,0.6035
3243.00,0.6035
3242.00,0.6034
3241.00,0.6033
3240.00,0.6031
3239.00,0.6030
3238.00,0.6028
3237.00,0.6025
3236.00,0.6023
3235.00,0.6020
3234.00,0.6016
3233.00,0.6012
3232.00,0.6007
3231.00,0.6001
3230.00,0.5994
3229.00,0.5987
3228.00,0.5981
3227.00,0.5974
3226.00,0.5967
3225.00,0.5960
3224.00,0.5952
3223.00,0.5945
3222.00,0.5937
3221.00,0.5930
3220.00,0.5922
3219.00,0.5914
3218.00,0.5905
3217.00,0.5897
3216.00,0.5887
3215.00,0.5878
3214.00,0.5868
3213.00,0.5858
3212.00,0.5848
3211.00,0.5838
3210.00,0.5828
3209.00,0.5817
3208.00,0.5805
3207.00,0.5794
3206.00,0.5783
3205.00,0.5772
3204.00,0.5761
3203.00,0.5749
3202.00,0.5737
3201.00,0.5725
3200.00,0.5712
3199.00,0.5699
3198.00,0.5685
3197.00,0.5671
3196.00,0.5657
3195.00,0.5642
3194.00,0.5628
3193.00,0.5614
3192.00,0.5599
3191.00,0.5584
3190.00,0.5569
3189.00,0.5554
3188.00,0.5537
3187.00,0.5520
3186.00,0.5502
3185.00,0.5485
3184.00,0.5468
3183.00,0.5451
3182.00,0.5433
3181.00,0.5415
3180.00,0.5397
3179.00,0.5378
3178.00,0.5359
3177.00,0.5340
3176.00,0.5321
3175.00,0.5303
3174.00,0.5284
3173.00,0.5266
3172.00,0.5246
3171.00,0.5227
3170.00,0.5207
3169.00,0.5188
3168.00,0.5168
3167.00,0.5147
3166.00,0.5127
3165.00,0.5107
3164.00,0.5087
3163.00,0.5068
3162.00,0.5049
3161.00,0.5030
3160.00,0.5011
3159.00,0.4991
3158.00,0.4972
3157.00,0.4953
3156.00,0.4935
3155.00,0.4917
3154.00,0.4898
3153.00,0.4878
3152.00,0.4860
3151.00,0.4842
3150.00,0.4824
3149.00,0.4807
3148.00,0.4791
3147.00,0.4775
3146.00,0.4758
3145.00,0.4743
3144.00,0.4727
3143.00,0.4711
3142.00,0.4696
3141.00,0.4681
3140.00,0.4666
3139.00,0.4652
3138.00,0.4639
3137.00,0.4626
3136.00,0.4613
3135.00,0.4601
3134.00,0.4588
3133.00,0.4576
3132.00,0.4564
3131.00,0.4553
3130.00,0.4543
3129.00,0.4533
3128.00,0.4523
3127.00,0.4514
3126.00,0.4505
3125.00,0.4496
3124.00,0.4489
3123.00,0.4482
3122.00,0.4475
3121.00,0.4469
3120.00,0.4462
3119.00,0.4457
3118.00,0.4451
3117.00,0.4447
3116.00,0.4442
3115.00,0.4439
3114.00,0.4435
3113.00,0.4433
3112.00,0.4431
3111.00,0.4429
3110.00,0.4428
3109.00,0.4428
3108.00,0.4428
3107.00,0.4428
3106.00,0.4429
3105.00,0.4431
3104.00,0.4433
3103.00,0.4435
3102.00,0.4438
3101.00,0.4442
3100.00,0.4445
3099.00,0.4449
3098.00,0.4453
3097.00,0.4459
3096.00,0.4467
3095.00,0.4476
3094.00,0.4486
3093.00,0.4498
3092.00,0.4510
3091.00,0.4523
3090.00,0.4538
3089.00,0.4553
3088.00,0.4571
3087.00,0.4590
3086.00,0.4609
3085.00,0.4630
3084.00,0.4652
3083.00,0.4675
3082.00,0.4699
3081.00,0.4725
3080.00,0.4754
3079.00,0.4784
3078.00,0.4816
3077.00,0.4849
3076.00,0.4884
3075.00,0.4920
3074.00,0.4956
3073.00,0.4992
3072.00,0.5028
3071.00,0.5064
3070.00,0.5100
3069.00,0.5135
3068.00,0.5169
3067.00,0.5202
3066.00,0.5234
3065.00,0.5264
3064.00,0.5292
3063.00,0.5317
3062.00,0.5340
3061.00,0.5363
3060.00,0.5384
3059.00,0.5406
3058.00,0.5428
3057.00,0.5450
3056.00,0.5475
3055.00,0.5502
3054.00,0.5531
3053.00,0.5562
3052.00,0.5596
3051.00,0.5632
3050.00,0.5669
3049.00,0.5709
3048.00,0.5751
3047.00,0.5796
3046.00,0.5841
3045.00,0.5887
3044.00,0.5933
3043.00,0.5978
3042.00,0.6022
3041.00,0.6066
3040.00,0.6111
3039.00,0.6157
3038.00,0.6203
3037.00,0.6252
3036.00,0.6303
3035.00,0.6357
3034.00,0.6414
3033.00,0.6475
3032.00,0.6539
3031.00,0.6608
3030.00,0.6682
3029.00,0.6760
3028.00,0.6844
3027.00,0.6931
3026.00,0.7023
3025.00,0.7119
3024.00,0.7219
3023.00,0.7323
3022.00,0.7433
3021.00,0.7547
3020.00,0.7665
3019.00,0.7787
3018.00,0.7911
3017.00,0.8037
3016.00,0.8164
3015.00,0.8294
3014.00,0.8426
3013.00,0.8564
3012.00,0.8707
3011.00,0.8859
3010.00,0.9019
3009.00,0.9189
3008.00,0.9368
3007.00,0.9556
3006.00,0.9754
3005.00,0.9961
3004.00,1.0175
3003.00,1.0395
3002.00,1.0624
3001.00,1.0862
3000.00,1.1112
2999.00,1.1377
2998.00,1.1660
2997.00,1.1965
2996.00,1.2295
2995.00,1.2652
2994.00,1.3043
2993.00,1.3474
2992.00,1.3950
2991.00,1.4476
2990.00,1.5054
2989.00,1.5692
2988.00,1.6399
2987.00,1.7182
2986.00,1.8049
2985.00,1.9004
2984.00,2.0057
2983.00,2.1218
2982.00,2.2487
2981.00,2.3850
2980.00,2.5296
2979.00,2.6842
2978.00,2.8516
2977.00,3.0324
2976.00,3.2268
2975.00,3.4317
2974.00,3.6049
2973.00,3.6804
2972.00,3.7077
2971.00,3.7879
2970.00,3.9326
2969.00,4.0143
2968.00,3.9637
2967.00,3.9172
2966.00,3.9490
2965.00,4.0457
2964.00,4.0958
2963.00,4.0437
2962.00,3.9933
2961.00,4.0250
2960.00,4.1506
2959.00,4.1431
2958.00,3.9484
2957.00,3.7957
2956.00,3.7587
2955.00,3.8253
2954.00,3.9134
2953.00,3.9495
2952.00,3.8721
2951.00,3.7515
2950.00,3.6937
2949.00,3.7289
2948.00,3.8340
2947.00,3.9694
2946.00,4.1300
2945.00,4.1800
2944.00,4.1227
2943.00,4.0910
2942.00,4.1230
2941.00,4.1613
2940.00,4.1643
2939.00,4.3133
2938.00,4.6497
2937.00,4.9474
2936.00,5.0756
2935.00,4.7101
2934.00,4.2906
2933.00,4.0032
2932.00,3.8715
2931.00,3.8673
2930.00,4.0462
2929.00,4.3485
2928.00,4.2634
2927.00,4.0735
2926.00,3.9909
2925.00,4.0340
2924.00,4.0663
2923.00,4.0826
2922.00,4.2814
2921.00,4.5145
2920.00,4.2551
2919.00,4.0547
2918.00,4.0837
2917.00,4.2675
2916.00,4.0843
2915.00,3.8697
2914.00,3.8448
2913.00,3.9567
2912.00,4.1388
2911.00,4.3399
2910.00,4.3306
2909.00,4.3117
2908.00,4.3844
2907.00,4.2834
2906.00,4.1302
2905.00,4.0233
2904.00,4.0424
2903.00,4.0542
2902.00,3.9633
2901.00,3.8286
2900.00,3.7548
2899.00,3.8397
2898.00,4.0770
2897.00,4.2683
2896.00,4.2313
2895.00,4.1315
2894.00,4.0315
2893.00,3.9888
2892.00,3.9586
2891.00,4.0477
2890.00,4.2316
2889.00,4.1161
2888.00,3.9682
2887.00,3.9820
2886.00,4.2407
2885.00,4.2121
2884.00,3.9450
2883.00,3.8349
2882.00,3.8721
2881.00,3.9309
2880.00,3.8961
2879.00,3.8888
2878.00,4.0052
2877.00,4.2795
2876.00,4.6082
2875.00,4.7702
2874.00,4.5219
2873.00,4.3532
2872.00,4.2609
2871.00,4.1750
2870.00,3.9975
2869.00,3.8815
2868.00,3.8884
2867.00,3.9353
2866.00,3.9548
2865.00,3.9273
2864.00,3.9421
2863.00,4.0656
2862.00,4.2796
2861.00,4.3163
2860.00,4.0785
2859.00,3.9098
2858.00,3.8634
2857.00,3.9111
2856.00,4.0308
2855.00,4.2471
2854.00,4.5012
2853.00,4.4494
2852.00,4.2145
2851.00,4.1010
2850.00,4.0661
2849.00,4.0614
2848.00,4.0775
2847.00,4.1385
2846.00,4.2855
2845.00,4.2990
2844.00,4.1210
2843.00,3.9956
2842.00,3.9893
2841.00,4.0311
2840.00,3.9978
2839.00,3.8330
2838.00,3.5675
2837.00,3.2967
2836.00,3.0640
2835.00,2.8633
2834.00,2.6787
2833.00,2.5042
2832.00,2.3410
2831.00,2.1921
2830.00,2.0589
2829.00,1.9410
2828.00,1.8371
2827.00,1.7450
2826.00,1.6620
2825.00,1.5865
2824.00,1.5177
2823.00,1.4552
2822.00,1.3984
2821.00,1.3463
2820.00,1.2984
2819.00,1.2544
2818.00,1.2138
2817.00,1.1760
2816.00,1.1407
2815.00,1.1079
2814.00,1.0773
2813.00,1.0486
2812.00,1.0214
2811.00,0.9956
2810.00,0.9709
2809.00,0.9475
2808.00,0.9254
2807.00,0.9046
2806.00,0.8850
2805.00,0.8665
2804.00,0.8489
2803.00,0.8321
2802.00,0.8160
2801.00,0.8007
2800.00,0.7861
2799.00,0.7722
2798.00,0.7590
2797.00,0.7464
2796.00,0.7342
2795.00,0.7224
2794.00,0.7109
2793.00,0.6997
2792.00,0.6889
2791.00,0.6782
2790.00,0.6678
2789.00,0.6577
2788.00,0.6479
2787.00,0.6383
2786.00,0.6290
2785.00,0.6199
2784.00,0.6111
2783.00,0.6026
2782.00,0.5943
2781.00,0.5863
2780.00,0.5786
2779.00,0.5713
2778.00,0.5644
2777.00,0.5579
2776.00,0.5516
2775.00,0.5457
2774.00,0.5402
2773.00,0.5350
2772.00,0.5301
2771.00,0.5255
2770.00,0.5213
2769.00,0.5174
2768.00,0.5138
2767.00,0.5106
2766.00,0.5077
2765.00,0.5052
2764.00,0.5030
2763.00,0.5012
2762.00,0.4995
2761.00,0.4980
2760.00,0.4967
2759.00,0.4954
2758.00,0.4942
2757.00,0.4930
2756.00,0.4919
2755.00,0.4908
2754.00,0.4899
2753.00,0.4891
2752.00,0.4885
2751.00,0.4881
2750.00,0.4879
2749.00,0.4878
2748.00,0.4879
2747.00,0.4883
2746.00,0.4888
2745.00,0.4897
2744.00,0.4909
2743.00,0.4924
2742.00,0.4943
2741.00,0.4965
2740.00,0.4992
2739.00,0.5023
2738.00,0.5059
2737.00,0.5101
2736.00,0.5148
2735.00,0.5200
2734.00,0.5254
2733.00,0.5308
2732.00,0.5357
2731.00,0.5399
2730.00,0.5431
2729.00,0.5453
2728.00,0.5464
2727.00,0.5466
2726.00,0.5461
2725.00,0.5450
2724.00,0.5434
2723.00,0.5414
2722.00,0.5390
2721.00,0.5361
2720.00,0.5326
2719.00,0.5287
2718.00,0.5244
2717.00,0.5198
2716.00,0.5150
2715.00,0.5100
2714.00,0.5050
2713.00,0.5002
2712.00,0.4956
2711.00,0.4915
2710.00,0.4877
2709.00,0.4845
2708.00,0.4817
2707.00,0.4792
2706.00,0.4772
2705.00,0.4755
2704.00,0.4741
2703.00,0.4729
2702.00,0.4721
2701.00,0.4714
2700.00,0.4710
2699.00,0.4708
2698.00,0.4708
2697.00,0.4709
2696.00,0.4712
2695.00,0.4715
2694.00,0.4720
2693.00,0.4726
2692.00,0.4732
2691.00,0.4738
2690.00,0.4745
2689.00,0.4751
2688.00,0.4757
2687.00,0.4763
2686.00,0.4767
2685.00,0.4771
2684.00,0.4774
2683.00,0.4777
2682.00,0.4780
2681.00,0.4783
2680.00,0.4787
2679.00,0.4792
2678.00,0.4798
2677.00,0.4804
2676.00,0.4811
2675.00,0.4818
2674.00,0.4824
2673.00,0.4830
2672.00,0.4835
2671.00,0.4839
2670.00,0.4839
2669.00,0.4836
2668.00,0.4830
2667.00,0.4820
2666.00,0.4807
2665.00,0.4793
2664.00,0.4777
2663.00,0.4761
2662.00,0.4743
2661.00,0.4724
2660.00,0.4703
2659.00,0.4680
2658.00,0.4658
2657.00,0.4636
2656.00,0.4614
2655.00,0.4594
2654.00,0.4574
2653.00,0.4554
2652.00,0.4536
2651.00,0.4519
2650.00,0.4502
2649.00,0.4485
2648.00,0.4469
2647.00,0.4453
2646.00,0.4438
2645.00,0.4424
2644.00,0.4410
2643.00,0.4398
2642.00,0.4387
2641.00,0.4377
2640.00,0.4368
2639.00,0.4359
2638.00,0.4350
2637.00,0.4341
2636.00,0.4332
2635.00,0.4323
2634.00,0.4314
2633.00,0.4305
2632.00,0.4296
2631.00,0.4287
2630.00,0.4277
2629.00,0.4267
2628.00,0.4258
2627.00,0.4248
2626.00,0.4239
2625.00,0.4229
2624.00,0.4219
2623.00,0.4208
2622.00,0.4198
2621.00,0.4188
2620.00,0.4178
2619.00,0.4168
2618.00,0.4158
2617.00,0.4149
2616.00,0.4139
2615.00,0.4128
2614.00,0.4117
2613.00,0.4106
2612.00,0.4095
2611.00,0.4084
2610.00,0.4073
2609.00,0.4062
2608.00,0.4051
2607.00,0.4040
2606.00,0.4030
2605.00,0.4019
2604.00,0.4009
2603.00,0.3999
2602.00,0.3989
2601.00,0.3978
2600.00,0.3967
2599.00,0.3954
2598.00,0.3940
2597.00,0.3926
2596.00,0.3911
2595.00,0.3895
2594.00,0.3879
2593.00,0.3863
2592.00,0.3846
2591.00,0.3829
2590.00,0.3811
2589.00,0.3794
2588.00,0.3776
2587.00,0.3759
2586.00,0.3742
2585.00,0.3725
2584.00,0.3707
2583.00,0.3688
2582.00,0.3669
2581.00,0.3649
2580.00,0.3630
2579.00,0.3611
2578.00,0.3592
2577.00,0.3574
2576.00,0.3556
2575.00,0.3539
2574.00,0.3523
2573.00,0.3507
2572.00,0.3492
2571.00,0.3477
2570.00,0.3462
2569.00,0.3447
2568.00,0.3432
2567.00,0.3417
2566.00,0.3403
2565.00,0.3388
2564.00,0.3374
2563.00,0.3359
2562.00,0.3345
2561.00,0.3331
2560.00,0.3318
2559.00,0.3306
2558.00,0.3294
2557.00,0.3282
2556.00,0.3270
2555.00,0.3258
2554.00,0.3245
2553.00,0.3233
2552.00,0.3221
2551.00,0.3209
2550.00,0.3198
2549.00,0.3187
2548.00,0.3177
2547.00,0.3167
2546.00,0.3157
2545.00,0.3148
2544.00,0.3138
2543.00,0.3129
2542.00,0.3121
2541.00,0.3113
2540.00,0.3105
2539.00,0.3098
2538.00,0.3090
2537.00,0.3083
2536.00,0.3076
2535.00,0.3069
2534.00,0.3063
2533.00,0.3056
2532.00,0.3050
2531.00,0.3042
2530.00,0.3034
2529.00,0.3026
2528.00,0.3018
2527.00,0.3009
2526.00,0.3000
2525.00,0.2990
2524.00,0.2981
2523.00,0.2971
2522.00,0.2962
2521.00,0.2953
2520.00,0.2943
2519.00,0.2935
2518.00,0.2926
2517.00,0.2918
2516.00,0.2910
2515.00,0.2902
2514.00,0.2895
2513.00,0.2888
2512.00,0.2881
2511.00,0.2874
2510.00,0.2867
2509.00,0.2860
2508.00,0.2854
2507.00,0.2848
2506.00,0.2843
2505.00,0.2838
2504.00,0.2833
2503.00,0.2829
2502.00,0.2824
2501.00,0.2820
2500.00,0.2817
2499.00,0.2814
2498.00,0.2811
2497.00,0.2809
2496.00,0.2806
2495.00,0.2803
2494.00,0.2800
2493.00,0.2797
2492.00,0.2794
2491.00,0.2791
2490.00,0.2788
2489.00,0.2785
2488.00,0.2781
2487.00,0.2777
2486.00,0.2773
2485.00,0.2770
2484.00,0.2766
2483.00,0.2763
2482.00,0.2759
2481.00,0.2756
2480.00,0.2754
2479.00,0.2751
2478.00,0.2748
2477.00,0.2745
2476.00,0.2741
2475.00,0.2738
2474.00,0.2735
2473.00,0.2732
2472.00,0.2729
2471.00,0.2726
2470.00,0.2723
2469.00,0.2721
2468.00,0.2717
2467.00,0.2714
2466.00,0.2710
2465.00,0.2707
2464.00,0.2704
2463.00,0.2701
2462.00,0.2698
2461.00,0.2696
2460.00,0.2693
2459.00,0.2691
2458.00,0.2689
2457.00,0.2687
2456.00,0.2685
2455.00,0.2684
2454.00,0.2683
2453.00,0.2681
2452.00,0.2680
2451.00,0.2679
2450.00,0.2678
2449.00,0.2677
2448.00,0.2677
2447.00,0.2677
2446.00,0.2677
2445.00,0.2678
2444.00,0.2679
2443.00,0.2679
2442.00,0.2680
2441.00,0.2681
2440.00,0.2682
2439.00,0.2683
2438.00,0.2684
2437.00,0.2686
2436.00,0.2687
2435.00,0.2687
2434.00,0.2688
2433.00,0.2689
2432.00,0.2690
2431.00,0.2691
2430.00,0.2692
2429.00,0.2692
2428.00,0.2693
2427.00,0.2693
2426.00,0.2693
2425.00,0.2694
2424.00,0.2694
2423.00,0.2695
2422.00,0.2696
2421.00,0.2697
2420.00,0.2698
2419.00,0.2698
2418.00,0.2699
2417.00,0.2699
2416.00,0.2699
2415.00,0.2699
2414.00,0.2699
2413.00,0.2700
2412.00,0.2701
2411.00,0.2702
2410.00,0.2702
2409.00,0.2703
2408.00,0.2703
2407.00,0.2702
2406.00,0.2702
2405.00,0.2701
2404.00,0.2701
2403.00,0.2700
2402.00,0.2699
2401.00,0.2698
2400.00,0.2698
2399.00,0.2697
2398.00,0.2696
2397.00,0.2695
2396.00,0.2694
2395.00,0.2693
2394.00,0.2692
2393.00,0.2690
2392.00,0.2689
2391.00,0.2688
2390.00,0.2687
2389.00,0.2686
2388.00,0.2686
2387.00,0.2685
2386.00,0.2685
2385.00,0.2685
2384.00,0.2685
2383.00,0.2686
2382.00,0.2687
2381.00,0.2688
2380.00,0.2689
2379.00,0.2691
2378.00,0.2692
2377.00,0.2693
2376.00,0.2693
2375.00,0.2692
2374.00,0.2691
2373.00,0.2691
2372.00,0.2690
2371.00,0.2689
2370.00,0.2688
2369.00,0.2687
2368.00,0.2686
2367.00,0.2684
2366.00,0.2684
2365.00,0.2685
2364.00,0.2685
2363.00,0.2685
2362.00,0.2686
2361.00,0.2686
2360.00,0.2687
2359.00,0.2687
2358.00,0.2686
2357.00,0.2685
2356.00,0.2683
2355.00,0.2682
2354.00,0.2681
2353.00,0.2681
2352.00,0.2680
2351.00,0.2680
2350.00,0.2679
2349.00,0.2677
2348.00,0.2676
2347.00,0.2675
2346.00,0.2674
2345.00,0.2674
2344.00,0.2673
2343.00,0.2671
2342.00,0.2670
2341.00,0.2669
2340.00,0.2668
2339.00,0.2666
2338.00,0.2665
2337.00,0.2664
2336.00,0.2662
2335.00,0.2661
2334.00,0.2659
2333.00,0.2658
2332.00,0.2657
2331.00,0.2656
2330.00,0.2655
2329.00,0.2654
2328.00,0.2652
2327.00,0.2650
2326.00,0.2647
2325.00,0.2645
2324.00,0.2643
2323.00,0.2640
2322.00,0.2638
2321.00,0.2636
2320.00,0.2633
2319.00,0.2630
2318.00,0.2627
2317.00,0.2624
2316.00,0.2621
2315.00,0.2619
2314.00,0.2616
2313.00,0.2614
2312.00,0.2612
2311.00,0.2608
2310.00,0.2605
2309.00,0.2601
2308.00,0.2598
2307.00,0.2594
2306.00,0.2591
2305.00,0.2588
2304.00,0.2586
2303.00,0.2583
2302.00,0.2580
2301.00,0.2577
2300.00,0.2575
2299.00,0.2572
2298.00,0.2570
2297.00,0.2568
2296.00,0.2566
2295.00,0.2564
2294.00,0.2561
2293.00,0.2559
2292.00,0.2556
2291.00,0.2553
2290.00,0.2550
2289.00,0.2547
2288.00,0.2543
2287.00,0.2540
2286.00,0.2537
2285.00,0.2533
2284.00,0.2531
2283.00,0.2528
2282.00,0.2525
2281.00,0.2522
2280.00,0.2518
2279.00,0.2514
2278.00,0.2510
2277.00,0.2507
2276.00,0.2504
2275.00,0.2501
2274.00,0.2499
2273.00,0.2497
2272.00,0.2495
2271.00,0.2493
2270.00,0.2491
2269.00,0.2489
2268.00,0.2488
2267.00,0.2486
2266.00,0.2484
2265.00,0.2483
2264.00,0.2481
2263.00,0.2479
2262.00,0.2476
2261.00,0.2474
2260.00,0.2472
2259.00,0.2470
2258.00,0.2469
2257.00,0.2467
2256.00,0.2465
2255.00,0.2462
2254.00,0.2458
2253.00,0.2455
2252.00,0.2452
2251.00,0.2449
2250.00,0.2446
2249.00,0.2444
2248.00,0.2441
2247.00,0.2439
2246.00,0.2436
2245.00,0.2434
2244.00,0.2431
2243.00,0.2429
2242.00,0.2427
2241.00,0.2425
2240.00,0.2424
2239.00,0.2422
2238.00,0.2420
2237.00,0.2418
2236.00,0.2417
2235.00,0.2416
2234.00,0.2415
2233.00,0.2414
2232.00,0.2413
2231.00,0.2412
2230.00,0.2411
2229.00,0.2410
2228.00,0.2409
2227.00,0.2408
2226.00,0.2407
2225.00,0.2406
2224.00,0.2405
2223.00,0.2404
2222.00,0.2402
2221.00,0.2401
2220.00,0.2400
2219.00,0.2399
2218.00,0.2399
2217.00,0.2398
2216.00,0.2398
2215.00,0.2397
2214.00,0.2395
2213.00,0.2394
2212.00,0.2394
2211.00,0.2394
2210.00,0.2393
2209.00,0.2393
2208.00,0.2392
2207.00,0.2391
2206.00,0.2391
2205.00,0.2391
2204.00,0.2391
2203.00,0.2391
2202.00,0.2390
2201.00,0.2390
2200.00,0.2390
2199.00,0.2390
2198.00,0.2390
2197.00,0.2390
2196.00,0.2391
2195.00,0.2391
2194.00,0.2391
2193.00,0.2391
2192.00,0.2391
2191.00,0.2390
2190.00,0.2390
2189.00,0.2390
2188.00,0.2390
2187.00,0.2390
2186.00,0.2389
2185.00,0.2388
2184.00,0.2388
2183.00,0.2387
2182.00,0.2386
2181.00,0.2386
2180.00,0.2385
2179.00,0.2384
2178.00,0.2383
2177.00,0.2382
2176.00,0.2382
2175.00,0.2380
2174.00,0.2379
2173.00,0.2378
2172.00,0.2377
2171.00,0.2377
2170.00,0.2376
2169.00,0.2375
2168.00,0.2374
2167.00,0.2372
2166.00,0.2371
2165.00,0.2369
2164.00,0.2368
2163.00,0.2366
2162.00,0.2364
2161.00,0.2363
2160.00,0.2362
2159.00,0.2360
2158.00,0.2358
2157.00,0.2356
2156.00,0.2353
2155.00,0.2351
2154.00,0.2349
2153.00,0.2347
2152.00,0.2345
2151.00,0.2343
2150.00,0.2341
2149.00,0.2338
2148.00,0.2335
2147.00,0.2331
2146.00,0.2327
2145.00,0.2324
2144.00,0.2319
2143.00,0.2315
2142.00,0.2311
2141.00,0.2308
2140.00,0.2305
2139.00,0.2302
2138.00,0.2299
2137.00,0.2297
2136.00,0.2295
2135.00,0.2293
2134.00,0.2291
2133.00,0.2289
2132.00,0.2287
2131.00,0.2285
2130.00,0.2283
2129.00,0.2281
2128.00,0.2280
2127.00,0.2278
2126.00,0.2276
2125.00,0.2275
2124.00,0.2274
2123.00,0.2272
2122.00,0.2271
2121.00,0.2269
2120.00,0.2268
2119.00,0.2266
2118.00,0.2264
2117.00,0.2263
2116.00,0.2261
2115.00,0.2260
2114.00,0.2259
2113.00,0.2258
2112.00,0.2257
2111.00,0.2255
2110.00,0.2254
2109.00,0.2253
2108.00,0.2252
2107.00,0.2251
2106.00,0.2251
2105.00,0.2251
2104.00,0.2251
2103.00,0.2251
2102.00,0.2251
2101.00,0.2251
2100.00,0.2251
2099.00,0.2251
2098.00,0.2251
2097.00,0.2251
2096.00,0.2252
2095.00,0.2252
2094.00,0.2251
2093.00,0.2251
2092.00,0.2251
2091.00,0.2250
2090.00,0.2249
2089.00,0.2249
2088.00,0.2249
2087.00,0.2249
2086.00,0.2248
2085.00,0.2247
2084.00,0.2246
2083.00,0.2245
2082.00,0.2244
2081.00,0.2243
2080.00,0.2243
2079.00,0.2241
2078.00,0.2240
2077.00,0.2239
2076.00,0.2238
2075.00,0.2238
2074.00,0.2237
2073.00,0.2238
2072.00,0.2238
2071.00,0.2239
2070.00,0.2239
2069.00,0.2239
2068.00,0.2240
2067.00,0.2240
2066.00,0.2240
2065.00,0.2242
2064.00,0.2244
2063.00,0.2247
2062.00,0.2249
2061.00,0.2251
2060.00,0.2252
2059.00,0.2253
2058.00,0.2253
2057.00,0.2254
2056.00,0.2255
2055.00,0.2256
2054.00,0.2257
2053.00,0.2258
2052.00,0.2259
2051.00,0.2260
2050.00,0.2261
2049.00,0.2262
2048.00,0.2263
2047.00,0.2264
2046.00,0.2264
2045.00,0.2265
2044.00,0.2265
2043.00,0.2265
2042.00,0.2264
2041.00,0.2266
2040.00,0.2267
2039.00,0.2269
2038.00,0.2269
2037.00,0.2270
2036.00,0.2270
2035.00,0.2271
2034.00,0.2271
2033.00,0.2272
2032.00,0.2273
2031.00,0.2274
2030.00,0.2275
2029.00,0.2276
2028.00,0.2277
2027.00,0.2278
2026.00,0.2277
2025.00,0.2277
2024.00,0.2275
2023.00,0.2273
2022.00,0.2271
2021.00,0.2268
2020.00,0.2263
2019.00,0.2257
2018.00,0.2250
2017.00,0.2245
2016.00,0.2241
2015.00,0.2238
2014.00,0.2233
2013.00,0.2227
2012.00,0.2222
2011.00,0.2215
2010.00,0.2210
2009.00,0.2205
2008.00,0.2201
2007.00,0.2198
2006.00,0.2195
2005.00,0.2192
2004.00,0.2190
2003.00,0.2187
2002.00,0.2185
2001.00,0.2184
2000.00,0.2183
1999.00,0.2182
1998.00,0.2182
1997.00,0.2181
1996.00,0.2181
1995.00,0.2180
1994.00,0.2177
1993.00,0.2175
1992.00,0.2175
1991.00,0.2176
1990.00,0.2177
1989.00,0.2178
1988.00,0.2179
1987.00,0.2179
1986.00,0.2180
1985.00,0.2180
1984.00,0.2180
1983.00,0.2179
1982.00,0.2178
1981.00,0.2178
1980.00,0.2177
1979.00,0.2176
1978.00,0.2175
1977.00,0.2174
1976.00,0.2174
1975.00,0.2173
1974.00,0.2171
1973.00,0.2171
1972.00,0.2170
1971.00,0.2170
1970.00,0.2169
1969.00,0.2169
1968.00,0.2169
1967.00,0.2169
1966.00,0.2170
1965.00,0.2170
1964.00,0.2169
1963.00,0.2170
1962.00,0.2170
1961.00,0.2171
1960.00,0.2173
1959.00,0.2174
1958.00,0.2176
1957.00,0.2177
1956.00,0.2179
1955.00,0.2181
1954.00,0.2184
1953.00,0.2186
1952.00,0.2188
1951.00,0.2190
1950.00,0.2190
1949.00,0.2190
1948.00,0.2190
1947.00,0.2190
1946.00,0.2190
1945.00,0.2190
1944.00,0.2190
1943.00,0.2192
1942.00,0.2197
1941.00,0.2204
1940.00,0.2209
1939.00,0.2212
1938.00,0.2213
1937.00,0.2213
1936.00,0.2212
1935.00,0.2210
1934.00,0.2209
1933.00,0.2207
1932.00,0.2207
1931.00,0.2207
1930.00,0.2208
1929.00,0.2209
1928.00,0.2210
1927.00,0.2211
1926.00,0.2210
1925.00,0.2208
1924.00,0.2207
1923.00,0.2211
1922.00,0.2219
1921.00,0.2229
1920.00,0.2238
1919.00,0.2243
1918.00,0.2247
1917.00,0.2252
1916.00,0.2256
1915.00,0.2258
1914.00,0.2258
1913.00,0.2256
1912.00,0.2253
1911.00,0.2250
1910.00,0.2248
1909.00,0.2248
1908.00,0.2251
1907.00,0.2253
1906.00,0.2255
1905.00,0.2256
1904.00,0.2256
1903.00,0.2255
1902.00,0.2256
1901.00,0.2256
1900.00,0.2256
1899.00,0.2256
1898.00,0.2256
1897.00,0.2257
1896.00,0.2258
1895.00,0.2259
1894.00,0.2261
1893.00,0.2262
1892.00,0.2264
1891.00,0.2261
1890.00,0.2261
1889.00,0.2264
1888.00,0.2267
1887.00,0.2269
1886.00,0.2270
1885.00,0.2271
1884.00,0.2273
1883.00,0.2276
1882.00,0.2278
1881.00,0.2280
1880.00,0.2281
1879.00,0.2282
1878.00,0.2283
1877.00,0.2284
1876.00,0.2284
1875.00,0.2284
1874.00,0.2284
1873.00,0.2282
1872.00,0.2280
1871.00,0.2278
1870.00,0.2275
1869.00,0.2274
1868.00,0.2273
1867.00,0.2271
1866.00,0.2268
1865.00,0.2260
1864.00,0.2257
1863.00,0.2254
1862.00,0.2249
1861.00,0.2246
1860.00,0.2243
1859.00,0.2240
1858.00,0.2238
1857.00,0.2236
1856.00,0.2235
1855.00,0.2233
1854.00,0.2231
1853.00,0.2230
1852.00,0.2229
1851.00,0.2226
1850.00,0.2223
1849.00,0.2220
1848.00,0.2221
1847.00,0.2224
1846.00,0.2226
1845.00,0.2227
1844.00,0.2227
1843.00,0.2227
1842.00,0.2226
1841.00,0.2226
1840.00,0.2224
1839.00,0.2220
1838.00,0.2217
1837.00,0.2216
1836.00,0.2217
1835.00,0.2218
1834.00,0.2219
1833.00,0.2220
1832.00,0.2218
1831.00,0.2212
1830.00,0.2208
1829.00,0.2208
1828.00,0.2210
1827.00,0.2210
1826.00,0.2207
1825.00,0.2205
1824.00,0.2206
1823.00,0.2207
1822.00,0.2206
1821.00,0.2207
1820.00,0.2207
1819.00,0.2206
1818.00,0.2206
1817.00,0.2208
1816.00,0.2210
1815.00,0.2211
1814.00,0.2211
1813.00,0.2210
1812.00,0.2210
1811.00,0.2212
1810.00,0.2216
1809.00,0.2221
1808.00,0.2226
1807.00,0.2231
1806.00,0.2236
1805.00,0.2239
1804.00,0.2241
1803.00,0.2242
1802.00,0.2245
1801.00,0.2250
1800.00,0.2256
1799.00,0.2261
1798.00,0.2263
1797.00,0.2266
1796.00,0.2271
1795.00,0.2277
1794.00,0.2282
1793.00,0.2285
1792.00,0.2289
1791.00,0.2295
1790.00,0.2302
1789.00,0.2308
1788.00,0.2313
1787.00,0.2317
1786.00,0.2320
1785.00,0.2324
1784.00,0.2328
1783.00,0.2330
1782.00,0.2331
1781.00,0.2334
1780.00,0.2340
1779.00,0.2349
1778.00,0.2356
1777.00,0.2362
1776.00,0.2368
1775.00,0.2372
1774.00,0.2375
1773.00,0.2380
1772.00,0.2389
1771.00,0.2401
1770.00,0.2409
1769.00,0.2415
1768.00,0.2420
1767.00,0.2427
1766.00,0.2435
1765.00,0.2442
1764.00,0.2449
1763.00,0.2454
1762.00,0.2460
1761.00,0.2469
1760.00,0.2479
1759.00,0.2488
1758.00,0.2498
1757.00,0.2511
1756.00,0.2527
1755.00,0.2542
1754.00,0.2556
1753.00,0.2569
1752.00,0.2584
1751.00,0.2603
1750.00,0.2628
1749.00,0.2662
1748.00,0.2702
1747.00,0.2747
1746.00,0.2794
1745.00,0.2846
1744.00,0.2904
1743.00,0.2969
1742.00,0.3037
1741.00,0.3103
1740.00,0.3167
1739.00,0.3225
1738.00,0.3277
1737.00,0.3321
1736.00,0.3353
1735.00,0.3372
1734.00,0.3382
1733.00,0.3390
1732.00,0.3392
1731.00,0.3388
1730.00,0.3377
1729.00,0.3362
1728.00,0.3344
1727.00,0.3321
1726.00,0.3295
1725.00,0.3269
1724.00,0.3245
1723.00,0.3225
1722.00,0.3211
1721.00,0.3200
1720.00,0.3180
1719.00,0.3167
1718.00,0.3157
1717.00,0.3150
1716.00,0.3147
1715.00,0.3142
1714.00,0.3137
1713.00,0.3134
1712.00,0.3132
1711.00,0.3130
1710.00,0.3129
1709.00,0.3130
1708.00,0.3131
1707.00,0.3131
1706.00,0.3130
1705.00,0.3129
1704.00,0.3124
1703.00,0.3113
1702.00,0.3098
1701.00,0.3081
1700.00,0.3065
1699.00,0.3050
1698.00,0.3037
1697.00,0.3024
1696.00,0.3019
1695.00,0.2995
1694.00,0.2994
1693.00,0.2999
1692.00,0.2998
1691.00,0.2996
1690.00,0.2995
1689.00,0.2999
1688.00,0.3006
1687.00,0.3012
1686.00,0.3015
1685.00,0.3018
1684.00,0.3035
1683.00,0.3055
1682.00,0.3065
1681.00,0.3072
1680.00,0.3083
1679.00,0.3101
1678.00,0.3123
1677.00,0.3144
1676.00,0.3160
1675.00,0.3170
1674.00,0.3177
1673.00,0.3185
1672.00,0.3194
1671.00,0.3204
1670.00,0.3215
1669.00,0.3231
1668.00,0.3248
1667.00,0.3263
1666.00,0.3278
1665.00,0.3294
1664.00,0.3310
1663.00,0.3324
1662.00,0.3339
1661.00,0.3356
1660.00,0.3373
1659.00,0.3388
1658.00,0.3405
1657.00,0.3425
1656.00,0.3444
1655.00,0.3455
1654.00,0.3461
1653.00,0.3484
1652.00,0.3511
1651.00,0.3531
1650.00,0.3548
1649.00,0.3560
1648.00,0.3569
1647.00,0.3589
1646.00,0.3619
1645.00,0.3646
1644.00,0.3671
1643.00,0.3692
1642.00,0.3712
1641.00,0.3736
1640.00,0.3763
1639.00,0.3788
1638.00,0.3812
1637.00,0.3841
1636.00,0.3882
1635.00,0.3925
1634.00,0.3959
1633.00,0.3985
1632.00,0.4012
1631.00,0.4041
1630.00,0.4070
1629.00,0.4103
1628.00,0.4139
1627.00,0.4176
1626.00,0.4216
1625.00,0.4259
1624.00,0.4308
1623.00,0.4363
1622.00,0.4423
1621.00,0.4488
1620.00,0.4557
1619.00,0.4630
1618.00,0.4714
1617.00,0.4826
1616.00,0.4959
1615.00,0.5090
1614.00,0.5208
1613.00,0.5321
1612.00,0.5439
1611.00,0.5557
1610.00,0.5673
1609.00,0.5789
1608.00,0.5906
1607.00,0.6015
1606.00,0.6110
1605.00,0.6199
1604.00,0.6285
1603.00,0.6366
1602.00,0.6442
1601.00,0.6523
1600.00,0.6615
1599.00,0.6715
1598.00,0.6826
1597.00,0.6962
1596.00,0.7136
1595.00,0.7350
1594.00,0.7609
1593.00,0.7937
1592.00,0.8357
1591.00,0.8885
1590.00,0.9544
1589.00,1.0392
1588.00,1.1496
1587.00,1.2903
1586.00,1.4654
1585.00,1.6850
1584.00,1.9671
1583.00,2.3177
1582.00,2.6871
1581.00,3.0269
1580.00,3.4201
1579.00,3.2789
1578.00,2.6598
1577.00,2.2245
1576.00,1.9074
1575.00,1.6628
1574.00,1.4784
1573.00,1.3403
1572.00,1.2313
1571.00,1.1395
1570.00,1.0655
1569.00,1.0170
1568.00,0.9962
1567.00,1.0003
1566.00,1.0284
1565.00,1.0837
1564.00,1.1667
1563.00,1.2686
1562.00,1.3765
1561.00,1.4794
1560.00,1.5379
1559.00,1.4760
1558.00,1.3289
1557.00,1.1857
1556.00,1.0603
1555.00,0.9436
1554.00,0.8403
1553.00,0.7584
1552.00,0.6968
1551.00,0.6480
1550.00,0.6076
1549.00,0.5756
1548.00,0.5515
1547.00,0.5324
1546.00,0.5158
1545.00,0.5015
1544.00,0.4904
1543.00,0.4818
1542.00,0.4737
1541.00,0.4656
1540.00,0.4586
1539.00,0.4527
1538.00,0.4471
1537.00,0.4426
1536.00,0.4386
1535.00,0.4341
1534.00,0.4293
1533.00,0.4261
1532.00,0.4250
1531.00,0.4251
1530.00,0.4258
1529.00,0.4267
1528.00,0.4271
1527.00,0.4263
1526.00,0.4244
1525.00,0.4219
1524.00,0.4190
1523.00,0.4156
1522.00,0.4128
1521.00,0.4121
1520.00,0.4133
1519.00,0.4150
1518.00,0.4171
1517.00,0.4205
1516.00,0.4252
1515.00,0.4299
1514.00,0.4339
1513.00,0.4376
1512.00,0.4411
1511.00,0.4444
1510.00,0.4477
1509.00,0.4519
1508.00,0.4586
1507.00,0.4708
1506.00,0.4864
1505.00,0.4999
1504.00,0.5106
1503.00,0.5197
1502.00,0.5287
1501.00,0.5383
1500.00,0.5483
1499.00,0.5579
1498.00,0.5682
1497.00,0.5809
1496.00,0.5959
1495.00,0.6112
1494.00,0.6261
1493.00,0.6412
1492.00,0.6571
1491.00,0.6738
1490.00,0.6928
1489.00,0.7152
1488.00,0.7402
1487.00,0.7673
1486.00,0.7974
1485.00,0.8317
1484.00,0.8703
1483.00,0.9138
1482.00,0.9642
1481.00,1.0228
1480.00,1.0876
1479.00,1.1576
1478.00,1.2361
1477.00,1.3289
1476.00,1.4379
1475.00,1.5635
1474.00,1.7156
1473.00,1.9146
1472.00,2.1706
1471.00,2.4678
1470.00,2.7967
1469.00,3.1978
1468.00,3.6773
1467.00,3.8330
1466.00,3.8002
1465.00,3.9956
1464.00,4.1817
1463.00,4.0496
1462.00,3.9422
1461.00,4.1014
1460.00,4.0052
1459.00,3.7298
1458.00,3.7301
1457.00,4.2164
1456.00,5.0083
1455.00,4.0621
1454.00,3.8612
1453.00,4.0266
1452.00,4.0240
1451.00,3.9191
1450.00,3.8418
1449.00,3.8674
1448.00,3.6828
1447.00,3.3557
1446.00,3.1647
1445.00,3.0355
1444.00,2.8655
1443.00,2.6665
1442.00,2.4935
1441.00,2.3482
1440.00,2.2105
1439.00,2.0739
1438.00,1.9394
1437.00,1.8064
1436.00,1.6800
1435.00,1.5684
1434.00,1.4713
1433.00,1.3815
1432.00,1.2951
1431.00,1.2141
1430.00,1.1423
1429.00,1.0814
1428.00,1.0315
1427.00,0.9916
1426.00,0.9594
1425.00,0.9325
1424.00,0.9106
1423.00,0.8942
1422.00,0.8823
1421.00,0.8726
1420.00,0.8633
1419.00,0.8548
1418.00,0.8479
1417.00,0.8427
1416.00,0.8387
1415.00,0.8361
1414.00,0.8347
1413.00,0.8346
1412.00,0.8358
1411.00,0.8383
1410.00,0.8410
1409.00,0.8421
1408.00,0.8398
1407.00,0.8328
1406.00,0.8198
1405.00,0.8008
1404.00,0.7776
1403.00,0.7534
1402.00,0.7302
1401.00,0.7087
1400.00,0.6898
1399.00,0.6753
1398.00,0.6656
1397.00,0.6601
1396.00,0.6579
1395.00,0.6594
1394.00,0.6654
1393.00,0.6768
1392.00,0.6959
1391.00,0.7250
1390.00,0.7667
1389.00,0.8238
1388.00,0.9001
1387.00,0.9961
1386.00,1.1060
1385.00,1.2212
1384.00,1.3379
1383.00,1.4577
1382.00,1.5845
1381.00,1.7242
1380.00,1.8826
1379.00,2.0512
1378.00,2.1897
1377.00,2.2429
1376.00,2.1917
1375.00,2.0620
1374.00,1.8979
1373.00,1.7403
1372.00,1.6089
1371.00,1.5072
1370.00,1.4344
1369.00,1.3884
1368.00,1.3623
1367.00,1.3417
1366.00,1.3087
1365.00,1.2522
1364.00,1.1748
1363.00,1.0899
1362.00,1.0124
1361.00,0.9499
1360.00,0.9028
1359.00,0.8681
1358.00,0.8427
1357.00,0.8247
1356.00,0.8129
1355.00,0.8063
1354.00,0.8035
1353.00,0.8033
1352.00,0.8044
1351.00,0.8058
1350.00,0.8071
1349.00,0.8081
1348.00,0.8090
1347.00,0.8098
1346.00,0.8103
1345.00,0.8100
1344.00,0.8086
1343.00,0.8054
1342.00,0.8000
1341.00,0.7921
1340.00,0.7821
1339.00,0.7705
1338.00,0.7574
1337.00,0.7430
1336.00,0.7277
1335.00,0.7122
1334.00,0.6969
1333.00,0.6822
1332.00,0.6683
1331.00,0.6557
1330.00,0.6448
1329.00,0.6359
1328.00,0.6291
1327.00,0.6245
1326.00,0.6217
1325.00,0.6202
1324.00,0.6197
1323.00,0.6201
1322.00,0.6211
1321.00,0.6226
1320.00,0.6243
1319.00,0.6262
1318.00,0.6279
1317.00,0.6289
1316.00,0.6294
1315.00,0.6301
1314.00,0.6316
1313.00,0.6342
1312.00,0.6379
1311.00,0.6421
1310.00,0.6462
1309.00,0.6500
1308.00,0.6533
1307.00,0.6563
1306.00,0.6585
1305.00,0.6595
1304.00,0.6591
1303.00,0.6571
1302.00,0.6540
1301.00,0.6501
1300.00,0.6454
1299.00,0.6400
1298.00,0.6335
1297.00,0.6264
1296.00,0.6193
1295.00,0.6128
1294.00,0.6073
1293.00,0.6026
1292.00,0.5985
1291.00,0.5949
1290.00,0.5916
1289.00,0.5886
1288.00,0.5859
1287.00,0.5836
1286.00,0.5814
1285.00,0.5791
1284.00,0.5767
1283.00,0.5743
1282.00,0.5720
1281.00,0.5697
1280.00,0.5674
1279.00,0.5652
1278.00,0.5628
1277.00,0.5603
1276.00,0.5577
1275.00,0.5553
1274.00,0.5534
1273.00,0.5522
1272.00,0.5520
1271.00,0.5530
1270.00,0.5552
1269.00,0.5578
1268.00,0.5598
1267.00,0.5600
1266.00,0.5577
1265.00,0.5532
1264.00,0.5478
1263.00,0.5429
1262.00,0.5392
1261.00,0.5368
1260.00,0.5354
1259.00,0.5345
1258.00,0.5337
1257.00,0.5325
1256.00,0.5313
1255.00,0.5302
1254.00,0.5296
1253.00,0.5296
1252.00,0.5302
1251.00,0.5313
1250.00,0.5327
1249.00,0.5339
1248.00,0.5348
1247.00,0.5353
1246.00,0.5351
1245.00,0.5341
1244.00,0.5322
1243.00,0.5297
1242.00,0.5269
1241.00,0.5240
1240.00,0.5212
1239.00,0.5184
1238.00,0.5159
1237.00,0.5136
1236.00,0.5116
1235.00,0.5102
1234.00,0.5098
1233.00,0.5104
1232.00,0.5123
1231.00,0.5153
1230.00,0.5187
1229.00,0.5216
1228.00,0.5229
1227.00,0.5223
1226.00,0.5195
1225.00,0.5150
1224.00,0.5099
1223.00,0.5052
1222.00,0.5015
1221.00,0.4989
1220.00,0.4972
1219.00,0.4963
1218.00,0.4962
1217.00,0.4968
1216.00,0.4982
1215.00,0.5004
1214.00,0.5027
1213.00,0.5047
1212.00,0.5055
1211.00,0.5050
1210.00,0.5034
1209.00,0.5015
1208.00,0.4998
1207.00,0.4987
1206.00,0.4984
1205.00,0.4985
1204.00,0.4989
1203.00,0.4994
1202.00,0.4998
1201.00,0.4998
1200.00,0.4996
1199.00,0.4991
1198.00,0.4982
1197.00,0.4967
1196.00,0.4945
1195.00,0.4920
1194.00,0.4892
1193.00,0.4865
1192.00,0.4840
1191.00,0.4819
1190.00,0.4803
1189.00,0.4790
1188.00,0.4781
1187.00,0.4775
1186.00,0.4771
1185.00,0.4768
1184.00,0.4764
1183.00,0.4763
1182.00,0.4765
1181.00,0.4771
1180.00,0.4779
1179.00,0.4791
1178.00,0.4807
1177.00,0.4827
1176.00,0.4854
1175.00,0.4890
1174.00,0.4936
1173.00,0.4990
1172.00,0.5048
1171.00,0.5104
1170.00,0.5147
1169.00,0.5173
1168.00,0.5182
1167.00,0.5180
1166.00,0.5175
1165.00,0.5172
1164.00,0.5175
1163.00,0.5187
1162.00,0.5206
1161.00,0.5230
1160.00,0.5256
1159.00,0.5281
1158.00,0.5305
1157.00,0.5323
1156.00,0.5332
1155.00,0.5332
1154.00,0.5324
1153.00,0.5308
1152.00,0.5288
1151.00,0.5263
1150.00,0.5237
1149.00,0.5207
1148.00,0.5177
1147.00,0.5146
1146.00,0.5116
1145.00,0.5091
1144.00,0.5072
1143.00,0.5066
1142.00,0.5076
1141.00,0.5106
1140.00,0.5158
1139.00,0.5231
1138.00,0.5324
1137.00,0.5434
1136.00,0.5557
1135.00,0.5681
1134.00,0.5788
1133.00,0.5850
1132.00,0.5847
1131.00,0.5778
1130.00,0.5659
1129.00,0.5520
1128.00,0.5388
1127.00,0.5283
1126.00,0.5208
1125.00,0.5157
1124.00,0.5120
1123.00,0.5090
1122.00,0.5062
1121.00,0.5036
1120.00,0.5018
1119.00,0.5015
1118.00,0.5035
1117.00,0.5079
1116.00,0.5142
1115.00,0.5208
1114.00,0.5256
1113.00,0.5265
1112.00,0.5234
1111.00,0.5179
1110.00,0.5128
1109.00,0.5097
1108.00,0.5093
1107.00,0.5104
1106.00,0.5116
1105.00,0.5110
1104.00,0.5077
1103.00,0.5017
1102.00,0.4940
1101.00,0.4855
1100.00,0.4770
1099.00,0.4689
1098.00,0.4614
1097.00,0.4547
1096.00,0.4491
1095.00,0.4448
1094.00,0.4419
1093.00,0.4404
1092.00,0.4401
1091.00,0.4408
1090.00,0.4426
1089.00,0.4454
1088.00,0.4495
1087.00,0.4551
1086.00,0.4623
1085.00,0.4708
1084.00,0.4804
1083.00,0.4912
1082.00,0.5030
1081.00,0.5154
1080.00,0.5280
1079.00,0.5400
1078.00,0.5500
1077.00,0.5566
1076.00,0.5586
1075.00,0.5558
1074.00,0.5491
1073.00,0.5402
1072.00,0.5309
1071.00,0.5225
1070.00,0.5155
1069.00,0.5100
1068.00,0.5058
1067.00,0.5028
1066.00,0.5006
1065.00,0.4989
1064.00,0.4977
1063.00,0.4973
1062.00,0.4977
1061.00,0.4987
1060.00,0.4998
1059.00,0.5004
1058.00,0.4998
1057.00,0.4981
1056.00,0.4952
1055.00,0.4919
1054.00,0.4886
1053.00,0.4858
1052.00,0.4838
1051.00,0.4833
1050.00,0.4844
1049.00,0.4867
1048.00,0.4897
1047.00,0.4927
1046.00,0.4953
1045.00,0.4974
1044.00,0.4992
1043.00,0.5012
1042.00,0.5034
1041.00,0.5060
1040.00,0.5089
1039.00,0.5119
1038.00,0.5149
1037.00,0.5175
1036.00,0.5199
1035.00,0.5225
1034.00,0.5257
1033.00,0.5295
1032.00,0.5339
1031.00,0.5387
1030.00,0.5435
1029.00,0.5471
1028.00,0.5484
1027.00,0.5466
1026.00,0.5414
1025.00,0.5337
1024.00,0.5246
1023.00,0.5156
1022.00,0.5074
1021.00,0.5003
1020.00,0.4943
1019.00,0.4896
1018.00,0.4858
1017.00,0.4827
1016.00,0.4802
1015.00,0.4782
1014.00,0.4770
1013.00,0.4765
1012.00,0.4769
1011.00,0.4782
1010.00,0.4804
1009.00,0.4835
1008.00,0.4873
1007.00,0.4919
1006.00,0.4972
1005.00,0.5032
1004.00,0.5098
1003.00,0.5170
1002.00,0.5247
1001.00,0.5322
1000.00,0.5388
999.00,0.5436
998.00,0.5463
997.00,0.5465
996.00,0.5445
995.00,0.5406
994.00,0.5354
993.00,0.5292
992.00,0.5222
991.00,0.5147
990.00,0.5069
989.00,0.4992
988.00,0.4919
987.00,0.4857
986.00,0.4808
985.00,0.4776
984.00,0.4759
983.00,0.4756
982.00,0.4759
981.00,0.4762
980.00,0.4761
979.00,0.4753
978.00,0.4740
977.00,0.4726
976.00,0.4711
975.00,0.4695
974.00,0.4678
973.00,0.4658
972.00,0.4635
971.00,0.4613
970.00,0.4592
969.00,0.4573
968.00,0.4558
967.00,0.4544
966.00,0.4532
965.00,0.4516
964.00,0.4496
963.00,0.4472
962.00,0.4445
961.00,0.4415
960.00,0.4386
959.00,0.4362
958.00,0.4344
957.00,0.4332
956.00,0.4320
955.00,0.4305
954.00,0.4284
953.00,0.4257
952.00,0.4227
951.00,0.4198
950.00,0.4173
949.00,0.4154
948.00,0.4144
947.00,0.4142
946.00,0.4148
945.00,0.4160
944.00,0.4176
943.00,0.4196
942.00,0.4217
941.00,0.4236
940.00,0.4251
939.00,0.4261
938.00,0.4265
937.00,0.4260
936.00,0.4249
935.00,0.4233
934.00,0.4213
933.00,0.4190
932.00,0.4166
931.00,0.4143
930.00,0.4125
929.00,0.4114
928.00,0.4113
927.00,0.4126
926.00,0.4158
925.00,0.4210
924.00,0.4283
923.00,0.4372
922.00,0.4461
921.00,0.4526
920.00,0.4542
919.00,0.4496
918.00,0.4400
917.00,0.4274
916.00,0.4143
915.00,0.4024
914.00,0.3923
913.00,0.3840
912.00,0.3773
911.00,0.3719
910.00,0.3675
909.00,0.3639
908.00,0.3609
907.00,0.3583
906.00,0.3562
905.00,0.3548
904.00,0.3541
903.00,0.3542
902.00,0.3551
901.00,0.3568
900.00,0.3590
899.00,0.3616
898.00,0.3647
897.00,0.3679
896.00,0.3715
895.00,0.3755
894.00,0.3800
893.00,0.3850
892.00,0.3901
891.00,0.3948
890.00,0.3988
889.00,0.4013
888.00,0.4020
887.00,0.4006
886.00,0.3977
885.00,0.3940
884.00,0.3905
883.00,0.3882
882.00,0.3871
881.00,0.3873
880.00,0.3884
879.00,0.3900
878.00,0.3918
877.00,0.3936
876.00,0.3953
875.00,0.3973
874.00,0.3999
873.00,0.4029
872.00,0.4061
871.00,0.4092
870.00,0.4124
869.00,0.4161
868.00,0.4207
867.00,0.4268
866.00,0.4346
865.00,0.4439
864.00,0.4539
863.00,0.4626
862.00,0.4680
861.00,0.4679
860.00,0.4622
859.00,0.4524
858.00,0.4412
857.00,0.4311
856.00,0.4230
855.00,0.4171
854.00,0.4129
853.00,0.4099
852.00,0.4075
851.00,0.4054
850.00,0.4032
849.00,0.4006
848.00,0.3977
847.00,0.3946
846.00,0.3915
845.00,0.3885
844.00,0.3860
843.00,0.3843
842.00,0.3841
841.00,0.3863
840.00,0.3914
839.00,0.3997
838.00,0.4104
837.00,0.4209
836.00,0.4281
835.00,0.4291
834.00,0.4234
833.00,0.4128
832.00,0.4008
831.00,0.3905
830.00,0.3834
829.00,0.3797
828.00,0.3788
827.00,0.3801
826.00,0.3832
825.00,0.3876
824.00,0.3931
823.00,0.3994
822.00,0.4064
821.00,0.4137
820.00,0.4211
819.00,0.4285
818.00,0.4354
817.00,0.4413
816.00,0.4458
815.00,0.4483
814.00,0.4483
813.00,0.4457
812.00,0.4407
811.00,0.4343
810.00,0.4273
809.00,0.4205
808.00,0.4143
807.00,0.4090
806.00,0.4042
805.00,0.3996
804.00,0.3947
803.00,0.3895
802.00,0.3839
801.00,0.3785
800.00,0.3737
799.00,0.3700
798.00,0.3674
797.00,0.3655
796.00,0.3643
795.00,0.3635
794.00,0.3632
793.00,0.3632
792.00,0.3636
791.00,0.3647
790.00,0.3662
789.00,0.3678
788.00,0.3690
787.00,0.3700
786.00,0.3713
785.00,0.3733
784.00,0.3763
783.00,0.3799
782.00,0.3836
781.00,0.3869
780.00,0.3898
779.00,0.3922
778.00,0.3945
777.00,0.3963
776.00,0.3979
775.00,0.3996
774.00,0.4014
773.00,0.4034
772.00,0.4055
771.00,0.4077
770.00,0.4101
769.00,0.4129
768.00,0.4159
767.00,0.4192
766.00,0.4223
765.00,0.4249
764.00,0.4273
763.00,0.4298
762.00,0.4329
761.00,0.4366
760.00,0.4405
759.00,0.4441
758.00,0.4468
757.00,0.4482
756.00,0.4485
755.00,0.4486
754.00,0.4490
753.00,0.4503
752.00,0.4525
751.00,0.4554
750.00,0.4589
749.00,0.4625
748.00,0.4662
747.00,0.4700
746.00,0.4742
745.00,0.4790
744.00,0.4848
743.00,0.4918
742.00,0.4998
741.00,0.5081
740.00,0.5161
739.00,0.5236
738.00,0.5303
737.00,0.5365
736.00,0.5425
735.00,0.5487
734.00,0.5551
733.00,0.5618
732.00,0.5693
731.00,0.5781
730.00,0.5893
729.00,0.6038
728.00,0.6227
727.00,0.6468
726.00,0.6764
725.00,0.7104
724.00,0.7458
723.00,0.7760
722.00,0.7917
721.00,0.7842
720.00,0.7527
719.00,0.7060
718.00,0.6557
717.00,0.6099
716.00,0.5726
715.00,0.5441
714.00,0.5230
713.00,0.5069
712.00,0.4941
711.00,0.4840
710.00,0.4763
709.00,0.4703
708.00,0.4654
707.00,0.4614
706.00,0.4580
705.00,0.4547
704.00,0.4513
703.00,0.4477
702.00,0.4442
701.00,0.4407
700.00,0.4366
699.00,0.4311
698.00,0.4235
697.00,0.4138
696.00,0.4032
695.00,0.3932
694.00,0.3848
693.00,0.3782
692.00,0.3729
691.00,0.3688
690.00,0.3655
689.00,0.3627
688.00,0.3602
687.00,0.3580
686.00,0.3565
685.00,0.3556
684.00,0.3553
683.00,0.3555
682.00,0.3561
681.00,0.3572
680.00,0.3586
679.00,0.3606
678.00,0.3628
677.00,0.3649
676.00,0.3668
675.00,0.3686
674.00,0.3704
673.00,0.3723
672.00,0.3740
671.00,0.3755
670.00,0.3767
669.00,0.3775
668.00,0.3771
667.00,0.3755
666.00,0.3740
665.00,0.3730
664.00,0.3721
663.00,0.3712
662.00,0.3702
661.00,0.3691
660.00,0.3678
659.00,0.3665
658.00,0.3653
657.00,0.3642
656.00,0.3633
655.00,0.3626
654.00,0.3623
653.00,0.3621
652.00,0.3620
651.00,0.3621
650.00,0.3620
649.00,0.3619
648.00,0.3618
647.00,0.3622
646.00,0.3632
645.00,0.3645
644.00,0.3658
643.00,0.3673
642.00,0.3691
641.00,0.3707
640.00,0.3723
639.00,0.3737
638.00,0.3750
637.00,0.3760
636.00,0.3767
635.00,0.3772
634.00,0.3777
633.00,0.3782
632.00,0.3787
631.00,0.3795
630.00,0.3807
629.00,0.3821
628.00,0.3836
627.00,0.3851
626.00,0.3866
625.00,0.3879
624.00,0.3892
623.00,0.3906
622.00,0.3920
621.00,0.3933
620.00,0.3940
619.00,0.3943
618.00,0.3943
617.00,0.3939
616.00,0.3933
615.00,0.3926
614.00,0.3915
613.00,0.3901
612.00,0.3884
611.00,0.3866
610.00,0.3847
609.00,0.3828
608.00,0.3810
607.00,0.3794
606.00,0.3781
605.00,0.3772
604.00,0.3767
603.00,0.3768
602.00,0.3771
601.00,0.3773
600.00,0.3774
599.00,0.3779
598.00,0.3789
597.00,0.3803
596.00,0.3817
595.00,0.3831
594.00,0.3848
593.00,0.3871
592.00,0.3897
591.00,0.3927
590.00,0.3954
589.00,0.3978
588.00,0.3999
587.00,0.4020
586.00,0.4042
585.00,0.4065
584.00,0.4091
583.00,0.4117
582.00,0.4142
581.00,0.4165
580.00,0.4189
579.00,0.4214
578.00,0.4236
577.00,0.4253
576.00,0.4271
575.00,0.4295
574.00,0.4326
573.00,0.4358
572.00,0.4388
571.00,0.4415
570.00,0.4440
569.00,0.4463
568.00,0.4488
567.00,0.4518
566.00,0.4552
565.00,0.4580
564.00,0.4597
563.00,0.4606
562.00,0.4617
561.00,0.4633
560.00,0.4655
559.00,0.4679
558.00,0.4699
557.00,0.4713
556.00,0.4724
555.00,0.4734
554.00,0.4742
553.00,0.4748
552.00,0.4750
551.00,0.4746
550.00,0.4735
