Created as New Dataset,
cm-1,A
4000.00,0.4930
3999.00,0.4928
3998.00,0.4926
3997.00,0.4925
3996.00,0.4924
3995.00,0.4924
3994.00,0.4923
3993.00,0.4922
3992.00,0.4919
3991.00,0.4916
3990.00,0.4913
3989.00,0.4910
3988.00,0.4907
3987.00,0.4903
3986.00,0.4900
3985.00,0.4896
3984.00,0.4892
3983.00,0.4887
3982.00,0.4883
3981.00,0.4880
3980.00,0.4877
3979.00,0.4874
3978.00,0.4870
3977.00,0.4865
3976.00,0.4860
3975.00,0.4855
3974.00,0.4852
3973.00,0.4849
3972.00,0.4846
3971.00,0.4843
3970.00,0.4840
3969.00,0.4838
3968.00,0.4836
3967.00,0.4834
3966.00,0.4832
3965.00,0.4829
3964.00,0.4826
3963.00,0.4824
3962.00,0.4823
3961.00,0.4822
3960.00,0.4821
3959.00,0.4821
3958.00,0.4820
3957.00,0.4821
3956.00,0.4822
3955.00,0.4823
3954.00,0.4824
3953.00,0.4824
3952.00,0.4824
3951.00,0.4822
3950.00,0.4820
3949.00,0.4818
3948.00,0.4817
3947.00,0.4816
3946.00,0.4815
3945.00,0.4813
3944.00,0.4812
3943.00,0.4813
3942.00,0.4814
3941.00,0.4814
3940.00,0.4813
3939.00,0.4811
3938.00,0.4811
3937.00,0.4812
3936.00,0.4811
3935.00,0.4808
3934.00,0.4805
3933.00,0.4802
3932.00,0.4799
3931.00,0.4796
3930.00,0.4792
3929.00,0.4787
3928.00,0.4781
3927.00,0.4774
3926.00,0.4768
3925.00,0.4762
3924.00,0.4757
3923.00,0.4750
3922.00,0.4744
3921.00,0.4738
3920.00,0.4733
3919.00,0.4728
3918.00,0.4724
3917.00,0.4721
3916.00,0.4720
3915.00,0.4719
3914.00,0.4718
3913.00,0.4717
3912.00,0.4716
3911.00,0.4716
3910.00,0.4715
3909.00,0.4715
3908.00,0.4713
3907.00,0.4709
3906.00,0.4705
3905.00,0.4703
3904.00,0.4703
3903.00,0.4702
3902.00,0.4699
3901.00,0.4696
3900.00,0.4694
3899.00,0.4694
3898.00,0.4695
3897.00,0.4695
3896.00,0.4696
3895.00,0.4696
3894.00,0.4693
3893.00,0.4690
3892.00,0.4689
3891.00,0.4691
3890.00,0.4693
3889.00,0.4691
3888.00,0.4685
3887.00,0.4682
3886.00,0.4685
3885.00,0.4691
3884.00,0.4693
3883.00,0.4688
3882.00,0.4682
3881.00,0.4681
3880.00,0.4684
3879.00,0.4687
3878.00,0.4685
3877.00,0.4678
3876.00,0.4673
3875.00,0.4673
3874.00,0.4676
3873.00,0.4674
3872.00,0.4665
3871.00,0.4657
3870.00,0.4657
3869.00,0.4658
3868.00,0.4655
3867.00,0.4647
3866.00,0.4641
3865.00,0.4638
3864.00,0.4635
3863.00,0.4628
3862.00,0.4619
3861.00,0.4608
3860.00,0.4599
3859.00,0.4593
3858.00,0.4590
3857.00,0.4584
3856.00,0.4573
3855.00,0.4564
3854.00,0.4559
3853.00,0.4556
3852.00,0.4549
3851.00,0.4542
3850.00,0.4538
3849.00,0.4537
3848.00,0.4538
3847.00,0.4537
3846.00,0.4534
3845.00,0.4528
3844.00,0.4523
3843.00,0.4519
3842.00,0.4514
3841.00,0.4507
3840.00,0.4500
3839.00,0.4494
3838.00,0.4491
3837.00,0.4489
3836.00,0.4487
3835.00,0.4484
3834.00,0.4481
3833.00,0.4479
3832.00,0.4479
3831.00,0.4480
3830.00,0.4478
3829.00,0.4471
3828.00,0.4464
3827.00,0.4460
3826.00,0.4460
3825.00,0.4458
3824.00,0.4450
3823.00,0.4439
3822.00,0.4436
3821.00,0.4439
3820.00,0.4443
3819.00,0.4438
3818.00,0.4429
3817.00,0.4424
3816.00,0.4426
3815.00,0.4427
3814.00,0.4422
3813.00,0.4415
3812.00,0.4410
3811.00,0.4409
3810.00,0.4405
3809.00,0.4397
3808.00,0.4390
3807.00,0.4389
3806.00,0.4389
3805.00,0.4386
3804.00,0.4375
3803.00,0.4365
3802.00,0.4364
3801.00,0.4367
3800.00,0.4365
3799.00,0.4359
3798.00,0.4352
3797.00,0.4351
3796.00,0.4353
3795.00,0.4354
3794.00,0.4352
3793.00,0.4348
3792.00,0.4345
3791.00,0.4343
3790.00,0.4341
3789.00,0.4338
3788.00,0.4335
3787.00,0.4330
3786.00,0.4326
3785.00,0.4323
3784.00,0.4320
3783.00,0.4318
3782.00,0.4313
3781.00,0.4309
3780.00,0.4307
3779.00,0.4306
3778.00,0.4303
3777.00,0.4298
3776.00,0.4292
3775.00,0.4289
3774.00,0.4287
3773.00,0.4284
3772.00,0.4278
3771.00,0.4274
3770.00,0.4273
3769.00,0.4270
3768.00,0.4265
3767.00,0.4258
3766.00,0.4254
3765.00,0.4253
3764.00,0.4252
3763.00,0.4249
3762.00,0.4244
3761.00,0.4240
3760.00,0.4237
3759.00,0.4232
3758.00,0.4226
3757.00,0.4221
3756.00,0.4216
3755.00,0.4211
3754.00,0.4207
3753.00,0.4203
3752.00,0.4198
3751.00,0.4193
3750.00,0.4190
3749.00,0.4193
3748.00,0.4196
3747.00,0.4192
3746.00,0.4190
3745.00,0.4198
3744.00,0.4209
3743.00,0.4215
3742.00,0.4216
3741.00,0.4218
3740.00,0.4224
3739.00,0.4229
3738.00,0.4233
3737.00,0.4237
3736.00,0.4243
3735.00,0.4247
3734.00,0.4248
3733.00,0.4249
3732.00,0.4255
3731.00,0.4262
3730.00,0.4268
3729.00,0.4270
3728.00,0.4272
3727.00,0.4276
3726.00,0.4278
3725.00,0.4278
3724.00,0.4276
3723.00,0.4275
3722.00,0.4276
3721.00,0.4276
3720.00,0.4274
3719.00,0.4271
3718.00,0.4269
3717.00,0.4268
3716.00,0.4267
3715.00,0.4264
3714.00,0.4261
3713.00,0.4260
3712.00,0.4260
3711.00,0.4260
3710.00,0.4258
3709.00,0.4256
3708.00,0.4255
3707.00,0.4257
3706.00,0.4261
3705.00,0.4264
3704.00,0.4268
3703.00,0.4272
3702.00,0.4278
3701.00,0.4284
3700.00,0.4289
3699.00,0.4292
3698.00,0.4296
3697.00,0.4301
3696.00,0.4309
3695.00,0.4316
3694.00,0.4324
3693.00,0.4333
3692.00,0.4344
3691.00,0.4355
3690.00,0.4369
3689.00,0.4387
3688.00,0.4406
3687.00,0.4424
3686.00,0.4440
3685.00,0.4456
3684.00,0.4474
3683.00,0.4493
3682.00,0.4511
3681.00,0.4531
3680.00,0.4554
3679.00,0.4576
3678.00,0.4593
3677.00,0.4616
3676.00,0.4652
3675.00,0.4697
3674.00,0.4736
3673.00,0.4768
3672.00,0.4805
3671.00,0.4860
3670.00,0.4932
3669.00,0.5011
3668.00,0.5088
3667.00,0.5167
3666.00,0.5253
3665.00,0.5345
3664.00,0.5443
3663.00,0.5547
3662.00,0.5660
3661.00,0.5785
3660.00,0.5926
3659.00,0.6092
3658.00,0.6306
3657.00,0.6593
3656.00,0.6951
3655.00,0.7355
3654.00,0.7793
3653.00,0.8299
3652.00,0.8951
3651.00,0.9850
3650.00,1.1082
3649.00,1.2694
3648.00,1.4671
3647.00,1.6907
3646.00,1.9206
3645.00,2.1364
3644.00,2.3162
3643.00,2.4187
3642.00,2.4019
3641.00,2.2802
3640.00,2.1003
3639.00,1.9029
3638.00,1.7157
3637.00,1.5500
3636.00,1.4056
3635.00,1.2818
3634.00,1.1803
3633.00,1.1003
3632.00,1.0357
3631.00,0.9787
3630.00,0.9250
3629.00,0.8775
3628.00,0.8399
3627.00,0.8121
3626.00,0.7909
3625.00,0.7741
3624.00,0.7603
3623.00,0.7487
3622.00,0.7382
3621.00,0.7287
3620.00,0.7201
3619.00,0.7125
3618.00,0.7056
3617.00,0.6990
3616.00,0.6924
3615.00,0.6855
3614.00,0.6786
3613.00,0.6722
3612.00,0.6663
3611.00,0.6607
3610.00,0.6554
3609.00,0.6508
3608.00,0.6469
3607.00,0.6437
3606.00,0.6409
3605.00,0.6384
3604.00,0.6362
3603.00,0.6341
3602.00,0.6319
3601.00,0.6299
3600.00,0.6280
3599.00,0.6262
3598.00,0.6244
3597.00,0.6228
3596.00,0.6214
3595.00,0.6202
3594.00,0.6190
3593.00,0.6180
3592.00,0.6172
3591.00,0.6164
3590.00,0.6156
3589.00,0.6152
3588.00,0.6154
3587.00,0.6158
3586.00,0.6164
3585.00,0.6169
3584.00,0.6176
3583.00,0.6184
3582.00,0.6194
3581.00,0.6205
3580.00,0.6216
3579.00,0.6227
3578.00,0.6238
3577.00,0.6250
3576.00,0.6263
3575.00,0.6276
3574.00,0.6289
3573.00,0.6303
3572.00,0.6317
3571.00,0.6330
3570.00,0.6341
3569.00,0.6352
3568.00,0.6365
3567.00,0.6379
3566.00,0.6391
3565.00,0.6401
3564.00,0.6410
3563.00,0.6418
3562.00,0.6425
3561.00,0.6431
3560.00,0.6437
3559.00,0.6440
3558.00,0.6441
3557.00,0.6440
3556.00,0.6439
3555.00,0.6437
3554.00,0.6434
3553.00,0.6430
3552.00,0.6426
3551.00,0.6420
3550.00,0.6412
3549.00,0.6404
3548.00,0.6395
3547.00,0.6388
3546.00,0.6380
3545.00,0.6371
3544.00,0.6363
3543.00,0.6354
3542.00,0.6346
3541.00,0.6340
3540.00,0.6335
3539.00,0.6329
3538.00,0.6323
3537.00,0.6318
3536.00,0.6313
3535.00,0.6308
3534.00,0.6303
3533.00,0.6298
3532.00,0.6294
3531.00,0.6290
3530.00,0.6286
3529.00,0.6281
3528.00,0.6278
3527.00,0.6274
3526.00,0.6271
3525.00,0.6268
3524.00,0.6267
3523.00,0.6267
3522.00,0.6267
3521.00,0.6268
3520.00,0.6267
3519.00,0.6267
3518.00,0.6267
3517.00,0.6267
3516.00,0.6268
3515.00,0.6269
3514.00,0.6271
3513.00,0.6273
3512.00,0.6275
3511.00,0.6276
3510.00,0.6277
3509.00,0.6280
3508.00,0.6283
3507.00,0.6286
3506.00,0.6290
3505.00,0.6294
3504.00,0.6299
3503.00,0.6303
3502.00,0.6308
3501.00,0.6314
3500.00,0.6320
3499.00,0.6326
3498.00,0.6332
3497.00,0.6338
3496.00,0.6343
3495.00,0.6349
3494.00,0.6355
3493.00,0.6363
3492.00,0.6373
3491.00,0.6383
3490.00,0.6393
3489.00,0.6403
3488.00,0.6413
3487.00,0.6422
3486.00,0.6431
3485.00,0.6441
3484.00,0.6450
3483.00,0.6459
3482.00,0.6468
3481.00,0.6476
3480.00,0.6483
3479.00,0.6489
3478.00,0.6494
3477.00,0.6500
3476.00,0.6507
3475.00,0.6514
3474.00,0.6522
3473.00,0.6530
3472.00,0.6537
3471.00,0.6545
3470.00,0.6552
3469.00,0.6560
3468.00,0.6568
3467.00,0.6577
3466.00,0.6585
3465.00,0.6595
3464.00,0.6605
3463.00,0.6615
3462.00,0.6624
3461.00,0.6634
3460.00,0.6643
3459.00,0.6653
3458.00,0.6664
3457.00,0.6676
3456.00,0.6689
3455.00,0.6702
3454.00,0.6714
3453.00,0.6725
3452.00,0.6736
3451.00,0.6748
3450.00,0.6761
3449.00,0.6775
3448.00,0.6790
3447.00,0.6804
3446.00,0.6819
3445.00,0.6833
3444.00,0.6847
3443.00,0.6862
3442.00,0.6877
3441.00,0.6893
3440.00,0.6909
3439.00,0.6926
3438.00,0.6942
3437.00,0.6957
3436.00,0.6970
3435.00,0.6982
3434.00,0.6995
3433.00,0.7008
3432.00,0.7022
3431.00,0.7036
3430.00,0.7049
3429.00,0.7061
3428.00,0.7073
3427.00,0.7084
3426.00,0.7097
3425.00,0.7110
3424.00,0.7124
3423.00,0.7138
3422.00,0.7151
3421.00,0.7163
3420.00,0.7176
3419.00,0.7189
3418.00,0.7203
3417.00,0.7218
3416.00,0.7233
3415.00,0.7248
3414.00,0.7263
3413.00,0.7278
3412.00,0.7292
3411.00,0.7307
3410.00,0.7321
3409.00,0.7335
3408.00,0.7349
3407.00,0.7364
3406.00,0.7378
3405.00,0.7394
3404.00,0.7410
3403.00,0.7427
3402.00,0.7444
3401.00,0.7460
3400.00,0.7474
3399.00,0.7487
3398.00,0.7501
3397.00,0.7516
3396.00,0.7532
3395.00,0.7548
3394.00,0.7564
3393.00,0.7580
3392.00,0.7596
3391.00,0.7611
3390.00,0.7627
3389.00,0.7642
3388.00,0.7657
3387.00,0.7672
3386.00,0.7686
3385.00,0.7700
3384.00,0.7714
3383.00,0.7728
3382.00,0.7743
3381.00,0.7758
3380.00,0.7773
3379.00,0.7787
3378.00,0.7801
3377.00,0.7816
3376.00,0.7832
3375.00,0.7849
3374.00,0.7865
3373.00,0.7881
3372.00,0.7897
3371.00,0.7912
3370.00,0.7926
3369.00,0.7940
3368.00,0.7952
3367.00,0.7964
3366.00,0.7977
3365.00,0.7990
3364.00,0.8004
3363.00,0.8017
3362.00,0.8029
3361.00,0.8041
3360.00,0.8054
3359.00,0.8066
3358.00,0.8078
3357.00,0.8089
3356.00,0.8101
3355.00,0.8112
3354.00,0.8123
3353.00,0.8135
3352.00,0.8147
3351.00,0.8157
3350.00,0.8168
3349.00,0.8179
3348.00,0.8192
3347.00,0.8205
3346.00,0.8218
3345.00,0.8230
3344.00,0.8241
3343.00,0.8251
3342.00,0.8260
3341.00,0.8268
3340.00,0.8277
3339.00,0.8284
3338.00,0.8291
3337.00,0.8298
3336.00,0.8305
3335.00,0.8311
3334.00,0.8317
3333.00,0.8322
3332.00,0.8325
3331.00,0.8327
3330.00,0.8328
3329.00,0.8328
3328.00,0.8327
3327.00,0.8327
3326.00,0.8327
3325.00,0.8327
3324.00,0.8327
3323.00,0.8325
3322.00,0.8321
3321.00,0.8318
3320.00,0.8315
3319.00,0.8313
3318.00,0.8310
3317.00,0.8306
3316.00,0.8300
3315.00,0.8292
3314.00,0.8285
3313.00,0.8277
3312.00,0.8269
3311.00,0.8261
3310.00,0.8252
3309.00,0.8244
3308.00,0.8235
3307.00,0.8224
3306.00,0.8213
3305.00,0.8202
3304.00,0.8191
3303.00,0.8180
3302.00,0.8167
3301.00,0.8155
3300.00,0.8142
3299.00,0.8129
3298.00,0.8117
3297.00,0.8105
3296.00,0.8091
3295.00,0.8077
3294.00,0.8062
3293.00,0.8047
3292.00,0.8034
3291.00,0.8020
3290.00,0.8006
3289.00,0.7993
3288.00,0.7982
3287.00,0.7971
3286.00,0.7960
3285.00,0.7949
3284.00,0.7937
3283.00,0.7926
3282.00,0.7915
3281.00,0.7905
3280.00,0.7895
3279.00,0.7886
3278.00,0.7878
3277.00,0.7870
3276.00,0.7862
3275.00,0.7853
3274.00,0.7845
3273.00,0.7838
3272.00,0.7832
3271.00,0.7826
3270.00,0.7821
3269.00,0.7814
3268.00,0.7808
3267.00,0.7802
3266.00,0.7798
3265.00,0.7795
3264.00,0.7791
3263.00,0.7786
3262.00,0.7782
3261.00,0.7778
3260.00,0.7776
3259.00,0.7774
3258.00,0.7772
3257.00,0.7772
3256.00,0.7770
3255.00,0.7768
3254.00,0.7766
3253.00,0.7764
3252.00,0.7762
3251.00,0.7760
3250.00,0.7759
3249.00,0.7758
3248.00,0.7757
3247.00,0.7757
3246.00,0.7756
3245.00,0.7755
3244.00,0.7753
3243.00,0.7752
3242.00,0.7751
3241.00,0.7751
3240.00,0.7751
3239.00,0.7750
3238.00,0.7748
3237.00,0.7748
3236.00,0.7748
3235.00,0.7748
3234.00,0.7747
3233.00,0.7747
3232.00,0.7746
3231.00,0.7744
3230.00,0.7742
3229.00,0.7740
3228.00,0.7740
3227.00,0.7739
3226.00,0.7739
3225.00,0.7737
3224.00,0.7735
3223.00,0.7732
3222.00,0.7731
3221.00,0.7730
3220.00,0.7728
3219.00,0.7726
3218.00,0.7723
3217.00,0.7720
3216.00,0.7717
3215.00,0.7715
3214.00,0.7712
3213.00,0.7710
3212.00,0.7707
3211.00,0.7704
3210.00,0.7700
3209.00,0.7696
3208.00,0.7693
3207.00,0.7689
3206.00,0.7685
3205.00,0.7681
3204.00,0.7677
3203.00,0.7672
3202.00,0.7665
3201.00,0.7658
3200.00,0.7649
3199.00,0.7642
3198.00,0.7635
3197.00,0.7628
3196.00,0.7621
3195.00,0.7612
3194.00,0.7602
3193.00,0.7591
3192.00,0.7580
3191.00,0.7567
3190.00,0.7555
3189.00,0.7543
3188.00,0.7530
3187.00,0.7517
3186.00,0.7504
3185.00,0.7490
3184.00,0.7477
3183.00,0.7463
3182.00,0.7450
3181.00,0.7436
3180.00,0.7421
3179.00,0.7405
3178.00,0.7389
3177.00,0.7373
3176.00,0.7357
3175.00,0.7340
3174.00,0.7322
3173.00,0.7305
3172.00,0.7287
3171.00,0.7269
3170.00,0.7251
3169.00,0.7233
3168.00,0.7214
3167.00,0.7195
3166.00,0.7175
3165.00,0.7154
3164.00,0.7134
3163.00,0.7114
3162.00,0.7096
3161.00,0.7078
3160.00,0.7060
3159.00,0.7041
3158.00,0.7022
3157.00,0.7004
3156.00,0.6986
3155.00,0.6968
3154.00,0.6951
3153.00,0.6934
3152.00,0.6917
3151.00,0.6901
3150.00,0.6884
3149.00,0.6867
3148.00,0.6851
3147.00,0.6836
3146.00,0.6820
3145.00,0.6805
3144.00,0.6790
3143.00,0.6774
3142.00,0.6759
3141.00,0.6745
3140.00,0.6732
3139.00,0.6719
3138.00,0.6707
3137.00,0.6697
3136.00,0.6686
3135.00,0.6677
3134.00,0.6667
3133.00,0.6658
3132.00,0.6648
3131.00,0.6639
3130.00,0.6630
3129.00,0.6623
3128.00,0.6617
3127.00,0.6611
3126.00,0.6605
3125.00,0.6601
3124.00,0.6598
3123.00,0.6595
3122.00,0.6593
3121.00,0.6591
3120.00,0.6590
3119.00,0.6590
3118.00,0.6591
3117.00,0.6593
3116.00,0.6596
3115.00,0.6600
3114.00,0.6606
3113.00,0.6611
3112.00,0.6617
3111.00,0.6623
3110.00,0.6630
3109.00,0.6638
3108.00,0.6648
3107.00,0.6658
3106.00,0.6668
3105.00,0.6678
3104.00,0.6689
3103.00,0.6700
3102.00,0.6712
3101.00,0.6725
3100.00,0.6740
3099.00,0.6756
3098.00,0.6774
3097.00,0.6793
3096.00,0.6815
3095.00,0.6838
3094.00,0.6864
3093.00,0.6891
3092.00,0.6921
3091.00,0.6952
3090.00,0.6984
3089.00,0.7019
3088.00,0.7055
3087.00,0.7093
3086.00,0.7132
3085.00,0.7173
3084.00,0.7214
3083.00,0.7259
3082.00,0.7306
3081.00,0.7357
3080.00,0.7410
3079.00,0.7468
3078.00,0.7529
3077.00,0.7595
3076.00,0.7663
3075.00,0.7735
3074.00,0.7810
3073.00,0.7887
3072.00,0.7966
3071.00,0.8046
3070.00,0.8126
3069.00,0.8206
3068.00,0.8285
3067.00,0.8363
3066.00,0.8439
3065.00,0.8512
3064.00,0.8580
3063.00,0.8641
3062.00,0.8697
3061.00,0.8749
3060.00,0.8797
3059.00,0.8843
3058.00,0.8888
3057.00,0.8933
3056.00,0.8979
3055.00,0.9025
3054.00,0.9073
3053.00,0.9123
3052.00,0.9176
3051.00,0.9232
3050.00,0.9291
3049.00,0.9352
3048.00,0.9415
3047.00,0.9481
3046.00,0.9549
3045.00,0.9619
3044.00,0.9688
3043.00,0.9756
3042.00,0.9823
3041.00,0.9888
3040.00,0.9949
3039.00,1.0008
3038.00,1.0066
3037.00,1.0125
3036.00,1.0190
3035.00,1.0261
3034.00,1.0340
3033.00,1.0430
3032.00,1.0528
3031.00,1.0634
3030.00,1.0747
3029.00,1.0865
3028.00,1.0988
3027.00,1.1115
3026.00,1.1246
3025.00,1.1379
3024.00,1.1512
3023.00,1.1645
3022.00,1.1780
3021.00,1.1918
3020.00,1.2062
3019.00,1.2211
3018.00,1.2367
3017.00,1.2529
3016.00,1.2696
3015.00,1.2868
3014.00,1.3046
3013.00,1.3232
3012.00,1.3428
3011.00,1.3634
3010.00,1.3855
3009.00,1.4092
3008.00,1.4345
3007.00,1.4608
3006.00,1.4880
3005.00,1.5161
3004.00,1.5453
3003.00,1.5755
3002.00,1.6070
3001.00,1.6401
3000.00,1.6752
2999.00,1.7124
2998.00,1.7518
2997.00,1.7934
2996.00,1.8377
2995.00,1.8853
2994.00,1.9371
2993.00,1.9942
2992.00,2.0575
2991.00,2.1278
2990.00,2.2050
2989.00,2.2884
2988.00,2.3783
2987.00,2.4765
2986.00,2.5845
2985.00,2.6987
2984.00,2.8118
2983.00,2.9208
2982.00,3.0305
2981.00,3.1451
2980.00,3.2615
2979.00,3.3842
2978.00,3.5385
2977.00,3.7541
2976.00,4.0291
2975.00,4.2533
2974.00,4.3005
2973.00,4.3193
2972.00,4.3608
2971.00,4.2877
2970.00,4.0919
2969.00,3.9089
2968.00,3.8191
2967.00,3.8195
2966.00,3.9328
2965.00,4.1996
2964.00,4.3724
2963.00,4.2698
2962.00,4.2181
2961.00,4.3540
2960.00,4.3321
2959.00,4.1116
2958.00,3.9414
2957.00,3.8671
2956.00,3.8294
2955.00,3.8323
2954.00,3.8794
2953.00,3.8819
2952.00,3.8129
2951.00,3.7657
2950.00,3.8043
2949.00,3.9644
2948.00,4.2001
2947.00,4.3024
2946.00,4.2566
2945.00,4.2109
2944.00,4.1642
2943.00,4.0398
2942.00,3.9303
2941.00,3.9326
2940.00,4.0687
2939.00,4.3826
2938.00,4.6799
2937.00,4.4236
2936.00,4.2309
2935.00,4.2893
2934.00,4.7061
2933.00,4.6005
2932.00,4.3707
2931.00,4.3019
2930.00,4.5290
2929.00,4.6172
2928.00,4.3625
2927.00,4.1219
2926.00,4.0047
2925.00,4.0427
2924.00,4.0607
2923.00,3.9584
2922.00,3.8987
2921.00,3.9979
2920.00,4.3227
2919.00,4.4815
2918.00,4.1780
2917.00,3.9657
2916.00,3.9030
2915.00,3.9834
2914.00,4.0949
2913.00,4.1527
2912.00,4.1893
2911.00,4.1914
2910.00,4.1285
2909.00,4.0839
2908.00,4.1464
2907.00,4.2320
2906.00,4.3272
2905.00,4.3542
2904.00,4.1767
2903.00,4.0443
2902.00,4.0086
2901.00,4.1273
2900.00,4.2582
2899.00,4.3388
2898.00,4.4600
2897.00,4.6678
2896.00,4.8335
2895.00,4.5275
2894.00,4.2753
2893.00,4.2167
2892.00,4.3094
2891.00,4.4667
2890.00,4.6018
2889.00,4.3885
2888.00,4.2425
2887.00,4.3259
2886.00,4.3789
2885.00,4.1441
2884.00,3.9591
2883.00,3.9421
2882.00,4.0290
2881.00,4.1421
2880.00,4.2721
2879.00,4.2955
2878.00,4.2190
2877.00,4.1601
2876.00,4.1320
2875.00,4.0928
2874.00,4.0383
2873.00,4.0079
2872.00,4.0446
2871.00,4.1697
2870.00,4.2767
2869.00,4.2794
2868.00,4.2548
2867.00,4.2121
2866.00,4.1765
2865.00,4.1702
2864.00,4.1642
2863.00,4.0393
2862.00,3.8904
2861.00,3.8454
2860.00,3.9501
2859.00,4.2512
2858.00,4.4219
2857.00,4.1646
2856.00,4.0009
2855.00,4.0622
2854.00,4.3123
2853.00,4.6738
2852.00,4.9122
2851.00,4.4745
2850.00,4.1778
2849.00,4.0693
2848.00,4.0965
2847.00,4.1966
2846.00,4.3531
2845.00,4.4863
2844.00,4.5280
2843.00,4.3255
2842.00,3.9763
2841.00,3.7500
2840.00,3.6582
2839.00,3.6772
2838.00,3.7202
2837.00,3.7073
2836.00,3.6257
2835.00,3.5107
2834.00,3.3850
2833.00,3.2436
2832.00,3.0944
2831.00,2.9545
2830.00,2.8277
2829.00,2.7066
2828.00,2.5883
2827.00,2.4756
2826.00,2.3712
2825.00,2.2757
2824.00,2.1881
2823.00,2.1072
2822.00,2.0318
2821.00,1.9609
2820.00,1.8946
2819.00,1.8335
2818.00,1.7776
2817.00,1.7262
2816.00,1.6781
2815.00,1.6324
2814.00,1.5891
2813.00,1.5481
2812.00,1.5093
2811.00,1.4724
2810.00,1.4374
2809.00,1.4041
2808.00,1.3726
2807.00,1.3428
2806.00,1.3146
2805.00,1.2878
2804.00,1.2623
2803.00,1.2379
2802.00,1.2145
2801.00,1.1919
2800.00,1.1705
2799.00,1.1501
2798.00,1.1305
2797.00,1.1115
2796.00,1.0930
2795.00,1.0752
2794.00,1.0582
2793.00,1.0418
2792.00,1.0258
2791.00,1.0099
2790.00,0.9944
2789.00,0.9791
2788.00,0.9642
2787.00,0.9495
2786.00,0.9353
2785.00,0.9215
2784.00,0.9083
2783.00,0.8955
2782.00,0.8831
2781.00,0.8711
2780.00,0.8595
2779.00,0.8482
2778.00,0.8376
2777.00,0.8275
2776.00,0.8181
2775.00,0.8091
2774.00,0.8007
2773.00,0.7928
2772.00,0.7854
2771.00,0.7786
2770.00,0.7723
2769.00,0.7666
2768.00,0.7614
2767.00,0.7567
2766.00,0.7526
2765.00,0.7490
2764.00,0.7459
2763.00,0.7431
2762.00,0.7407
2761.00,0.7385
2760.00,0.7365
2759.00,0.7346
2758.00,0.7328
2757.00,0.7310
2756.00,0.7294
2755.00,0.7280
2754.00,0.7267
2753.00,0.7256
2752.00,0.7248
2751.00,0.7244
2750.00,0.7242
2749.00,0.7243
2748.00,0.7248
2747.00,0.7255
2746.00,0.7267
2745.00,0.7282
2744.00,0.7301
2743.00,0.7324
2742.00,0.7353
2741.00,0.7388
2740.00,0.7429
2739.00,0.7476
2738.00,0.7530
2737.00,0.7591
2736.00,0.7659
2735.00,0.7732
2734.00,0.7809
2733.00,0.7884
2732.00,0.7953
2731.00,0.8011
2730.00,0.8055
2729.00,0.8083
2728.00,0.8095
2727.00,0.8092
2726.00,0.8077
2725.00,0.8052
2724.00,0.8021
2723.00,0.7984
2722.00,0.7944
2721.00,0.7899
2720.00,0.7850
2719.00,0.7797
2718.00,0.7742
2717.00,0.7684
2716.00,0.7622
2715.00,0.7557
2714.00,0.7491
2713.00,0.7426
2712.00,0.7363
2711.00,0.7306
2710.00,0.7255
2709.00,0.7210
2708.00,0.7171
2707.00,0.7136
2706.00,0.7107
2705.00,0.7081
2704.00,0.7061
2703.00,0.7045
2702.00,0.7034
2701.00,0.7027
2700.00,0.7023
2699.00,0.7021
2698.00,0.7024
2697.00,0.7029
2696.00,0.7038
2695.00,0.7050
2694.00,0.7063
2693.00,0.7078
2692.00,0.7094
2691.00,0.7111
2690.00,0.7128
2689.00,0.7144
2688.00,0.7160
2687.00,0.7174
2686.00,0.7186
2685.00,0.7196
2684.00,0.7204
2683.00,0.7210
2682.00,0.7217
2681.00,0.7223
2680.00,0.7230
2679.00,0.7237
2678.00,0.7243
2677.00,0.7250
2676.00,0.7256
2675.00,0.7262
2674.00,0.7268
2673.00,0.7271
2672.00,0.7272
2671.00,0.7270
2670.00,0.7265
2669.00,0.7257
2668.00,0.7243
2667.00,0.7225
2666.00,0.7203
2665.00,0.7177
2664.00,0.7149
2663.00,0.7119
2662.00,0.7088
2661.00,0.7056
2660.00,0.7023
2659.00,0.6990
2658.00,0.6957
2657.00,0.6926
2656.00,0.6895
2655.00,0.6866
2654.00,0.6839
2653.00,0.6812
2652.00,0.6786
2651.00,0.6762
2650.00,0.6739
2649.00,0.6718
2648.00,0.6698
2647.00,0.6679
2646.00,0.6661
2645.00,0.6644
2644.00,0.6628
2643.00,0.6612
2642.00,0.6597
2641.00,0.6583
2640.00,0.6570
2639.00,0.6558
2638.00,0.6547
2637.00,0.6537
2636.00,0.6527
2635.00,0.6517
2634.00,0.6507
2633.00,0.6498
2632.00,0.6490
2631.00,0.6482
2630.00,0.6474
2629.00,0.6467
2628.00,0.6459
2627.00,0.6451
2626.00,0.6444
2625.00,0.6437
2624.00,0.6432
2623.00,0.6427
2622.00,0.6421
2621.00,0.6417
2620.00,0.6413
2619.00,0.6410
2618.00,0.6408
2617.00,0.6405
2616.00,0.6403
2615.00,0.6400
2614.00,0.6397
2613.00,0.6393
2612.00,0.6389
2611.00,0.6383
2610.00,0.6375
2609.00,0.6368
2608.00,0.6361
2607.00,0.6354
2606.00,0.6348
2605.00,0.6341
2604.00,0.6334
2603.00,0.6325
2602.00,0.6315
2601.00,0.6303
2600.00,0.6291
2599.00,0.6278
2598.00,0.6264
2597.00,0.6249
2596.00,0.6232
2595.00,0.6215
2594.00,0.6197
2593.00,0.6178
2592.00,0.6158
2591.00,0.6137
2590.00,0.6116
2589.00,0.6095
2588.00,0.6075
2587.00,0.6053
2586.00,0.6031
2585.00,0.6007
2584.00,0.5983
2583.00,0.5959
2582.00,0.5935
2581.00,0.5911
2580.00,0.5887
2579.00,0.5863
2578.00,0.5839
2577.00,0.5814
2576.00,0.5791
2575.00,0.5769
2574.00,0.5748
2573.00,0.5728
2572.00,0.5709
2571.00,0.5690
2570.00,0.5673
2569.00,0.5656
2568.00,0.5641
2567.00,0.5626
2566.00,0.5612
2565.00,0.5597
2564.00,0.5581
2563.00,0.5566
2562.00,0.5552
2561.00,0.5539
2560.00,0.5526
2559.00,0.5515
2558.00,0.5505
2557.00,0.5497
2556.00,0.5490
2555.00,0.5486
2554.00,0.5483
2553.00,0.5481
2552.00,0.5481
2551.00,0.5482
2550.00,0.5484
2549.00,0.5485
2548.00,0.5487
2547.00,0.5487
2546.00,0.5486
2545.00,0.5484
2544.00,0.5482
2543.00,0.5481
2542.00,0.5480
2541.00,0.5482
2540.00,0.5488
2539.00,0.5497
2538.00,0.5512
2537.00,0.5531
2536.00,0.5554
2535.00,0.5582
2534.00,0.5613
2533.00,0.5648
2532.00,0.5684
2531.00,0.5723
2530.00,0.5762
2529.00,0.5802
2528.00,0.5839
2527.00,0.5875
2526.00,0.5909
2525.00,0.5940
2524.00,0.5968
2523.00,0.5994
2522.00,0.6018
2521.00,0.6038
2520.00,0.6054
2519.00,0.6065
2518.00,0.6071
2517.00,0.6073
2516.00,0.6071
2515.00,0.6068
2514.00,0.6063
2513.00,0.6057
2512.00,0.6050
2511.00,0.6041
2510.00,0.6029
2509.00,0.6014
2508.00,0.5993
2507.00,0.5967
2506.00,0.5934
2505.00,0.5897
2504.00,0.5855
2503.00,0.5808
2502.00,0.5756
2501.00,0.5701
2500.00,0.5644
2499.00,0.5584
2498.00,0.5522
2497.00,0.5457
2496.00,0.5391
2495.00,0.5325
2494.00,0.5258
2493.00,0.5192
2492.00,0.5127
2491.00,0.5063
2490.00,0.5002
2489.00,0.4945
2488.00,0.4890
2487.00,0.4839
2486.00,0.4790
2485.00,0.4745
2484.00,0.4702
2483.00,0.4662
2482.00,0.4623
2481.00,0.4587
2480.00,0.4552
2479.00,0.4519
2478.00,0.4488
2477.00,0.4458
2476.00,0.4430
2475.00,0.4403
2474.00,0.4377
2473.00,0.4354
2472.00,0.4332
2471.00,0.4311
2470.00,0.4292
2469.00,0.4274
2468.00,0.4257
2467.00,0.4242
2466.00,0.4227
2465.00,0.4214
2464.00,0.4201
2463.00,0.4189
2462.00,0.4178
2461.00,0.4168
2460.00,0.4159
2459.00,0.4150
2458.00,0.4142
2457.00,0.4134
2456.00,0.4127
2455.00,0.4120
2454.00,0.4114
2453.00,0.4109
2452.00,0.4104
2451.00,0.4100
2450.00,0.4096
2449.00,0.4092
2448.00,0.4089
2447.00,0.4086
2446.00,0.4084
2445.00,0.4081
2444.00,0.4079
2443.00,0.4077
2442.00,0.4076
2441.00,0.4074
2440.00,0.4073
2439.00,0.4072
2438.00,0.4071
2437.00,0.4070
2436.00,0.4070
2435.00,0.4069
2434.00,0.4069
2433.00,0.4069
2432.00,0.4069
2431.00,0.4068
2430.00,0.4068
2429.00,0.4067
2428.00,0.4066
2427.00,0.4066
2426.00,0.4066
2425.00,0.4066
2424.00,0.4066
2423.00,0.4066
2422.00,0.4065
2421.00,0.4065
2420.00,0.4066
2419.00,0.4066
2418.00,0.4066
2417.00,0.4066
2416.00,0.4066
2415.00,0.4066
2414.00,0.4065
2413.00,0.4064
2412.00,0.4063
2411.00,0.4062
2410.00,0.4062
2409.00,0.4062
2408.00,0.4061
2407.00,0.4061
2406.00,0.4060
2405.00,0.4059
2404.00,0.4057
2403.00,0.4055
2402.00,0.4054
2401.00,0.4052
2400.00,0.4050
2399.00,0.4048
2398.00,0.4046
2397.00,0.4044
2396.00,0.4042
2395.00,0.4039
2394.00,0.4037
2393.00,0.4035
2392.00,0.4033
2391.00,0.4031
2390.00,0.4029
2389.00,0.4028
2388.00,0.4027
2387.00,0.4027
2386.00,0.4027
2385.00,0.4028
2384.00,0.4029
2383.00,0.4030
2382.00,0.4030
2381.00,0.4031
2380.00,0.4030
2379.00,0.4029
2378.00,0.4027
2377.00,0.4025
2376.00,0.4024
2375.00,0.4022
2374.00,0.4021
2373.00,0.4021
2372.00,0.4021
2371.00,0.4021
2370.00,0.4022
2369.00,0.4022
2368.00,0.4022
2367.00,0.4021
2366.00,0.4020
2365.00,0.4020
2364.00,0.4019
2363.00,0.4019
2362.00,0.4018
2361.00,0.4017
2360.00,0.4015
2359.00,0.4013
2358.00,0.4010
2357.00,0.4008
2356.00,0.4007
2355.00,0.4007
2354.00,0.4008
2353.00,0.4009
2352.00,0.4009
2351.00,0.4008
2350.00,0.4009
2349.00,0.4013
2348.00,0.4016
2347.00,0.4017
2346.00,0.4013
2345.00,0.4008
2344.00,0.4002
2343.00,0.3997
2342.00,0.3994
2341.00,0.3992
2340.00,0.3991
2339.00,0.3990
2338.00,0.3988
2337.00,0.3987
2336.00,0.3986
2335.00,0.3985
2334.00,0.3983
2333.00,0.3981
2332.00,0.3979
2331.00,0.3976
2330.00,0.3973
2329.00,0.3970
2328.00,0.3968
2327.00,0.3966
2326.00,0.3964
2325.00,0.3963
2324.00,0.3960
2323.00,0.3956
2322.00,0.3952
2321.00,0.3948
2320.00,0.3946
2319.00,0.3944
2318.00,0.3942
2317.00,0.3940
2316.00,0.3938
2315.00,0.3935
2314.00,0.3931
2313.00,0.3927
2312.00,0.3923
2311.00,0.3919
2310.00,0.3914
2309.00,0.3911
2308.00,0.3907
2307.00,0.3904
2306.00,0.3901
2305.00,0.3898
2304.00,0.3896
2303.00,0.3893
2302.00,0.3891
2301.00,0.3888
2300.00,0.3885
2299.00,0.3882
2298.00,0.3879
2297.00,0.3876
2296.00,0.3873
2295.00,0.3870
2294.00,0.3867
2293.00,0.3863
2292.00,0.3860
2291.00,0.3855
2290.00,0.3851
2289.00,0.3848
2288.00,0.3845
2287.00,0.3843
2286.00,0.3840
2285.00,0.3837
2284.00,0.3835
2283.00,0.3832
2282.00,0.3828
2281.00,0.3824
2280.00,0.3820
2279.00,0.3815
2278.00,0.3811
2277.00,0.3808
2276.00,0.3804
2275.00,0.3801
2274.00,0.3798
2273.00,0.3795
2272.00,0.3792
2271.00,0.3790
2270.00,0.3788
2269.00,0.3786
2268.00,0.3785
2267.00,0.3783
2266.00,0.3781
2265.00,0.3779
2264.00,0.3777
2263.00,0.3774
2262.00,0.3772
2261.00,0.3769
2260.00,0.3767
2259.00,0.3764
2258.00,0.3761
2257.00,0.3757
2256.00,0.3754
2255.00,0.3750
2254.00,0.3746
2253.00,0.3743
2252.00,0.3740
2251.00,0.3737
2250.00,0.3733
2249.00,0.3729
2248.00,0.3725
2247.00,0.3721
2246.00,0.3718
2245.00,0.3715
2244.00,0.3712
2243.00,0.3709
2242.00,0.3706
2241.00,0.3703
2240.00,0.3700
2239.00,0.3697
2238.00,0.3694
2237.00,0.3691
2236.00,0.3688
2235.00,0.3685
2234.00,0.3682
2233.00,0.3680
2232.00,0.3678
2231.00,0.3676
2230.00,0.3673
2229.00,0.3672
2228.00,0.3670
2227.00,0.3668
2226.00,0.3666
2225.00,0.3664
2224.00,0.3662
2223.00,0.3660
2222.00,0.3659
2221.00,0.3657
2220.00,0.3656
2219.00,0.3654
2218.00,0.3652
2217.00,0.3651
2216.00,0.3650
2215.00,0.3649
2214.00,0.3648
2213.00,0.3648
2212.00,0.3647
2211.00,0.3647
2210.00,0.3646
2209.00,0.3645
2208.00,0.3645
2207.00,0.3644
2206.00,0.3643
2205.00,0.3643
2204.00,0.3644
2203.00,0.3644
2202.00,0.3643
2201.00,0.3643
2200.00,0.3643
2199.00,0.3643
2198.00,0.3643
2197.00,0.3644
2196.00,0.3644
2195.00,0.3645
2194.00,0.3645
2193.00,0.3645
2192.00,0.3646
2191.00,0.3646
2190.00,0.3647
2189.00,0.3647
2188.00,0.3647
2187.00,0.3648
2186.00,0.3648
2185.00,0.3648
2184.00,0.3647
2183.00,0.3647
2182.00,0.3646
2181.00,0.3645
2180.00,0.3644
2179.00,0.3642
2178.00,0.3641
2177.00,0.3639
2176.00,0.3638
2175.00,0.3636
2174.00,0.3634
2173.00,0.3633
2172.00,0.3632
2171.00,0.3631
2170.00,0.3629
2169.00,0.3628
2168.00,0.3627
2167.00,0.3627
2166.00,0.3626
2165.00,0.3626
2164.00,0.3625
2163.00,0.3624
2162.00,0.3623
2161.00,0.3623
2160.00,0.3623
2159.00,0.3622
2158.00,0.3622
2157.00,0.3622
2156.00,0.3622
2155.00,0.3622
2154.00,0.3622
2153.00,0.3622
2152.00,0.3622
2151.00,0.3620
2150.00,0.3617
2149.00,0.3614
2148.00,0.3611
2147.00,0.3608
2146.00,0.3604
2145.00,0.3599
2144.00,0.3594
2143.00,0.3588
2142.00,0.3582
2141.00,0.3577
2140.00,0.3571
2139.00,0.3566
2138.00,0.3561
2137.00,0.3556
2136.00,0.3551
2135.00,0.3547
2134.00,0.3542
2133.00,0.3538
2132.00,0.3534
2131.00,0.3530
2130.00,0.3527
2129.00,0.3524
2128.00,0.3521
2127.00,0.3518
2126.00,0.3514
2125.00,0.3511
2124.00,0.3508
2123.00,0.3505
2122.00,0.3502
2121.00,0.3499
2120.00,0.3496
2119.00,0.3493
2118.00,0.3490
2117.00,0.3487
2116.00,0.3485
2115.00,0.3483
2114.00,0.3481
2113.00,0.3479
2112.00,0.3477
2111.00,0.3475
2110.00,0.3473
2109.00,0.3470
2108.00,0.3469
2107.00,0.3467
2106.00,0.3465
2105.00,0.3464
2104.00,0.3462
2103.00,0.3461
2102.00,0.3458
2101.00,0.3456
2100.00,0.3454
2099.00,0.3452
2098.00,0.3450
2097.00,0.3449
2096.00,0.3448
2095.00,0.3447
2094.00,0.3445
2093.00,0.3444
2092.00,0.3443
2091.00,0.3442
2090.00,0.3442
2089.00,0.3441
2088.00,0.3441
2087.00,0.3440
2086.00,0.3439
2085.00,0.3439
2084.00,0.3440
2083.00,0.3440
2082.00,0.3440
2081.00,0.3441
2080.00,0.3441
2079.00,0.3441
2078.00,0.3441
2077.00,0.3442
2076.00,0.3443
2075.00,0.3444
2074.00,0.3445
2073.00,0.3446
2072.00,0.3448
2071.00,0.3450
2070.00,0.3451
2069.00,0.3453
2068.00,0.3456
2067.00,0.3458
2066.00,0.3460
2065.00,0.3461
2064.00,0.3463
2063.00,0.3465
2062.00,0.3467
2061.00,0.3469
2060.00,0.3471
2059.00,0.3473
2058.00,0.3475
2057.00,0.3477
2056.00,0.3480
2055.00,0.3482
2054.00,0.3484
2053.00,0.3486
2052.00,0.3488
2051.00,0.3491
2050.00,0.3494
2049.00,0.3497
2048.00,0.3501
2047.00,0.3504
2046.00,0.3507
2045.00,0.3511
2044.00,0.3515
2043.00,0.3518
2042.00,0.3520
2041.00,0.3522
2040.00,0.3525
2039.00,0.3528
2038.00,0.3530
2037.00,0.3532
2036.00,0.3534
2035.00,0.3536
2034.00,0.3537
2033.00,0.3538
2032.00,0.3540
2031.00,0.3541
2030.00,0.3541
2029.00,0.3542
2028.00,0.3542
2027.00,0.3542
2026.00,0.3540
2025.00,0.3539
2024.00,0.3537
2023.00,0.3533
2022.00,0.3529
2021.00,0.3524
2020.00,0.3520
2019.00,0.3513
2018.00,0.3505
2017.00,0.3496
2016.00,0.3486
2015.00,0.3477
2014.00,0.3469
2013.00,0.3461
2012.00,0.3454
2011.00,0.3447
2010.00,0.3440
2009.00,0.3435
2008.00,0.3430
2007.00,0.3425
2006.00,0.3421
2005.00,0.3418
2004.00,0.3415
2003.00,0.3413
2002.00,0.3411
2001.00,0.3408
2000.00,0.3407
1999.00,0.3404
1998.00,0.3401
1997.00,0.3399
1996.00,0.3398
1995.00,0.3398
1994.00,0.3398
1993.00,0.3398
1992.00,0.3397
1991.00,0.3397
1990.00,0.3397
1989.00,0.3398
1988.00,0.3398
1987.00,0.3398
1986.00,0.3398
1985.00,0.3399
1984.00,0.3400
1983.00,0.3401
1982.00,0.3401
1981.00,0.3402
1980.00,0.3402
1979.00,0.3403
1978.00,0.3403
1977.00,0.3404
1976.00,0.3405
1975.00,0.3406
1974.00,0.3406
1973.00,0.3407
1972.00,0.3409
1971.00,0.3411
1970.00,0.3414
1969.00,0.3418
1968.00,0.3420
1967.00,0.3421
1966.00,0.3422
1965.00,0.3426
1964.00,0.3431
1963.00,0.3436
1962.00,0.3440
1961.00,0.3444
1960.00,0.3447
1959.00,0.3449
1958.00,0.3451
1957.00,0.3452
1956.00,0.3454
1955.00,0.3456
1954.00,0.3457
1953.00,0.3460
1952.00,0.3463
1951.00,0.3467
1950.00,0.3470
1949.00,0.3473
1948.00,0.3476
1947.00,0.3478
1946.00,0.3482
1945.00,0.3488
1944.00,0.3495
1943.00,0.3501
1942.00,0.3507
1941.00,0.3516
1940.00,0.3526
1939.00,0.3535
1938.00,0.3542
1937.00,0.3548
1936.00,0.3554
1935.00,0.3559
1934.00,0.3564
1933.00,0.3570
1932.00,0.3577
1931.00,0.3585
1930.00,0.3594
1929.00,0.3603
1928.00,0.3613
1927.00,0.3624
1926.00,0.3636
1925.00,0.3649
1924.00,0.3659
1923.00,0.3666
1922.00,0.3673
1921.00,0.3683
1920.00,0.3694
1919.00,0.3702
1918.00,0.3707
1917.00,0.3711
1916.00,0.3715
1915.00,0.3717
1914.00,0.3716
1913.00,0.3713
1912.00,0.3710
1911.00,0.3705
1910.00,0.3698
1909.00,0.3692
1908.00,0.3687
1907.00,0.3683
1906.00,0.3680
1905.00,0.3678
1904.00,0.3676
1903.00,0.3675
1902.00,0.3673
1901.00,0.3673
1900.00,0.3673
1899.00,0.3674
1898.00,0.3676
1897.00,0.3677
1896.00,0.3677
1895.00,0.3674
1894.00,0.3671
1893.00,0.3671
1892.00,0.3674
1891.00,0.3676
1890.00,0.3676
1889.00,0.3676
1888.00,0.3680
1887.00,0.3684
1886.00,0.3687
1885.00,0.3689
1884.00,0.3691
1883.00,0.3692
1882.00,0.3693
1881.00,0.3695
1880.00,0.3697
1879.00,0.3698
1878.00,0.3699
1877.00,0.3699
1876.00,0.3699
1875.00,0.3695
1874.00,0.3689
1873.00,0.3685
1872.00,0.3685
1871.00,0.3688
1870.00,0.3690
1869.00,0.3689
1868.00,0.3688
1867.00,0.3689
1866.00,0.3691
1865.00,0.3694
1864.00,0.3697
1863.00,0.3699
1862.00,0.3699
1861.00,0.3700
1860.00,0.3700
1859.00,0.3700
1858.00,0.3700
1857.00,0.3700
1856.00,0.3702
1855.00,0.3703
1854.00,0.3703
1853.00,0.3703
1852.00,0.3705
1851.00,0.3706
1850.00,0.3704
1849.00,0.3699
1848.00,0.3697
1847.00,0.3698
1846.00,0.3702
1845.00,0.3706
1844.00,0.3710
1843.00,0.3717
1842.00,0.3726
1841.00,0.3738
1840.00,0.3748
1839.00,0.3755
1838.00,0.3761
1837.00,0.3765
1836.00,0.3768
1835.00,0.3769
1834.00,0.3770
1833.00,0.3778
1832.00,0.3790
1831.00,0.3797
1830.00,0.3799
1829.00,0.3803
1828.00,0.3814
1827.00,0.3829
1826.00,0.3842
1825.00,0.3856
1824.00,0.3872
1823.00,0.3887
1822.00,0.3902
1821.00,0.3919
1820.00,0.3937
1819.00,0.3955
1818.00,0.3974
1817.00,0.3995
1816.00,0.4019
1815.00,0.4044
1814.00,0.4071
1813.00,0.4104
1812.00,0.4140
1811.00,0.4181
1810.00,0.4228
1809.00,0.4285
1808.00,0.4350
1807.00,0.4424
1806.00,0.4509
1805.00,0.4612
1804.00,0.4740
1803.00,0.4895
1802.00,0.5081
1801.00,0.5293
1800.00,0.5510
1799.00,0.5709
1798.00,0.5872
1797.00,0.5994
1796.00,0.6081
1795.00,0.6143
1794.00,0.6187
1793.00,0.6204
1792.00,0.6187
1791.00,0.6138
1790.00,0.6062
1789.00,0.5961
1788.00,0.5837
1787.00,0.5698
1786.00,0.5554
1785.00,0.5414
1784.00,0.5292
1783.00,0.5191
1782.00,0.5102
1781.00,0.5015
1780.00,0.4926
1779.00,0.4839
1778.00,0.4754
1777.00,0.4674
1776.00,0.4604
1775.00,0.4549
1774.00,0.4504
1773.00,0.4460
1772.00,0.4424
1771.00,0.4405
1770.00,0.4405
1769.00,0.4414
1768.00,0.4422
1767.00,0.4428
1766.00,0.4434
1765.00,0.4443
1764.00,0.4454
1763.00,0.4463
1762.00,0.4471
1761.00,0.4481
1760.00,0.4496
1759.00,0.4514
1758.00,0.4530
1757.00,0.4544
1756.00,0.4558
1755.00,0.4573
1754.00,0.4591
1753.00,0.4613
1752.00,0.4639
1751.00,0.4670
1750.00,0.4704
1749.00,0.4740
1748.00,0.4776
1747.00,0.4812
1746.00,0.4847
1745.00,0.4883
1744.00,0.4919
1743.00,0.4958
1742.00,0.5002
1741.00,0.5050
1740.00,0.5093
1739.00,0.5126
1738.00,0.5152
1737.00,0.5180
1736.00,0.5209
1735.00,0.5222
1734.00,0.5219
1733.00,0.5210
1732.00,0.5206
1731.00,0.5203
1730.00,0.5196
1729.00,0.5192
1728.00,0.5194
1727.00,0.5202
1726.00,0.5217
1725.00,0.5239
1724.00,0.5262
1723.00,0.5283
1722.00,0.5305
1721.00,0.5336
1720.00,0.5380
1719.00,0.5427
1718.00,0.5472
1717.00,0.5520
1716.00,0.5572
1715.00,0.5626
1714.00,0.5681
1713.00,0.5737
1712.00,0.5790
1711.00,0.5838
1710.00,0.5884
1709.00,0.5932
1708.00,0.5981
1707.00,0.6025
1706.00,0.6055
1705.00,0.6070
1704.00,0.6073
1703.00,0.6076
1702.00,0.6082
1701.00,0.6084
1700.00,0.6079
1699.00,0.6080
1698.00,0.6088
1697.00,0.6086
1696.00,0.6069
1695.00,0.6052
1694.00,0.6045
1693.00,0.6047
1692.00,0.6049
1691.00,0.6044
1690.00,0.6032
1689.00,0.6018
1688.00,0.6010
1687.00,0.6011
1686.00,0.6016
1685.00,0.6012
1684.00,0.6012
1683.00,0.6029
1682.00,0.6054
1681.00,0.6075
1680.00,0.6087
1679.00,0.6093
1678.00,0.6102
1677.00,0.6121
1676.00,0.6147
1675.00,0.6175
1674.00,0.6204
1673.00,0.6235
1672.00,0.6268
1671.00,0.6301
1670.00,0.6334
1669.00,0.6373
1668.00,0.6413
1667.00,0.6448
1666.00,0.6480
1665.00,0.6517
1664.00,0.6556
1663.00,0.6598
1662.00,0.6640
1661.00,0.6683
1660.00,0.6722
1659.00,0.6748
1658.00,0.6763
1657.00,0.6778
1656.00,0.6811
1655.00,0.6859
1654.00,0.6908
1653.00,0.6976
1652.00,0.7047
1651.00,0.7098
1650.00,0.7146
1649.00,0.7202
1648.00,0.7265
1647.00,0.7336
1646.00,0.7421
1645.00,0.7511
1644.00,0.7600
1643.00,0.7685
1642.00,0.7768
1641.00,0.7856
1640.00,0.7948
1639.00,0.8043
1638.00,0.8145
1637.00,0.8268
1636.00,0.8427
1635.00,0.8611
1634.00,0.8781
1633.00,0.8931
1632.00,0.9073
1631.00,0.9216
1630.00,0.9370
1629.00,0.9544
1628.00,0.9737
1627.00,0.9934
1626.00,1.0130
1625.00,1.0343
1624.00,1.0589
1623.00,1.0864
1622.00,1.1141
1621.00,1.1407
1620.00,1.1669
1619.00,1.1941
1618.00,1.2257
1617.00,1.2660
1616.00,1.3132
1615.00,1.3577
1614.00,1.3953
1613.00,1.4315
1612.00,1.4710
1611.00,1.5128
1610.00,1.5545
1609.00,1.5983
1608.00,1.6462
1607.00,1.6948
1606.00,1.7403
1605.00,1.7858
1604.00,1.8346
1603.00,1.8826
1602.00,1.9267
1601.00,1.9719
1600.00,2.0206
1599.00,2.0639
1598.00,2.0973
1597.00,2.1334
1596.00,2.1825
1595.00,2.2361
1594.00,2.2838
1593.00,2.3366
1592.00,2.4076
1591.00,2.4872
1590.00,2.5618
1589.00,2.6466
1588.00,2.7586
1587.00,2.8687
1586.00,2.9398
1585.00,3.0160
1584.00,3.1573
1583.00,3.3259
1582.00,3.4143
1581.00,3.4878
1580.00,3.6137
1579.00,3.5953
1578.00,3.4147
1577.00,3.3201
1576.00,3.3779
1575.00,3.4225
1574.00,3.3342
1573.00,3.2745
1572.00,3.2666
1571.00,3.1994
1570.00,3.0683
1569.00,2.9969
1568.00,3.0077
1567.00,3.0294
1566.00,3.0280
1565.00,3.0555
1564.00,3.1367
1563.00,3.1873
1562.00,3.1483
1561.00,3.1124
1560.00,3.1750
1559.00,3.2622
1558.00,3.2056
1557.00,3.1510
1556.00,3.1378
1555.00,3.0442
1554.00,2.9084
1553.00,2.8270
1552.00,2.8066
1551.00,2.7933
1550.00,2.7570
1549.00,2.7247
1548.00,2.7145
1547.00,2.7093
1546.00,2.6983
1545.00,2.7007
1544.00,2.7255
1543.00,2.7440
1542.00,2.7381
1541.00,2.7489
1540.00,2.8062
1539.00,2.8624
1538.00,2.8832
1537.00,2.9128
1536.00,2.9734
1535.00,3.0339
1534.00,3.0654
1533.00,3.1084
1532.00,3.1893
1531.00,3.2488
1530.00,3.2721
1529.00,3.3522
1528.00,3.5578
1527.00,3.7314
1526.00,3.5806
1525.00,3.4339
1524.00,3.4254
1523.00,3.4344
1522.00,3.3616
1521.00,3.3232
1520.00,3.3817
1519.00,3.4421
1518.00,3.4387
1517.00,3.4947
1516.00,3.6684
1515.00,3.8190
1514.00,3.8307
1513.00,3.8101
1512.00,3.8167
1511.00,3.7388
1510.00,3.5994
1509.00,3.5563
1508.00,3.6517
1507.00,3.8414
1506.00,3.8297
1505.00,3.7327
1504.00,3.8182
1503.00,3.8716
1502.00,3.7820
1501.00,3.7422
1500.00,3.8928
1499.00,4.1499
1498.00,4.1315
1497.00,4.0680
1496.00,4.0111
1495.00,3.9279
1494.00,3.7634
1493.00,3.6798
1492.00,3.7578
1491.00,3.7884
1490.00,3.6902
1489.00,3.6880
1488.00,3.9142
1487.00,4.4739
1486.00,4.4621
1485.00,4.1300
1484.00,4.1556
1483.00,4.0078
1482.00,3.7404
1481.00,3.6772
1480.00,3.8468
1479.00,4.2282
1478.00,4.5225
1477.00,4.7374
1476.00,4.5160
1475.00,4.1858
1474.00,4.0867
1473.00,4.0378
1472.00,4.1858
1471.00,4.1045
1470.00,3.7714
1469.00,3.7053
1468.00,3.8958
1467.00,4.2650
1466.00,4.5518
1465.00,4.3869
1464.00,4.0233
1463.00,3.9040
1462.00,3.9571
1461.00,3.9554
1460.00,3.8501
1459.00,3.8558
1458.00,4.2322
1457.00,4.7747
1456.00,4.1631
1455.00,3.9626
1454.00,3.8678
1453.00,3.9104
1452.00,4.1224
1451.00,4.2786
1450.00,4.3597
1449.00,4.2203
1448.00,4.0819
1447.00,3.9945
1446.00,3.9974
1445.00,4.0205
1444.00,4.0575
1443.00,4.0622
1442.00,4.0266
1441.00,4.2485
1440.00,4.2420
1439.00,3.9476
1438.00,3.8335
1437.00,3.7616
1436.00,3.7995
1435.00,3.9913
1434.00,4.4096
1433.00,4.7720
1432.00,4.1017
1431.00,3.9441
1430.00,4.0548
1429.00,3.9129
1428.00,3.7627
1427.00,3.7911
1426.00,3.8873
1425.00,3.9907
1424.00,4.1721
1423.00,4.2421
1422.00,4.1039
1421.00,4.2410
1420.00,4.4320
1419.00,4.1173
1418.00,3.9391
1417.00,3.7941
1416.00,3.7260
1415.00,3.7451
1414.00,3.8087
1413.00,3.8174
1412.00,3.7320
1411.00,3.7160
1410.00,3.7732
1409.00,3.8278
1408.00,3.8381
1407.00,3.8488
1406.00,3.9206
1405.00,4.0815
1404.00,4.5312
1403.00,4.4383
1402.00,4.0546
1401.00,4.0640
1400.00,4.1296
1399.00,4.2222
1398.00,4.5561
1397.00,4.3503
1396.00,4.2536
1395.00,4.1030
1394.00,3.8182
1393.00,3.7508
1392.00,3.8717
1391.00,4.1164
1390.00,4.3298
1389.00,4.0136
1388.00,3.7720
1387.00,3.6973
1386.00,3.6885
1385.00,3.7198
1384.00,3.7919
1383.00,3.8176
1382.00,3.7931
1381.00,3.8447
1380.00,4.0263
1379.00,4.1715
1378.00,3.9653
1377.00,3.8160
1376.00,3.8064
1375.00,3.7342
1374.00,3.5616
1373.00,3.4458
1372.00,3.4074
1371.00,3.3675
1370.00,3.2925
1369.00,3.2288
1368.00,3.1974
1367.00,3.1662
1366.00,3.1043
1365.00,3.0133
1364.00,2.8939
1363.00,2.7496
1362.00,2.6083
1361.00,2.4939
1360.00,2.4064
1359.00,2.3354
1358.00,2.2757
1357.00,2.2272
1356.00,2.1883
1355.00,2.1556
1354.00,2.1278
1353.00,2.1053
1352.00,2.0855
1351.00,2.0645
1350.00,2.0418
1349.00,2.0205
1348.00,2.0016
1347.00,1.9834
1346.00,1.9660
1345.00,1.9515
1344.00,1.9400
1343.00,1.9295
1342.00,1.9191
1341.00,1.9091
1340.00,1.8968
1339.00,1.8760
1338.00,1.8452
1337.00,1.8093
1336.00,1.7732
1335.00,1.7382
1334.00,1.7039
1333.00,1.6709
1332.00,1.6396
1331.00,1.6103
1330.00,1.5836
1329.00,1.5604
1328.00,1.5412
1327.00,1.5256
1326.00,1.5135
1325.00,1.5051
1324.00,1.5002
1323.00,1.4981
1322.00,1.4976
1321.00,1.4977
1320.00,1.4972
1319.00,1.4950
1318.00,1.4912
1317.00,1.4867
1316.00,1.4824
1315.00,1.4785
1314.00,1.4752
1313.00,1.4732
1312.00,1.4728
1311.00,1.4733
1310.00,1.4737
1309.00,1.4740
1308.00,1.4743
1307.00,1.4743
1306.00,1.4732
1305.00,1.4707
1304.00,1.4658
1303.00,1.4579
1302.00,1.4473
1301.00,1.4352
1300.00,1.4224
1299.00,1.4085
1298.00,1.3930
1297.00,1.3759
1296.00,1.3581
1295.00,1.3406
1294.00,1.3242
1293.00,1.3095
1292.00,1.2962
1291.00,1.2840
1290.00,1.2727
1289.00,1.2623
1288.00,1.2530
1287.00,1.2449
1286.00,1.2378
1285.00,1.2315
1284.00,1.2254
1283.00,1.2189
1282.00,1.2116
1281.00,1.2036
1280.00,1.1953
1279.00,1.1869
1278.00,1.1787
1277.00,1.1713
1276.00,1.1651
1275.00,1.1602
1274.00,1.1567
1273.00,1.1548
1272.00,1.1547
1271.00,1.1566
1270.00,1.1604
1269.00,1.1659
1268.00,1.1723
1267.00,1.1780
1266.00,1.1814
1265.00,1.1815
1264.00,1.1784
1263.00,1.1735
1262.00,1.1687
1261.00,1.1660
1260.00,1.1661
1259.00,1.1685
1258.00,1.1727
1257.00,1.1783
1256.00,1.1851
1255.00,1.1928
1254.00,1.2008
1253.00,1.2092
1252.00,1.2183
1251.00,1.2286
1250.00,1.2405
1249.00,1.2543
1248.00,1.2700
1247.00,1.2871
1246.00,1.3044
1245.00,1.3216
1244.00,1.3388
1243.00,1.3565
1242.00,1.3747
1241.00,1.3935
1240.00,1.4134
1239.00,1.4344
1238.00,1.4566
1237.00,1.4806
1236.00,1.5067
1235.00,1.5351
1234.00,1.5661
1233.00,1.5996
1232.00,1.6345
1231.00,1.6695
1230.00,1.7047
1229.00,1.7417
1228.00,1.7807
1227.00,1.8191
1226.00,1.8553
1225.00,1.8912
1224.00,1.9291
1223.00,1.9677
1222.00,2.0045
1221.00,2.0401
1220.00,2.0773
1219.00,2.1171
1218.00,2.1602
1217.00,2.2073
1216.00,2.2550
1215.00,2.2955
1214.00,2.3276
1213.00,2.3620
1212.00,2.4076
1211.00,2.4589
1210.00,2.5029
1209.00,2.5360
1208.00,2.5649
1207.00,2.5932
1206.00,2.6222
1205.00,2.6558
1204.00,2.6919
1203.00,2.7227
1202.00,2.7484
1201.00,2.7769
1200.00,2.8055
1199.00,2.8174
1198.00,2.8079
1197.00,2.7932
1196.00,2.7788
1195.00,2.7505
1194.00,2.7026
1193.00,2.6503
1192.00,2.6031
1191.00,2.5585
1190.00,2.5138
1189.00,2.4698
1188.00,2.4225
1187.00,2.3662
1186.00,2.3044
1185.00,2.2453
1184.00,2.1896
1183.00,2.1306
1182.00,2.0651
1181.00,1.9966
1180.00,1.9295
1179.00,1.8647
1178.00,1.8020
1177.00,1.7423
1176.00,1.6870
1175.00,1.6370
1174.00,1.5927
1173.00,1.5539
1172.00,1.5192
1171.00,1.4872
1170.00,1.4573
1169.00,1.4292
1168.00,1.4031
1167.00,1.3790
1166.00,1.3573
1165.00,1.3384
1164.00,1.3221
1163.00,1.3081
1162.00,1.2965
1161.00,1.2875
1160.00,1.2807
1159.00,1.2756
1158.00,1.2721
1157.00,1.2705
1156.00,1.2713
1155.00,1.2748
1154.00,1.2817
1153.00,1.2928
1152.00,1.3092
1151.00,1.3314
1150.00,1.3596
1149.00,1.3940
1148.00,1.4343
1147.00,1.4783
1146.00,1.5221
1145.00,1.5607
1144.00,1.5892
1143.00,1.6037
1142.00,1.6042
1141.00,1.5942
1140.00,1.5788
1139.00,1.5613
1138.00,1.5436
1137.00,1.5258
1136.00,1.5070
1135.00,1.4866
1134.00,1.4646
1133.00,1.4400
1132.00,1.4102
1131.00,1.3728
1130.00,1.3288
1129.00,1.2825
1128.00,1.2383
1127.00,1.1989
1126.00,1.1656
1125.00,1.1385
1124.00,1.1170
1123.00,1.1001
1122.00,1.0864
1121.00,1.0750
1120.00,1.0655
1119.00,1.0582
1118.00,1.0535
1117.00,1.0515
1116.00,1.0523
1115.00,1.0550
1114.00,1.0581
1113.00,1.0596
1112.00,1.0578
1111.00,1.0514
1110.00,1.0411
1109.00,1.0288
1108.00,1.0168
1107.00,1.0066
1106.00,0.9989
1105.00,0.9938
1104.00,0.9910
1103.00,0.9904
1102.00,0.9918
1101.00,0.9951
1100.00,0.9997
1099.00,1.0053
1098.00,1.0116
1097.00,1.0187
1096.00,1.0268
1095.00,1.0366
1094.00,1.0482
1093.00,1.0621
1092.00,1.0779
1091.00,1.0951
1090.00,1.1130
1089.00,1.1307
1088.00,1.1476
1087.00,1.1642
1086.00,1.1829
1085.00,1.2041
1084.00,1.2225
1083.00,1.2289
1082.00,1.2190
1081.00,1.1995
1080.00,1.1810
1079.00,1.1689
1078.00,1.1619
1077.00,1.1566
1076.00,1.1507
1075.00,1.1443
1074.00,1.1379
1073.00,1.1330
1072.00,1.1320
1071.00,1.1378
1070.00,1.1534
1069.00,1.1816
1068.00,1.2250
1067.00,1.2845
1066.00,1.3568
1065.00,1.4325
1064.00,1.4944
1063.00,1.5230
1062.00,1.5107
1061.00,1.4693
1060.00,1.4184
1059.00,1.3713
1058.00,1.3331
1057.00,1.3031
1056.00,1.2792
1055.00,1.2590
1054.00,1.2406
1053.00,1.2225
1052.00,1.2038
1051.00,1.1845
1050.00,1.1651
1049.00,1.1465
1048.00,1.1287
1047.00,1.1107
1046.00,1.0918
1045.00,1.0722
1044.00,1.0527
1043.00,1.0347
1042.00,1.0191
1041.00,1.0070
1040.00,0.9993
1039.00,0.9968
1038.00,0.9996
1037.00,1.0071
1036.00,1.0189
1035.00,1.0340
1034.00,1.0516
1033.00,1.0699
1032.00,1.0872
1031.00,1.1024
1030.00,1.1147
1029.00,1.1235
1028.00,1.1284
1027.00,1.1295
1026.00,1.1271
1025.00,1.1219
1024.00,1.1138
1023.00,1.1034
1022.00,1.0925
1021.00,1.0848
1020.00,1.0838
1019.00,1.0909
1018.00,1.1041
1017.00,1.1182
1016.00,1.1250
1015.00,1.1174
1014.00,1.0930
1013.00,1.0557
1012.00,1.0126
1011.00,0.9703
1010.00,0.9330
1009.00,0.9025
1008.00,0.8790
1007.00,0.8613
1006.00,0.8482
1005.00,0.8390
1004.00,0.8331
1003.00,0.8301
1002.00,0.8288
1001.00,0.8278
1000.00,0.8258
999.00,0.8219
998.00,0.8160
997.00,0.8085
996.00,0.8003
995.00,0.7922
994.00,0.7847
993.00,0.7781
992.00,0.7723
991.00,0.7673
990.00,0.7628
989.00,0.7587
988.00,0.7549
987.00,0.7514
986.00,0.7487
985.00,0.7468
984.00,0.7459
983.00,0.7459
982.00,0.7465
981.00,0.7474
980.00,0.7486
979.00,0.7501
978.00,0.7520
977.00,0.7542
976.00,0.7564
975.00,0.7585
974.00,0.7602
973.00,0.7616
972.00,0.7626
971.00,0.7635
970.00,0.7645
969.00,0.7652
968.00,0.7656
967.00,0.7651
966.00,0.7636
965.00,0.7606
964.00,0.7562
963.00,0.7506
962.00,0.7441
961.00,0.7376
960.00,0.7317
959.00,0.7267
958.00,0.7225
957.00,0.7192
956.00,0.7163
955.00,0.7137
954.00,0.7114
953.00,0.7090
952.00,0.7065
951.00,0.7040
950.00,0.7018
949.00,0.7001
948.00,0.6990
947.00,0.6986
946.00,0.6987
945.00,0.6987
944.00,0.6988
943.00,0.6989
942.00,0.6991
941.00,0.6995
940.00,0.6999
939.00,0.7005
938.00,0.7010
937.00,0.7011
936.00,0.7010
935.00,0.7006
934.00,0.7001
933.00,0.6992
932.00,0.6980
931.00,0.6963
930.00,0.6942
929.00,0.6916
928.00,0.6887
927.00,0.6863
926.00,0.6851
925.00,0.6861
924.00,0.6898
923.00,0.6960
922.00,0.7036
921.00,0.7104
920.00,0.7138
919.00,0.7120
918.00,0.7048
917.00,0.6939
916.00,0.6821
915.00,0.6713
914.00,0.6627
913.00,0.6567
912.00,0.6529
911.00,0.6510
910.00,0.6503
909.00,0.6500
908.00,0.6497
907.00,0.6492
906.00,0.6490
905.00,0.6495
904.00,0.6508
903.00,0.6532
902.00,0.6566
901.00,0.6613
900.00,0.6674
899.00,0.6750
898.00,0.6838
897.00,0.6937
896.00,0.7047
895.00,0.7172
894.00,0.7318
893.00,0.7498
892.00,0.7734
891.00,0.8073
890.00,0.8601
889.00,0.9458
888.00,1.0825
887.00,1.2907
886.00,1.5940
885.00,2.0218
884.00,2.5829
883.00,2.9192
882.00,2.6542
881.00,2.3698
880.00,2.1653
879.00,2.0292
878.00,1.9506
877.00,1.9181
876.00,1.9267
875.00,1.9770
874.00,2.0596
873.00,2.1155
872.00,2.0223
871.00,1.7830
870.00,1.5272
869.00,1.3204
868.00,1.1721
867.00,1.0741
866.00,1.0141
865.00,0.9808
864.00,0.9668
863.00,0.9686
862.00,0.9839
861.00,1.0114
860.00,1.0529
859.00,1.1146
858.00,1.2045
857.00,1.3299
856.00,1.4915
855.00,1.6461
854.00,1.6458
853.00,1.4497
852.00,1.2263
851.00,1.0609
850.00,0.9581
849.00,0.9007
848.00,0.8700
847.00,0.8544
846.00,0.8500
845.00,0.8528
844.00,0.8544
843.00,0.8479
842.00,0.8364
841.00,0.8294
840.00,0.8330
839.00,0.8468
838.00,0.8663
837.00,0.8871
836.00,0.9054
835.00,0.9183
834.00,0.9239
833.00,0.9226
832.00,0.9155
831.00,0.9035
830.00,0.8877
829.00,0.8700
828.00,0.8520
827.00,0.8349
826.00,0.8198
825.00,0.8077
824.00,0.7993
823.00,0.7943
822.00,0.7918
821.00,0.7909
820.00,0.7908
819.00,0.7907
818.00,0.7902
817.00,0.7891
816.00,0.7873
815.00,0.7845
814.00,0.7803
813.00,0.7746
812.00,0.7676
811.00,0.7597
810.00,0.7512
809.00,0.7427
808.00,0.7347
807.00,0.7273
806.00,0.7207
805.00,0.7146
804.00,0.7086
803.00,0.7023
802.00,0.6956
801.00,0.6888
800.00,0.6828
799.00,0.6786
798.00,0.6763
797.00,0.6753
796.00,0.6748
795.00,0.6747
794.00,0.6749
793.00,0.6754
792.00,0.6765
791.00,0.6781
790.00,0.6803
789.00,0.6828
788.00,0.6857
787.00,0.6886
786.00,0.6916
785.00,0.6949
784.00,0.6987
783.00,0.7029
782.00,0.7074
781.00,0.7121
780.00,0.7170
779.00,0.7221
778.00,0.7274
777.00,0.7329
776.00,0.7386
775.00,0.7447
774.00,0.7516
773.00,0.7593
772.00,0.7680
771.00,0.7778
770.00,0.7886
769.00,0.8006
768.00,0.8132
767.00,0.8246
766.00,0.8319
765.00,0.8333
764.00,0.8300
763.00,0.8250
762.00,0.8216
761.00,0.8211
760.00,0.8232
759.00,0.8271
758.00,0.8324
757.00,0.8387
756.00,0.8458
755.00,0.8526
754.00,0.8587
753.00,0.8643
752.00,0.8701
751.00,0.8769
750.00,0.8848
749.00,0.8934
748.00,0.9021
747.00,0.9102
746.00,0.9173
745.00,0.9235
744.00,0.9291
743.00,0.9347
742.00,0.9413
741.00,0.9498
740.00,0.9600
739.00,0.9712
738.00,0.9827
737.00,0.9950
736.00,1.0089
735.00,1.0249
734.00,1.0426
733.00,1.0616
732.00,1.0820
731.00,1.1047
730.00,1.1302
729.00,1.1593
728.00,1.1935
727.00,1.2344
726.00,1.2828
725.00,1.3380
724.00,1.3973
723.00,1.4545
722.00,1.4998
721.00,1.5221
720.00,1.5167
719.00,1.4918
718.00,1.4642
717.00,1.4523
716.00,1.4688
715.00,1.5141
714.00,1.5670
713.00,1.5834
712.00,1.5344
711.00,1.4418
710.00,1.3437
709.00,1.2598
708.00,1.1946
707.00,1.1473
706.00,1.1155
705.00,1.0972
704.00,1.0918
703.00,1.0999
702.00,1.1201
701.00,1.1445
700.00,1.1602
699.00,1.1576
698.00,1.1376
697.00,1.1089
696.00,1.0790
695.00,1.0515
694.00,1.0272
693.00,1.0058
692.00,0.9866
691.00,0.9686
690.00,0.9510
689.00,0.9331
688.00,0.9151
687.00,0.8973
686.00,0.8806
685.00,0.8656
684.00,0.8531
683.00,0.8433
682.00,0.8362
681.00,0.8320
680.00,0.8310
679.00,0.8335
678.00,0.8394
677.00,0.8480
676.00,0.8578
675.00,0.8671
674.00,0.8747
673.00,0.8799
672.00,0.8826
671.00,0.8832
670.00,0.8814
669.00,0.8760
668.00,0.8673
667.00,0.8599
666.00,0.8561
665.00,0.8539
664.00,0.8516
663.00,0.8490
662.00,0.8463
661.00,0.8441
660.00,0.8428
659.00,0.8428
658.00,0.8438
657.00,0.8455
656.00,0.8472
655.00,0.8487
654.00,0.8502
653.00,0.8518
652.00,0.8538
651.00,0.8563
650.00,0.8595
649.00,0.8629
648.00,0.8661
647.00,0.8690
646.00,0.8712
645.00,0.8732
644.00,0.8753
643.00,0.8782
642.00,0.8822
641.00,0.8875
640.00,0.8950
639.00,0.9055
638.00,0.9198
637.00,0.9374
636.00,0.9570
635.00,0.9768
634.00,0.9957
633.00,1.0132
632.00,1.0289
631.00,1.0423
630.00,1.0535
629.00,1.0641
628.00,1.0749
627.00,1.0855
626.00,1.0956
625.00,1.1056
624.00,1.1164
623.00,1.1274
622.00,1.1368
621.00,1.1437
620.00,1.1482
619.00,1.1513
618.00,1.1545
617.00,1.1588
616.00,1.1637
615.00,1.1663
614.00,1.1639
613.00,1.1562
612.00,1.1448
611.00,1.1315
610.00,1.1171
609.00,1.1027
608.00,1.0888
607.00,1.0759
606.00,1.0641
605.00,1.0542
604.00,1.0469
603.00,1.0428
602.00,1.0417
601.00,1.0438
600.00,1.0494
599.00,1.0593
598.00,1.0740
597.00,1.0939
596.00,1.1184
595.00,1.1460
594.00,1.1757
593.00,1.2067
592.00,1.2393
591.00,1.2728
590.00,1.3068
589.00,1.3403
588.00,1.3694
587.00,1.3870
586.00,1.3888
585.00,1.3782
584.00,1.3611
583.00,1.3409
582.00,1.3192
581.00,1.2989
580.00,1.2829
579.00,1.2720
578.00,1.2654
577.00,1.2631
576.00,1.2654
575.00,1.2708
574.00,1.2768
573.00,1.2824
572.00,1.2883
571.00,1.2946
570.00,1.3005
569.00,1.3049
568.00,1.3079
567.00,1.3099
566.00,1.3123
565.00,1.3164
564.00,1.3211
563.00,1.3226
562.00,1.3178
561.00,1.3088
560.00,1.2998
559.00,1.2931
558.00,1.2878
557.00,1.2836
556.00,1.2820
555.00,1.2844
554.00,1.2898
553.00,1.2946
552.00,1.2957
551.00,1.2927
550.00,1.2884
