Created as New Dataset,
cm-1,A
4000.00,0.4489
3999.00,0.4486
3998.00,0.4482
3997.00,0.4478
3996.00,0.4473
3995.00,0.4468
3994.00,0.4462
3993.00,0.4456
3992.00,0.4450
3991.00,0.4444
3990.00,0.4438
3989.00,0.4433
3988.00,0.4427
3987.00,0.4421
3986.00,0.4415
3985.00,0.4408
3984.00,0.4402
3983.00,0.4395
3982.00,0.4389
3981.00,0.4383
3980.00,0.4377
3979.00,0.4370
3978.00,0.4364
3977.00,0.4358
3976.00,0.4353
3975.00,0.4349
3974.00,0.4344
3973.00,0.4340
3972.00,0.4336
3971.00,0.4332
3970.00,0.4329
3969.00,0.4325
3968.00,0.4321
3967.00,0.4317
3966.00,0.4313
3965.00,0.4309
3964.00,0.4306
3963.00,0.4303
3962.00,0.4300
3961.00,0.4297
3960.00,0.4293
3959.00,0.4290
3958.00,0.4288
3957.00,0.4286
3956.00,0.4285
3955.00,0.4284
3954.00,0.4283
3953.00,0.4281
3952.00,0.4280
3951.00,0.4277
3950.00,0.4275
3949.00,0.4272
3948.00,0.4270
3947.00,0.4269
3946.00,0.4268
3945.00,0.4266
3944.00,0.4265
3943.00,0.4265
3942.00,0.4264
3941.00,0.4264
3940.00,0.4263
3939.00,0.4262
3938.00,0.4261
3937.00,0.4261
3936.00,0.4260
3935.00,0.4259
3934.00,0.4257
3933.00,0.4256
3932.00,0.4255
3931.00,0.4254
3930.00,0.4252
3929.00,0.4250
3928.00,0.4248
3927.00,0.4247
3926.00,0.4246
3925.00,0.4246
3924.00,0.4246
3923.00,0.4244
3922.00,0.4242
3921.00,0.4241
3920.00,0.4239
3919.00,0.4238
3918.00,0.4236
3917.00,0.4234
3916.00,0.4233
3915.00,0.4231
3914.00,0.4230
3913.00,0.4229
3912.00,0.4227
3911.00,0.4225
3910.00,0.4224
3909.00,0.4223
3908.00,0.4221
3907.00,0.4219
3906.00,0.4217
3905.00,0.4216
3904.00,0.4217
3903.00,0.4217
3902.00,0.4216
3901.00,0.4214
3900.00,0.4211
3899.00,0.4209
3898.00,0.4208
3897.00,0.4207
3896.00,0.4206
3895.00,0.4206
3894.00,0.4204
3893.00,0.4201
3892.00,0.4198
3891.00,0.4198
3890.00,0.4197
3889.00,0.4194
3888.00,0.4189
3887.00,0.4186
3886.00,0.4186
3885.00,0.4189
3884.00,0.4189
3883.00,0.4187
3882.00,0.4183
3881.00,0.4181
3880.00,0.4181
3879.00,0.4181
3878.00,0.4179
3877.00,0.4174
3876.00,0.4170
3875.00,0.4170
3874.00,0.4173
3873.00,0.4172
3872.00,0.4168
3871.00,0.4164
3870.00,0.4163
3869.00,0.4163
3868.00,0.4162
3867.00,0.4159
3866.00,0.4157
3865.00,0.4156
3864.00,0.4156
3863.00,0.4153
3862.00,0.4149
3861.00,0.4144
3860.00,0.4140
3859.00,0.4139
3858.00,0.4139
3857.00,0.4139
3856.00,0.4135
3855.00,0.4132
3854.00,0.4133
3853.00,0.4135
3852.00,0.4134
3851.00,0.4131
3850.00,0.4129
3849.00,0.4128
3848.00,0.4128
3847.00,0.4128
3846.00,0.4126
3845.00,0.4124
3844.00,0.4123
3843.00,0.4122
3842.00,0.4122
3841.00,0.4121
3840.00,0.4119
3839.00,0.4117
3838.00,0.4116
3837.00,0.4115
3836.00,0.4114
3835.00,0.4113
3834.00,0.4111
3833.00,0.4109
3832.00,0.4108
3831.00,0.4108
3830.00,0.4107
3829.00,0.4104
3828.00,0.4101
3827.00,0.4099
3826.00,0.4099
3825.00,0.4099
3824.00,0.4097
3823.00,0.4093
3822.00,0.4092
3821.00,0.4094
3820.00,0.4095
3819.00,0.4092
3818.00,0.4085
3817.00,0.4081
3816.00,0.4080
3815.00,0.4079
3814.00,0.4075
3813.00,0.4070
3812.00,0.4066
3811.00,0.4065
3810.00,0.4062
3809.00,0.4057
3808.00,0.4052
3807.00,0.4050
3806.00,0.4050
3805.00,0.4048
3804.00,0.4044
3803.00,0.4039
3802.00,0.4038
3801.00,0.4039
3800.00,0.4038
3799.00,0.4034
3798.00,0.4030
3797.00,0.4027
3796.00,0.4026
3795.00,0.4023
3794.00,0.4020
3793.00,0.4016
3792.00,0.4013
3791.00,0.4011
3790.00,0.4010
3789.00,0.4008
3788.00,0.4006
3787.00,0.4003
3786.00,0.3999
3785.00,0.3996
3784.00,0.3994
3783.00,0.3992
3782.00,0.3989
3781.00,0.3986
3780.00,0.3983
3779.00,0.3980
3778.00,0.3977
3777.00,0.3972
3776.00,0.3968
3775.00,0.3966
3774.00,0.3965
3773.00,0.3962
3772.00,0.3958
3771.00,0.3955
3770.00,0.3953
3769.00,0.3952
3768.00,0.3950
3767.00,0.3946
3766.00,0.3944
3765.00,0.3943
3764.00,0.3942
3763.00,0.3940
3762.00,0.3937
3761.00,0.3935
3760.00,0.3933
3759.00,0.3931
3758.00,0.3928
3757.00,0.3926
3756.00,0.3924
3755.00,0.3922
3754.00,0.3919
3753.00,0.3917
3752.00,0.3915
3751.00,0.3911
3750.00,0.3910
3749.00,0.3912
3748.00,0.3914
3747.00,0.3911
3746.00,0.3907
3745.00,0.3907
3744.00,0.3909
3743.00,0.3909
3742.00,0.3905
3741.00,0.3903
3740.00,0.3904
3739.00,0.3905
3738.00,0.3905
3737.00,0.3905
3736.00,0.3905
3735.00,0.3904
3734.00,0.3902
3733.00,0.3898
3732.00,0.3897
3731.00,0.3896
3730.00,0.3896
3729.00,0.3894
3728.00,0.3891
3727.00,0.3890
3726.00,0.3889
3725.00,0.3887
3724.00,0.3884
3723.00,0.3881
3722.00,0.3880
3721.00,0.3880
3720.00,0.3879
3719.00,0.3877
3718.00,0.3876
3717.00,0.3876
3716.00,0.3877
3715.00,0.3877
3714.00,0.3877
3713.00,0.3878
3712.00,0.3880
3711.00,0.3881
3710.00,0.3881
3709.00,0.3880
3708.00,0.3880
3707.00,0.3880
3706.00,0.3881
3705.00,0.3883
3704.00,0.3885
3703.00,0.3886
3702.00,0.3888
3701.00,0.3890
3700.00,0.3891
3699.00,0.3892
3698.00,0.3893
3697.00,0.3896
3696.00,0.3900
3695.00,0.3905
3694.00,0.3909
3693.00,0.3915
3692.00,0.3921
3691.00,0.3928
3690.00,0.3935
3689.00,0.3943
3688.00,0.3952
3687.00,0.3961
3686.00,0.3970
3685.00,0.3979
3684.00,0.3990
3683.00,0.4000
3682.00,0.4010
3681.00,0.4021
3680.00,0.4034
3679.00,0.4048
3678.00,0.4059
3677.00,0.4071
3676.00,0.4090
3675.00,0.4112
3674.00,0.4130
3673.00,0.4144
3672.00,0.4158
3671.00,0.4179
3670.00,0.4204
3669.00,0.4228
3668.00,0.4248
3667.00,0.4266
3666.00,0.4285
3665.00,0.4305
3664.00,0.4326
3663.00,0.4348
3662.00,0.4370
3661.00,0.4394
3660.00,0.4417
3659.00,0.4440
3658.00,0.4465
3657.00,0.4495
3656.00,0.4530
3655.00,0.4565
3654.00,0.4599
3653.00,0.4634
3652.00,0.4677
3651.00,0.4732
3650.00,0.4802
3649.00,0.4883
3648.00,0.4969
3647.00,0.5050
3646.00,0.5120
3645.00,0.5177
3644.00,0.5221
3643.00,0.5255
3642.00,0.5279
3641.00,0.5292
3640.00,0.5296
3639.00,0.5295
3638.00,0.5290
3637.00,0.5285
3636.00,0.5281
3635.00,0.5282
3634.00,0.5287
3633.00,0.5296
3632.00,0.5306
3631.00,0.5316
3630.00,0.5333
3629.00,0.5357
3628.00,0.5383
3627.00,0.5405
3626.00,0.5424
3625.00,0.5443
3624.00,0.5464
3623.00,0.5485
3622.00,0.5504
3621.00,0.5524
3620.00,0.5545
3619.00,0.5569
3618.00,0.5591
3617.00,0.5611
3616.00,0.5628
3615.00,0.5644
3614.00,0.5661
3613.00,0.5678
3612.00,0.5693
3611.00,0.5706
3610.00,0.5718
3609.00,0.5732
3608.00,0.5746
3607.00,0.5759
3606.00,0.5770
3605.00,0.5780
3604.00,0.5788
3603.00,0.5794
3602.00,0.5799
3601.00,0.5804
3600.00,0.5808
3599.00,0.5810
3598.00,0.5810
3597.00,0.5809
3596.00,0.5808
3595.00,0.5807
3594.00,0.5806
3593.00,0.5806
3592.00,0.5805
3591.00,0.5803
3590.00,0.5801
3589.00,0.5800
3588.00,0.5801
3587.00,0.5804
3586.00,0.5806
3585.00,0.5808
3584.00,0.5809
3583.00,0.5810
3582.00,0.5812
3581.00,0.5815
3580.00,0.5818
3579.00,0.5820
3578.00,0.5821
3577.00,0.5823
3576.00,0.5823
3575.00,0.5824
3574.00,0.5825
3573.00,0.5827
3572.00,0.5829
3571.00,0.5830
3570.00,0.5831
3569.00,0.5832
3568.00,0.5833
3567.00,0.5834
3566.00,0.5834
3565.00,0.5833
3564.00,0.5833
3563.00,0.5832
3562.00,0.5832
3561.00,0.5832
3560.00,0.5831
3559.00,0.5831
3558.00,0.5831
3557.00,0.5831
3556.00,0.5831
3555.00,0.5831
3554.00,0.5831
3553.00,0.5832
3552.00,0.5832
3551.00,0.5832
3550.00,0.5832
3549.00,0.5831
3548.00,0.5831
3547.00,0.5831
3546.00,0.5832
3545.00,0.5833
3544.00,0.5834
3543.00,0.5835
3542.00,0.5836
3541.00,0.5837
3540.00,0.5837
3539.00,0.5837
3538.00,0.5836
3537.00,0.5836
3536.00,0.5837
3535.00,0.5838
3534.00,0.5838
3533.00,0.5839
3532.00,0.5839
3531.00,0.5839
3530.00,0.5840
3529.00,0.5842
3528.00,0.5845
3527.00,0.5848
3526.00,0.5850
3525.00,0.5852
3524.00,0.5855
3523.00,0.5858
3522.00,0.5860
3521.00,0.5863
3520.00,0.5866
3519.00,0.5869
3518.00,0.5872
3517.00,0.5876
3516.00,0.5879
3515.00,0.5883
3514.00,0.5887
3513.00,0.5891
3512.00,0.5894
3511.00,0.5896
3510.00,0.5900
3509.00,0.5905
3508.00,0.5910
3507.00,0.5916
3506.00,0.5921
3505.00,0.5927
3504.00,0.5933
3503.00,0.5938
3502.00,0.5943
3501.00,0.5947
3500.00,0.5952
3499.00,0.5958
3498.00,0.5964
3497.00,0.5970
3496.00,0.5976
3495.00,0.5982
3494.00,0.5987
3493.00,0.5993
3492.00,0.5999
3491.00,0.6005
3490.00,0.6011
3489.00,0.6016
3488.00,0.6022
3487.00,0.6027
3486.00,0.6032
3485.00,0.6037
3484.00,0.6041
3483.00,0.6045
3482.00,0.6048
3481.00,0.6050
3480.00,0.6052
3479.00,0.6053
3478.00,0.6055
3477.00,0.6057
3476.00,0.6060
3475.00,0.6062
3474.00,0.6064
3473.00,0.6066
3472.00,0.6068
3471.00,0.6070
3470.00,0.6073
3469.00,0.6076
3468.00,0.6079
3467.00,0.6080
3466.00,0.6081
3465.00,0.6081
3464.00,0.6081
3463.00,0.6081
3462.00,0.6082
3461.00,0.6084
3460.00,0.6086
3459.00,0.6088
3458.00,0.6089
3457.00,0.6091
3456.00,0.6093
3455.00,0.6095
3454.00,0.6096
3453.00,0.6097
3452.00,0.6100
3451.00,0.6102
3450.00,0.6105
3449.00,0.6108
3448.00,0.6111
3447.00,0.6114
3446.00,0.6117
3445.00,0.6121
3444.00,0.6126
3443.00,0.6131
3442.00,0.6136
3441.00,0.6140
3440.00,0.6145
3439.00,0.6149
3438.00,0.6153
3437.00,0.6157
3436.00,0.6159
3435.00,0.6160
3434.00,0.6159
3433.00,0.6157
3432.00,0.6155
3431.00,0.6153
3430.00,0.6151
3429.00,0.6149
3428.00,0.6147
3427.00,0.6144
3426.00,0.6141
3425.00,0.6138
3424.00,0.6135
3423.00,0.6132
3422.00,0.6130
3421.00,0.6128
3420.00,0.6125
3419.00,0.6122
3418.00,0.6119
3417.00,0.6117
3416.00,0.6115
3415.00,0.6113
3414.00,0.6110
3413.00,0.6108
3412.00,0.6106
3411.00,0.6104
3410.00,0.6102
3409.00,0.6100
3408.00,0.6098
3407.00,0.6095
3406.00,0.6092
3405.00,0.6089
3404.00,0.6086
3403.00,0.6084
3402.00,0.6082
3401.00,0.6080
3400.00,0.6078
3399.00,0.6075
3398.00,0.6072
3397.00,0.6068
3396.00,0.6065
3395.00,0.6062
3394.00,0.6059
3393.00,0.6056
3392.00,0.6053
3391.00,0.6050
3390.00,0.6047
3389.00,0.6043
3388.00,0.6039
3387.00,0.6034
3386.00,0.6030
3385.00,0.6026
3384.00,0.6022
3383.00,0.6018
3382.00,0.6013
3381.00,0.6007
3380.00,0.6002
3379.00,0.5998
3378.00,0.5994
3377.00,0.5990
3376.00,0.5987
3375.00,0.5983
3374.00,0.5979
3373.00,0.5975
3372.00,0.5971
3371.00,0.5965
3370.00,0.5959
3369.00,0.5954
3368.00,0.5949
3367.00,0.5944
3366.00,0.5939
3365.00,0.5935
3364.00,0.5930
3363.00,0.5925
3362.00,0.5920
3361.00,0.5915
3360.00,0.5909
3359.00,0.5904
3358.00,0.5899
3357.00,0.5894
3356.00,0.5888
3355.00,0.5882
3354.00,0.5876
3353.00,0.5871
3352.00,0.5866
3351.00,0.5861
3350.00,0.5856
3349.00,0.5851
3348.00,0.5845
3347.00,0.5838
3346.00,0.5831
3345.00,0.5824
3344.00,0.5818
3343.00,0.5812
3342.00,0.5806
3341.00,0.5801
3340.00,0.5794
3339.00,0.5788
3338.00,0.5781
3337.00,0.5773
3336.00,0.5765
3335.00,0.5757
3334.00,0.5749
3333.00,0.5741
3332.00,0.5734
3331.00,0.5726
3330.00,0.5719
3329.00,0.5711
3328.00,0.5704
3327.00,0.5696
3326.00,0.5689
3325.00,0.5681
3324.00,0.5672
3323.00,0.5663
3322.00,0.5653
3321.00,0.5645
3320.00,0.5636
3319.00,0.5628
3318.00,0.5620
3317.00,0.5612
3316.00,0.5605
3315.00,0.5598
3314.00,0.5591
3313.00,0.5584
3312.00,0.5577
3311.00,0.5569
3310.00,0.5561
3309.00,0.5554
3308.00,0.5547
3307.00,0.5540
3306.00,0.5533
3305.00,0.5526
3304.00,0.5519
3303.00,0.5512
3302.00,0.5505
3301.00,0.5499
3300.00,0.5493
3299.00,0.5488
3298.00,0.5482
3297.00,0.5476
3296.00,0.5470
3295.00,0.5463
3294.00,0.5456
3293.00,0.5450
3292.00,0.5444
3291.00,0.5438
3290.00,0.5433
3289.00,0.5428
3288.00,0.5423
3287.00,0.5419
3286.00,0.5414
3285.00,0.5410
3284.00,0.5405
3283.00,0.5400
3282.00,0.5395
3281.00,0.5390
3280.00,0.5386
3279.00,0.5382
3278.00,0.5379
3277.00,0.5375
3276.00,0.5372
3275.00,0.5368
3274.00,0.5363
3273.00,0.5358
3272.00,0.5354
3271.00,0.5351
3270.00,0.5348
3269.00,0.5345
3268.00,0.5343
3267.00,0.5340
3266.00,0.5336
3265.00,0.5333
3264.00,0.5330
3263.00,0.5328
3262.00,0.5326
3261.00,0.5323
3260.00,0.5320
3259.00,0.5318
3258.00,0.5317
3257.00,0.5316
3256.00,0.5315
3255.00,0.5314
3254.00,0.5313
3253.00,0.5311
3252.00,0.5310
3251.00,0.5308
3250.00,0.5307
3249.00,0.5305
3248.00,0.5304
3247.00,0.5303
3246.00,0.5303
3245.00,0.5303
3244.00,0.5303
3243.00,0.5304
3242.00,0.5305
3241.00,0.5305
3240.00,0.5306
3239.00,0.5306
3238.00,0.5307
3237.00,0.5309
3236.00,0.5311
3235.00,0.5312
3234.00,0.5314
3233.00,0.5316
3232.00,0.5319
3231.00,0.5321
3230.00,0.5324
3229.00,0.5327
3228.00,0.5330
3227.00,0.5333
3226.00,0.5336
3225.00,0.5340
3224.00,0.5344
3223.00,0.5348
3222.00,0.5352
3221.00,0.5356
3220.00,0.5361
3219.00,0.5366
3218.00,0.5371
3217.00,0.5377
3216.00,0.5383
3215.00,0.5389
3214.00,0.5396
3213.00,0.5403
3212.00,0.5410
3211.00,0.5416
3210.00,0.5423
3209.00,0.5430
3208.00,0.5438
3207.00,0.5445
3206.00,0.5452
3205.00,0.5459
3204.00,0.5466
3203.00,0.5472
3202.00,0.5478
3201.00,0.5484
3200.00,0.5491
3199.00,0.5498
3198.00,0.5504
3197.00,0.5510
3196.00,0.5515
3195.00,0.5520
3194.00,0.5524
3193.00,0.5528
3192.00,0.5533
3191.00,0.5536
3190.00,0.5539
3189.00,0.5542
3188.00,0.5545
3187.00,0.5547
3186.00,0.5549
3185.00,0.5551
3184.00,0.5552
3183.00,0.5552
3182.00,0.5552
3181.00,0.5552
3180.00,0.5552
3179.00,0.5551
3178.00,0.5549
3177.00,0.5547
3176.00,0.5545
3175.00,0.5543
3174.00,0.5540
3173.00,0.5537
3172.00,0.5534
3171.00,0.5531
3170.00,0.5527
3169.00,0.5522
3168.00,0.5517
3167.00,0.5513
3166.00,0.5508
3165.00,0.5503
3164.00,0.5498
3163.00,0.5493
3162.00,0.5488
3161.00,0.5482
3160.00,0.5476
3159.00,0.5470
3158.00,0.5465
3157.00,0.5460
3156.00,0.5455
3155.00,0.5449
3154.00,0.5443
3153.00,0.5436
3152.00,0.5430
3151.00,0.5425
3150.00,0.5420
3149.00,0.5415
3148.00,0.5410
3147.00,0.5405
3146.00,0.5400
3145.00,0.5395
3144.00,0.5390
3143.00,0.5386
3142.00,0.5383
3141.00,0.5380
3140.00,0.5377
3139.00,0.5373
3138.00,0.5370
3137.00,0.5367
3136.00,0.5364
3135.00,0.5362
3134.00,0.5361
3133.00,0.5360
3132.00,0.5360
3131.00,0.5359
3130.00,0.5358
3129.00,0.5358
3128.00,0.5358
3127.00,0.5358
3126.00,0.5359
3125.00,0.5360
3124.00,0.5361
3123.00,0.5363
3122.00,0.5367
3121.00,0.5371
3120.00,0.5375
3119.00,0.5380
3118.00,0.5385
3117.00,0.5391
3116.00,0.5397
3115.00,0.5404
3114.00,0.5411
3113.00,0.5419
3112.00,0.5428
3111.00,0.5438
3110.00,0.5449
3109.00,0.5462
3108.00,0.5474
3107.00,0.5487
3106.00,0.5499
3105.00,0.5511
3104.00,0.5523
3103.00,0.5534
3102.00,0.5545
3101.00,0.5557
3100.00,0.5569
3099.00,0.5582
3098.00,0.5594
3097.00,0.5608
3096.00,0.5623
3095.00,0.5639
3094.00,0.5657
3093.00,0.5677
3092.00,0.5699
3091.00,0.5725
3090.00,0.5752
3089.00,0.5781
3088.00,0.5812
3087.00,0.5846
3086.00,0.5880
3085.00,0.5916
3084.00,0.5952
3083.00,0.5986
3082.00,0.6019
3081.00,0.6052
3080.00,0.6086
3079.00,0.6122
3078.00,0.6160
3077.00,0.6201
3076.00,0.6244
3075.00,0.6290
3074.00,0.6339
3073.00,0.6392
3072.00,0.6448
3071.00,0.6506
3070.00,0.6565
3069.00,0.6626
3068.00,0.6688
3067.00,0.6751
3066.00,0.6813
3065.00,0.6875
3064.00,0.6935
3063.00,0.6993
3062.00,0.7047
3061.00,0.7097
3060.00,0.7142
3059.00,0.7182
3058.00,0.7217
3057.00,0.7250
3056.00,0.7282
3055.00,0.7313
3054.00,0.7345
3053.00,0.7379
3052.00,0.7413
3051.00,0.7450
3050.00,0.7489
3049.00,0.7530
3048.00,0.7573
3047.00,0.7619
3046.00,0.7667
3045.00,0.7718
3044.00,0.7770
3043.00,0.7823
3042.00,0.7877
3041.00,0.7932
3040.00,0.7990
3039.00,0.8052
3038.00,0.8118
3037.00,0.8188
3036.00,0.8265
3035.00,0.8348
3034.00,0.8438
3033.00,0.8537
3032.00,0.8643
3031.00,0.8756
3030.00,0.8872
3029.00,0.8991
3028.00,0.9109
3027.00,0.9223
3026.00,0.9332
3025.00,0.9433
3024.00,0.9529
3023.00,0.9624
3022.00,0.9718
3021.00,0.9816
3020.00,0.9917
3019.00,1.0023
3018.00,1.0137
3017.00,1.0258
3016.00,1.0385
3015.00,1.0518
3014.00,1.0658
3013.00,1.0805
3012.00,1.0960
3011.00,1.1124
3010.00,1.1297
3009.00,1.1480
3008.00,1.1676
3007.00,1.1884
3006.00,1.2104
3005.00,1.2334
3004.00,1.2574
3003.00,1.2824
3002.00,1.3089
3001.00,1.3370
3000.00,1.3667
2999.00,1.3981
2998.00,1.4319
2997.00,1.4685
2996.00,1.5087
2995.00,1.5526
2994.00,1.6005
2993.00,1.6527
2992.00,1.7091
2991.00,1.7704
2990.00,1.8373
2989.00,1.9104
2988.00,1.9899
2987.00,2.0764
2986.00,2.1709
2985.00,2.2737
2984.00,2.3826
2983.00,2.4961
2982.00,2.6159
2981.00,2.7462
2980.00,2.8853
2979.00,3.0206
2978.00,3.1367
2977.00,3.2344
2976.00,3.3302
2975.00,3.4301
2974.00,3.5226
2973.00,3.5872
2972.00,3.6213
2971.00,3.6370
2970.00,3.6584
2969.00,3.7168
2968.00,3.8821
2967.00,4.2755
2966.00,4.6253
2965.00,4.7182
2964.00,4.3640
2963.00,4.2285
2962.00,4.1094
2961.00,4.1220
2960.00,4.3253
2959.00,4.3400
2958.00,4.2773
2957.00,4.2700
2956.00,4.2669
2955.00,4.1229
2954.00,3.9888
2953.00,3.9776
2952.00,4.0694
2951.00,4.1519
2950.00,4.1242
2949.00,4.1579
2948.00,4.4090
2947.00,4.5473
2946.00,4.6875
2945.00,4.5326
2944.00,4.2846
2943.00,4.0494
2942.00,3.8817
2941.00,3.8880
2940.00,3.9626
2939.00,4.1362
2938.00,4.4800
2937.00,4.8487
2936.00,4.3808
2935.00,4.0251
2934.00,3.8075
2933.00,3.7313
2932.00,3.7068
2931.00,3.7047
2930.00,3.7012
2929.00,3.6915
2928.00,3.7433
2927.00,3.8912
2926.00,4.0662
2925.00,4.1691
2924.00,4.1138
2923.00,4.0069
2922.00,3.9325
2921.00,3.9089
2920.00,3.9286
2919.00,3.9226
2918.00,3.9023
2917.00,3.8867
2916.00,3.8871
2915.00,3.9434
2914.00,4.0487
2913.00,4.1987
2912.00,4.3177
2911.00,4.1451
2910.00,3.9684
2909.00,3.9144
2908.00,4.0048
2907.00,4.0977
2906.00,4.0973
2905.00,4.0976
2904.00,4.1525
2903.00,4.2453
2902.00,4.2494
2901.00,4.1057
2900.00,3.9725
2899.00,3.9509
2898.00,4.0323
2897.00,4.1716
2896.00,4.3645
2895.00,4.4792
2894.00,4.3115
2893.00,4.0848
2892.00,3.9554
2891.00,3.9378
2890.00,3.9668
2889.00,3.9533
2888.00,3.8749
2887.00,3.8217
2886.00,3.8492
2885.00,3.9273
2884.00,3.9942
2883.00,4.0269
2882.00,4.0108
2881.00,3.9506
2880.00,3.8924
2879.00,3.8723
2878.00,3.8859
2877.00,3.8940
2876.00,3.8907
2875.00,3.9229
2874.00,4.0163
2873.00,4.1554
2872.00,4.2448
2871.00,4.1475
2870.00,4.0820
2869.00,4.1305
2868.00,4.1055
2867.00,3.9751
2866.00,3.8756
2865.00,3.8877
2864.00,3.9238
2863.00,3.9696
2862.00,4.0819
2861.00,4.2510
2860.00,4.5681
2859.00,4.7485
2858.00,4.5647
2857.00,4.3132
2856.00,4.1573
2855.00,4.1170
2854.00,4.1501
2853.00,4.1819
2852.00,4.0261
2851.00,3.8605
2850.00,3.8191
2849.00,3.8768
2848.00,4.0558
2847.00,4.3291
2846.00,4.3462
2845.00,4.3097
2844.00,4.2783
2843.00,4.2119
2842.00,4.0152
2841.00,3.8132
2840.00,3.6582
2839.00,3.5281
2838.00,3.4428
2837.00,3.3687
2836.00,3.2704
2835.00,3.1473
2834.00,3.0112
2833.00,2.8734
2832.00,2.7404
2831.00,2.6135
2830.00,2.4906
2829.00,2.3719
2828.00,2.2608
2827.00,2.1604
2826.00,2.0709
2825.00,1.9903
2824.00,1.9171
2823.00,1.8506
2822.00,1.7901
2821.00,1.7341
2820.00,1.6815
2819.00,1.6317
2818.00,1.5846
2817.00,1.5403
2816.00,1.4986
2815.00,1.4595
2814.00,1.4224
2813.00,1.3871
2812.00,1.3532
2811.00,1.3210
2810.00,1.2903
2809.00,1.2608
2808.00,1.2323
2807.00,1.2049
2806.00,1.1786
2805.00,1.1536
2804.00,1.1300
2803.00,1.1076
2802.00,1.0861
2801.00,1.0656
2800.00,1.0460
2799.00,1.0273
2798.00,1.0095
2797.00,0.9923
2796.00,0.9757
2795.00,0.9596
2794.00,0.9440
2793.00,0.9287
2792.00,0.9138
2791.00,0.8993
2790.00,0.8852
2789.00,0.8713
2788.00,0.8576
2787.00,0.8442
2786.00,0.8311
2785.00,0.8184
2784.00,0.8059
2783.00,0.7938
2782.00,0.7820
2781.00,0.7708
2780.00,0.7599
2779.00,0.7496
2778.00,0.7397
2777.00,0.7303
2776.00,0.7215
2775.00,0.7132
2774.00,0.7055
2773.00,0.6983
2772.00,0.6917
2771.00,0.6856
2770.00,0.6799
2769.00,0.6747
2768.00,0.6700
2767.00,0.6659
2766.00,0.6622
2765.00,0.6590
2764.00,0.6562
2763.00,0.6537
2762.00,0.6515
2761.00,0.6496
2760.00,0.6479
2759.00,0.6464
2758.00,0.6449
2757.00,0.6434
2756.00,0.6421
2755.00,0.6410
2754.00,0.6400
2753.00,0.6391
2752.00,0.6383
2751.00,0.6379
2750.00,0.6378
2749.00,0.6380
2748.00,0.6385
2747.00,0.6393
2746.00,0.6403
2745.00,0.6417
2744.00,0.6435
2743.00,0.6458
2742.00,0.6485
2741.00,0.6516
2740.00,0.6553
2739.00,0.6594
2738.00,0.6641
2737.00,0.6693
2736.00,0.6751
2735.00,0.6813
2734.00,0.6879
2733.00,0.6945
2732.00,0.7008
2731.00,0.7063
2730.00,0.7108
2729.00,0.7139
2728.00,0.7156
2727.00,0.7161
2726.00,0.7156
2725.00,0.7142
2724.00,0.7122
2723.00,0.7095
2722.00,0.7064
2721.00,0.7027
2720.00,0.6986
2719.00,0.6940
2718.00,0.6889
2717.00,0.6834
2716.00,0.6775
2715.00,0.6714
2714.00,0.6653
2713.00,0.6593
2712.00,0.6537
2711.00,0.6486
2710.00,0.6440
2709.00,0.6401
2708.00,0.6367
2707.00,0.6338
2706.00,0.6313
2705.00,0.6293
2704.00,0.6277
2703.00,0.6266
2702.00,0.6259
2701.00,0.6257
2700.00,0.6258
2699.00,0.6262
2698.00,0.6268
2697.00,0.6277
2696.00,0.6290
2695.00,0.6305
2694.00,0.6321
2693.00,0.6340
2692.00,0.6358
2691.00,0.6377
2690.00,0.6396
2689.00,0.6413
2688.00,0.6427
2687.00,0.6438
2686.00,0.6448
2685.00,0.6457
2684.00,0.6464
2683.00,0.6469
2682.00,0.6473
2681.00,0.6475
2680.00,0.6475
2679.00,0.6473
2678.00,0.6472
2677.00,0.6470
2676.00,0.6468
2675.00,0.6465
2674.00,0.6461
2673.00,0.6455
2672.00,0.6449
2671.00,0.6439
2670.00,0.6426
2669.00,0.6409
2668.00,0.6389
2667.00,0.6365
2666.00,0.6339
2665.00,0.6312
2664.00,0.6284
2663.00,0.6255
2662.00,0.6225
2661.00,0.6196
2660.00,0.6167
2659.00,0.6139
2658.00,0.6111
2657.00,0.6085
2656.00,0.6059
2655.00,0.6034
2654.00,0.6012
2653.00,0.5991
2652.00,0.5971
2651.00,0.5951
2650.00,0.5933
2649.00,0.5916
2648.00,0.5900
2647.00,0.5884
2646.00,0.5870
2645.00,0.5856
2644.00,0.5842
2643.00,0.5829
2642.00,0.5817
2641.00,0.5806
2640.00,0.5795
2639.00,0.5785
2638.00,0.5775
2637.00,0.5767
2636.00,0.5759
2635.00,0.5753
2634.00,0.5747
2633.00,0.5743
2632.00,0.5738
2631.00,0.5733
2630.00,0.5727
2629.00,0.5721
2628.00,0.5715
2627.00,0.5711
2626.00,0.5706
2625.00,0.5702
2624.00,0.5697
2623.00,0.5691
2622.00,0.5686
2621.00,0.5680
2620.00,0.5675
2619.00,0.5670
2618.00,0.5664
2617.00,0.5659
2616.00,0.5654
2615.00,0.5649
2614.00,0.5644
2613.00,0.5638
2612.00,0.5632
2611.00,0.5624
2610.00,0.5617
2609.00,0.5610
2608.00,0.5603
2607.00,0.5596
2606.00,0.5587
2605.00,0.5578
2604.00,0.5568
2603.00,0.5556
2602.00,0.5544
2601.00,0.5531
2600.00,0.5517
2599.00,0.5502
2598.00,0.5486
2597.00,0.5470
2596.00,0.5454
2595.00,0.5437
2594.00,0.5419
2593.00,0.5400
2592.00,0.5382
2591.00,0.5363
2590.00,0.5343
2589.00,0.5322
2588.00,0.5300
2587.00,0.5277
2586.00,0.5255
2585.00,0.5233
2584.00,0.5212
2583.00,0.5190
2582.00,0.5168
2581.00,0.5145
2580.00,0.5121
2579.00,0.5097
2578.00,0.5074
2577.00,0.5051
2576.00,0.5028
2575.00,0.5006
2574.00,0.4985
2573.00,0.4963
2572.00,0.4942
2571.00,0.4922
2570.00,0.4901
2569.00,0.4881
2568.00,0.4861
2567.00,0.4843
2566.00,0.4825
2565.00,0.4808
2564.00,0.4792
2563.00,0.4775
2562.00,0.4759
2561.00,0.4744
2560.00,0.4730
2559.00,0.4717
2558.00,0.4704
2557.00,0.4691
2556.00,0.4678
2555.00,0.4667
2554.00,0.4656
2553.00,0.4646
2552.00,0.4636
2551.00,0.4627
2550.00,0.4619
2549.00,0.4611
2548.00,0.4605
2547.00,0.4598
2546.00,0.4592
2545.00,0.4587
2544.00,0.4582
2543.00,0.4577
2542.00,0.4574
2541.00,0.4572
2540.00,0.4572
2539.00,0.4576
2538.00,0.4584
2537.00,0.4595
2536.00,0.4609
2535.00,0.4624
2534.00,0.4641
2533.00,0.4659
2532.00,0.4678
2531.00,0.4697
2530.00,0.4717
2529.00,0.4737
2528.00,0.4758
2527.00,0.4777
2526.00,0.4796
2525.00,0.4813
2524.00,0.4828
2523.00,0.4842
2522.00,0.4855
2521.00,0.4866
2520.00,0.4876
2519.00,0.4883
2518.00,0.4888
2517.00,0.4892
2516.00,0.4895
2515.00,0.4896
2514.00,0.4895
2513.00,0.4891
2512.00,0.4883
2511.00,0.4871
2510.00,0.4855
2509.00,0.4833
2508.00,0.4805
2507.00,0.4772
2506.00,0.4736
2505.00,0.4696
2504.00,0.4654
2503.00,0.4610
2502.00,0.4565
2501.00,0.4520
2500.00,0.4474
2499.00,0.4429
2498.00,0.4383
2497.00,0.4339
2496.00,0.4296
2495.00,0.4255
2494.00,0.4216
2493.00,0.4179
2492.00,0.4145
2491.00,0.4113
2490.00,0.4083
2489.00,0.4056
2488.00,0.4031
2487.00,0.4008
2486.00,0.3986
2485.00,0.3965
2484.00,0.3947
2483.00,0.3929
2482.00,0.3912
2481.00,0.3895
2480.00,0.3879
2479.00,0.3864
2478.00,0.3849
2477.00,0.3834
2476.00,0.3820
2475.00,0.3807
2474.00,0.3793
2473.00,0.3780
2472.00,0.3767
2471.00,0.3755
2470.00,0.3744
2469.00,0.3733
2468.00,0.3723
2467.00,0.3714
2466.00,0.3705
2465.00,0.3697
2464.00,0.3689
2463.00,0.3681
2462.00,0.3672
2461.00,0.3665
2460.00,0.3658
2459.00,0.3650
2458.00,0.3643
2457.00,0.3636
2456.00,0.3629
2455.00,0.3623
2454.00,0.3617
2453.00,0.3611
2452.00,0.3605
2451.00,0.3600
2450.00,0.3594
2449.00,0.3589
2448.00,0.3584
2447.00,0.3579
2446.00,0.3574
2445.00,0.3570
2444.00,0.3566
2443.00,0.3563
2442.00,0.3559
2441.00,0.3556
2440.00,0.3552
2439.00,0.3549
2438.00,0.3546
2437.00,0.3544
2436.00,0.3541
2435.00,0.3539
2434.00,0.3536
2433.00,0.3534
2432.00,0.3532
2431.00,0.3529
2430.00,0.3527
2429.00,0.3525
2428.00,0.3523
2427.00,0.3521
2426.00,0.3520
2425.00,0.3518
2424.00,0.3516
2423.00,0.3515
2422.00,0.3514
2421.00,0.3514
2420.00,0.3514
2419.00,0.3513
2418.00,0.3513
2417.00,0.3512
2416.00,0.3512
2415.00,0.3512
2414.00,0.3512
2413.00,0.3511
2412.00,0.3511
2411.00,0.3510
2410.00,0.3509
2409.00,0.3508
2408.00,0.3507
2407.00,0.3506
2406.00,0.3505
2405.00,0.3504
2404.00,0.3502
2403.00,0.3500
2402.00,0.3499
2401.00,0.3497
2400.00,0.3495
2399.00,0.3492
2398.00,0.3490
2397.00,0.3487
2396.00,0.3485
2395.00,0.3482
2394.00,0.3480
2393.00,0.3477
2392.00,0.3474
2391.00,0.3472
2390.00,0.3469
2389.00,0.3467
2388.00,0.3466
2387.00,0.3464
2386.00,0.3463
2385.00,0.3463
2384.00,0.3463
2383.00,0.3463
2382.00,0.3463
2381.00,0.3464
2380.00,0.3465
2379.00,0.3465
2378.00,0.3465
2377.00,0.3465
2376.00,0.3464
2375.00,0.3464
2374.00,0.3463
2373.00,0.3462
2372.00,0.3461
2371.00,0.3460
2370.00,0.3459
2369.00,0.3459
2368.00,0.3459
2367.00,0.3459
2366.00,0.3458
2365.00,0.3458
2364.00,0.3457
2363.00,0.3456
2362.00,0.3455
2361.00,0.3455
2360.00,0.3455
2359.00,0.3454
2358.00,0.3453
2357.00,0.3452
2356.00,0.3449
2355.00,0.3445
2354.00,0.3443
2353.00,0.3442
2352.00,0.3443
2351.00,0.3445
2350.00,0.3448
2349.00,0.3452
2348.00,0.3455
2347.00,0.3456
2346.00,0.3453
2345.00,0.3449
2344.00,0.3445
2343.00,0.3442
2342.00,0.3440
2341.00,0.3438
2340.00,0.3437
2339.00,0.3436
2338.00,0.3435
2337.00,0.3435
2336.00,0.3434
2335.00,0.3434
2334.00,0.3433
2333.00,0.3432
2332.00,0.3430
2331.00,0.3428
2330.00,0.3426
2329.00,0.3424
2328.00,0.3423
2327.00,0.3422
2326.00,0.3421
2325.00,0.3420
2324.00,0.3418
2323.00,0.3415
2322.00,0.3412
2321.00,0.3409
2320.00,0.3407
2319.00,0.3404
2318.00,0.3402
2317.00,0.3401
2316.00,0.3399
2315.00,0.3396
2314.00,0.3393
2313.00,0.3390
2312.00,0.3386
2311.00,0.3382
2310.00,0.3379
2309.00,0.3375
2308.00,0.3372
2307.00,0.3369
2306.00,0.3366
2305.00,0.3363
2304.00,0.3360
2303.00,0.3356
2302.00,0.3353
2301.00,0.3349
2300.00,0.3346
2299.00,0.3343
2298.00,0.3341
2297.00,0.3338
2296.00,0.3335
2295.00,0.3332
2294.00,0.3328
2293.00,0.3324
2292.00,0.3320
2291.00,0.3316
2290.00,0.3312
2289.00,0.3309
2288.00,0.3306
2287.00,0.3303
2286.00,0.3299
2285.00,0.3297
2284.00,0.3294
2283.00,0.3291
2282.00,0.3288
2281.00,0.3285
2280.00,0.3281
2279.00,0.3277
2278.00,0.3273
2277.00,0.3269
2276.00,0.3265
2275.00,0.3262
2274.00,0.3258
2273.00,0.3255
2272.00,0.3252
2271.00,0.3249
2270.00,0.3246
2269.00,0.3244
2268.00,0.3241
2267.00,0.3239
2266.00,0.3237
2265.00,0.3235
2264.00,0.3233
2263.00,0.3231
2262.00,0.3228
2261.00,0.3226
2260.00,0.3224
2259.00,0.3222
2258.00,0.3219
2257.00,0.3217
2256.00,0.3214
2255.00,0.3211
2254.00,0.3209
2253.00,0.3207
2252.00,0.3205
2251.00,0.3203
2250.00,0.3200
2249.00,0.3197
2248.00,0.3195
2247.00,0.3193
2246.00,0.3190
2245.00,0.3188
2244.00,0.3187
2243.00,0.3185
2242.00,0.3183
2241.00,0.3182
2240.00,0.3180
2239.00,0.3178
2238.00,0.3177
2237.00,0.3175
2236.00,0.3174
2235.00,0.3173
2234.00,0.3171
2233.00,0.3170
2232.00,0.3169
2231.00,0.3168
2230.00,0.3166
2229.00,0.3165
2228.00,0.3164
2227.00,0.3163
2226.00,0.3162
2225.00,0.3161
2224.00,0.3160
2223.00,0.3159
2222.00,0.3158
2221.00,0.3157
2220.00,0.3156
2219.00,0.3155
2218.00,0.3154
2217.00,0.3153
2216.00,0.3153
2215.00,0.3152
2214.00,0.3152
2213.00,0.3151
2212.00,0.3151
2211.00,0.3151
2210.00,0.3151
2209.00,0.3151
2208.00,0.3150
2207.00,0.3149
2206.00,0.3148
2205.00,0.3148
2204.00,0.3148
2203.00,0.3148
2202.00,0.3148
2201.00,0.3149
2200.00,0.3149
2199.00,0.3149
2198.00,0.3149
2197.00,0.3150
2196.00,0.3151
2195.00,0.3151
2194.00,0.3152
2193.00,0.3153
2192.00,0.3154
2191.00,0.3155
2190.00,0.3156
2189.00,0.3157
2188.00,0.3158
2187.00,0.3158
2186.00,0.3158
2185.00,0.3157
2184.00,0.3157
2183.00,0.3157
2182.00,0.3156
2181.00,0.3154
2180.00,0.3153
2179.00,0.3151
2178.00,0.3149
2177.00,0.3147
2176.00,0.3146
2175.00,0.3145
2174.00,0.3143
2173.00,0.3142
2172.00,0.3140
2171.00,0.3139
2170.00,0.3137
2169.00,0.3136
2168.00,0.3135
2167.00,0.3135
2166.00,0.3133
2165.00,0.3132
2164.00,0.3131
2163.00,0.3130
2162.00,0.3128
2161.00,0.3128
2160.00,0.3126
2159.00,0.3125
2158.00,0.3123
2157.00,0.3122
2156.00,0.3121
2155.00,0.3120
2154.00,0.3119
2153.00,0.3118
2152.00,0.3116
2151.00,0.3113
2150.00,0.3110
2149.00,0.3107
2148.00,0.3104
2147.00,0.3100
2146.00,0.3095
2145.00,0.3091
2144.00,0.3085
2143.00,0.3080
2142.00,0.3073
2141.00,0.3067
2140.00,0.3062
2139.00,0.3056
2138.00,0.3051
2137.00,0.3046
2136.00,0.3041
2135.00,0.3036
2134.00,0.3031
2133.00,0.3026
2132.00,0.3022
2131.00,0.3018
2130.00,0.3014
2129.00,0.3010
2128.00,0.3007
2127.00,0.3003
2126.00,0.3000
2125.00,0.2996
2124.00,0.2993
2123.00,0.2990
2122.00,0.2987
2121.00,0.2984
2120.00,0.2982
2119.00,0.2979
2118.00,0.2977
2117.00,0.2975
2116.00,0.2973
2115.00,0.2971
2114.00,0.2969
2113.00,0.2967
2112.00,0.2966
2111.00,0.2964
2110.00,0.2962
2109.00,0.2960
2108.00,0.2959
2107.00,0.2958
2106.00,0.2956
2105.00,0.2955
2104.00,0.2954
2103.00,0.2952
2102.00,0.2951
2101.00,0.2950
2100.00,0.2949
2099.00,0.2948
2098.00,0.2947
2097.00,0.2946
2096.00,0.2946
2095.00,0.2945
2094.00,0.2945
2093.00,0.2945
2092.00,0.2944
2091.00,0.2944
2090.00,0.2943
2089.00,0.2942
2088.00,0.2941
2087.00,0.2941
2086.00,0.2940
2085.00,0.2940
2084.00,0.2941
2083.00,0.2941
2082.00,0.2941
2081.00,0.2941
2080.00,0.2940
2079.00,0.2940
2078.00,0.2940
2077.00,0.2940
2076.00,0.2941
2075.00,0.2942
2074.00,0.2942
2073.00,0.2943
2072.00,0.2943
2071.00,0.2944
2070.00,0.2945
2069.00,0.2947
2068.00,0.2948
2067.00,0.2949
2066.00,0.2950
2065.00,0.2951
2064.00,0.2953
2063.00,0.2954
2062.00,0.2955
2061.00,0.2957
2060.00,0.2958
2059.00,0.2960
2058.00,0.2962
2057.00,0.2965
2056.00,0.2968
2055.00,0.2970
2054.00,0.2973
2053.00,0.2975
2052.00,0.2978
2051.00,0.2981
2050.00,0.2984
2049.00,0.2986
2048.00,0.2989
2047.00,0.2993
2046.00,0.2996
2045.00,0.3000
2044.00,0.3004
2043.00,0.3007
2042.00,0.3010
2041.00,0.3012
2040.00,0.3014
2039.00,0.3015
2038.00,0.3017
2037.00,0.3019
2036.00,0.3021
2035.00,0.3022
2034.00,0.3022
2033.00,0.3023
2032.00,0.3023
2031.00,0.3022
2030.00,0.3021
2029.00,0.3020
2028.00,0.3019
2027.00,0.3017
2026.00,0.3015
2025.00,0.3012
2024.00,0.3009
2023.00,0.3004
2022.00,0.2999
2021.00,0.2994
2020.00,0.2988
2019.00,0.2981
2018.00,0.2972
2017.00,0.2963
2016.00,0.2953
2015.00,0.2944
2014.00,0.2934
2013.00,0.2925
2012.00,0.2917
2011.00,0.2909
2010.00,0.2902
2009.00,0.2896
2008.00,0.2891
2007.00,0.2885
2006.00,0.2881
2005.00,0.2877
2004.00,0.2874
2003.00,0.2871
2002.00,0.2868
2001.00,0.2865
2000.00,0.2862
1999.00,0.2859
1998.00,0.2857
1997.00,0.2855
1996.00,0.2854
1995.00,0.2853
1994.00,0.2853
1993.00,0.2853
1992.00,0.2852
1991.00,0.2851
1990.00,0.2849
1989.00,0.2847
1988.00,0.2846
1987.00,0.2845
1986.00,0.2844
1985.00,0.2844
1984.00,0.2844
1983.00,0.2844
1982.00,0.2843
1981.00,0.2843
1980.00,0.2843
1979.00,0.2843
1978.00,0.2844
1977.00,0.2844
1976.00,0.2845
1975.00,0.2845
1974.00,0.2846
1973.00,0.2847
1972.00,0.2848
1971.00,0.2849
1970.00,0.2851
1969.00,0.2854
1968.00,0.2856
1967.00,0.2858
1966.00,0.2860
1965.00,0.2862
1964.00,0.2865
1963.00,0.2868
1962.00,0.2870
1961.00,0.2872
1960.00,0.2874
1959.00,0.2875
1958.00,0.2876
1957.00,0.2877
1956.00,0.2878
1955.00,0.2879
1954.00,0.2880
1953.00,0.2881
1952.00,0.2883
1951.00,0.2885
1950.00,0.2886
1949.00,0.2888
1948.00,0.2890
1947.00,0.2893
1946.00,0.2897
1945.00,0.2902
1944.00,0.2909
1943.00,0.2914
1942.00,0.2918
1941.00,0.2921
1940.00,0.2925
1939.00,0.2928
1938.00,0.2931
1937.00,0.2933
1936.00,0.2934
1935.00,0.2934
1934.00,0.2934
1933.00,0.2935
1932.00,0.2937
1931.00,0.2939
1930.00,0.2942
1929.00,0.2945
1928.00,0.2948
1927.00,0.2951
1926.00,0.2956
1925.00,0.2961
1924.00,0.2967
1923.00,0.2972
1922.00,0.2976
1921.00,0.2982
1920.00,0.2989
1919.00,0.2997
1918.00,0.3003
1917.00,0.3007
1916.00,0.3010
1915.00,0.3012
1914.00,0.3013
1913.00,0.3014
1912.00,0.3016
1911.00,0.3017
1910.00,0.3017
1909.00,0.3018
1908.00,0.3017
1907.00,0.3017
1906.00,0.3016
1905.00,0.3016
1904.00,0.3016
1903.00,0.3015
1902.00,0.3015
1901.00,0.3014
1900.00,0.3015
1899.00,0.3015
1898.00,0.3016
1897.00,0.3019
1896.00,0.3021
1895.00,0.3023
1894.00,0.3024
1893.00,0.3025
1892.00,0.3028
1891.00,0.3031
1890.00,0.3034
1889.00,0.3036
1888.00,0.3038
1887.00,0.3039
1886.00,0.3040
1885.00,0.3042
1884.00,0.3045
1883.00,0.3047
1882.00,0.3048
1881.00,0.3049
1880.00,0.3051
1879.00,0.3051
1878.00,0.3051
1877.00,0.3051
1876.00,0.3051
1875.00,0.3050
1874.00,0.3049
1873.00,0.3047
1872.00,0.3047
1871.00,0.3048
1870.00,0.3050
1869.00,0.3053
1868.00,0.3055
1867.00,0.3055
1866.00,0.3054
1865.00,0.3054
1864.00,0.3054
1863.00,0.3054
1862.00,0.3054
1861.00,0.3053
1860.00,0.3053
1859.00,0.3052
1858.00,0.3052
1857.00,0.3052
1856.00,0.3053
1855.00,0.3054
1854.00,0.3055
1853.00,0.3056
1852.00,0.3059
1851.00,0.3062
1850.00,0.3063
1849.00,0.3065
1848.00,0.3066
1847.00,0.3069
1846.00,0.3076
1845.00,0.3086
1844.00,0.3094
1843.00,0.3097
1842.00,0.3098
1841.00,0.3101
1840.00,0.3107
1839.00,0.3113
1838.00,0.3120
1837.00,0.3127
1836.00,0.3133
1835.00,0.3137
1834.00,0.3140
1833.00,0.3144
1832.00,0.3152
1831.00,0.3164
1830.00,0.3176
1829.00,0.3187
1828.00,0.3199
1827.00,0.3210
1826.00,0.3222
1825.00,0.3234
1824.00,0.3245
1823.00,0.3255
1822.00,0.3266
1821.00,0.3280
1820.00,0.3296
1819.00,0.3312
1818.00,0.3328
1817.00,0.3346
1816.00,0.3364
1815.00,0.3383
1814.00,0.3402
1813.00,0.3426
1812.00,0.3455
1811.00,0.3488
1810.00,0.3525
1809.00,0.3567
1808.00,0.3616
1807.00,0.3674
1806.00,0.3744
1805.00,0.3830
1804.00,0.3933
1803.00,0.4054
1802.00,0.4191
1801.00,0.4337
1800.00,0.4473
1799.00,0.4581
1798.00,0.4652
1797.00,0.4689
1796.00,0.4703
1795.00,0.4702
1794.00,0.4685
1793.00,0.4634
1792.00,0.4536
1791.00,0.4404
1790.00,0.4269
1789.00,0.4147
1788.00,0.4044
1787.00,0.3958
1786.00,0.3888
1785.00,0.3829
1784.00,0.3783
1783.00,0.3749
1782.00,0.3727
1781.00,0.3711
1780.00,0.3697
1779.00,0.3684
1778.00,0.3673
1777.00,0.3664
1776.00,0.3656
1775.00,0.3650
1774.00,0.3651
1773.00,0.3659
1772.00,0.3669
1771.00,0.3678
1770.00,0.3685
1769.00,0.3690
1768.00,0.3692
1767.00,0.3691
1766.00,0.3689
1765.00,0.3690
1764.00,0.3695
1763.00,0.3701
1762.00,0.3705
1761.00,0.3708
1760.00,0.3709
1759.00,0.3712
1758.00,0.3716
1757.00,0.3719
1756.00,0.3721
1755.00,0.3722
1754.00,0.3725
1753.00,0.3730
1752.00,0.3734
1751.00,0.3737
1750.00,0.3741
1749.00,0.3748
1748.00,0.3758
1747.00,0.3766
1746.00,0.3774
1745.00,0.3781
1744.00,0.3787
1743.00,0.3793
1742.00,0.3801
1741.00,0.3814
1740.00,0.3827
1739.00,0.3834
1738.00,0.3836
1737.00,0.3840
1736.00,0.3850
1735.00,0.3861
1734.00,0.3864
1733.00,0.3858
1732.00,0.3853
1731.00,0.3851
1730.00,0.3851
1729.00,0.3852
1728.00,0.3855
1727.00,0.3861
1726.00,0.3869
1725.00,0.3882
1724.00,0.3894
1723.00,0.3903
1722.00,0.3909
1721.00,0.3918
1720.00,0.3933
1719.00,0.3956
1718.00,0.3981
1717.00,0.4004
1716.00,0.4022
1715.00,0.4035
1714.00,0.4047
1713.00,0.4058
1712.00,0.4068
1711.00,0.4077
1710.00,0.4085
1709.00,0.4093
1708.00,0.4105
1707.00,0.4122
1706.00,0.4140
1705.00,0.4154
1704.00,0.4163
1703.00,0.4169
1702.00,0.4182
1701.00,0.4207
1700.00,0.4232
1699.00,0.4250
1698.00,0.4269
1697.00,0.4295
1696.00,0.4323
1695.00,0.4341
1694.00,0.4352
1693.00,0.4365
1692.00,0.4381
1691.00,0.4399
1690.00,0.4417
1689.00,0.4433
1688.00,0.4445
1687.00,0.4456
1686.00,0.4478
1685.00,0.4518
1684.00,0.4562
1683.00,0.4593
1682.00,0.4614
1681.00,0.4633
1680.00,0.4652
1679.00,0.4668
1678.00,0.4685
1677.00,0.4709
1676.00,0.4742
1675.00,0.4773
1674.00,0.4797
1673.00,0.4819
1672.00,0.4845
1671.00,0.4879
1670.00,0.4920
1669.00,0.4961
1668.00,0.4994
1667.00,0.5017
1666.00,0.5035
1665.00,0.5058
1664.00,0.5090
1663.00,0.5126
1662.00,0.5159
1661.00,0.5186
1660.00,0.5208
1659.00,0.5226
1658.00,0.5239
1657.00,0.5251
1656.00,0.5264
1655.00,0.5290
1654.00,0.5342
1653.00,0.5402
1652.00,0.5438
1651.00,0.5450
1650.00,0.5460
1649.00,0.5482
1648.00,0.5522
1647.00,0.5569
1646.00,0.5611
1645.00,0.5645
1644.00,0.5673
1643.00,0.5700
1642.00,0.5726
1641.00,0.5753
1640.00,0.5779
1639.00,0.5802
1638.00,0.5832
1637.00,0.5881
1636.00,0.5951
1635.00,0.6019
1634.00,0.6071
1633.00,0.6114
1632.00,0.6154
1631.00,0.6192
1630.00,0.6236
1629.00,0.6291
1628.00,0.6352
1627.00,0.6410
1626.00,0.6467
1625.00,0.6534
1624.00,0.6619
1623.00,0.6713
1622.00,0.6804
1621.00,0.6888
1620.00,0.6971
1619.00,0.7062
1618.00,0.7183
1617.00,0.7345
1616.00,0.7528
1615.00,0.7693
1614.00,0.7839
1613.00,0.7989
1612.00,0.8156
1611.00,0.8337
1610.00,0.8524
1609.00,0.8718
1608.00,0.8913
1607.00,0.9097
1606.00,0.9269
1605.00,0.9441
1604.00,0.9623
1603.00,0.9803
1602.00,0.9968
1601.00,1.0112
1600.00,1.0229
1599.00,1.0305
1598.00,1.0348
1597.00,1.0386
1596.00,1.0440
1595.00,1.0512
1594.00,1.0607
1593.00,1.0738
1592.00,1.0909
1591.00,1.1103
1590.00,1.1314
1589.00,1.1550
1588.00,1.1813
1587.00,1.2090
1586.00,1.2379
1585.00,1.2695
1584.00,1.3042
1583.00,1.3398
1582.00,1.3742
1581.00,1.4075
1580.00,1.4386
1579.00,1.4648
1578.00,1.4862
1577.00,1.5081
1576.00,1.5322
1575.00,1.5518
1574.00,1.5639
1573.00,1.5748
1572.00,1.5897
1571.00,1.6099
1570.00,1.6358
1569.00,1.6687
1568.00,1.7057
1567.00,1.7406
1566.00,1.7740
1565.00,1.8127
1564.00,1.8574
1563.00,1.8963
1562.00,1.9228
1561.00,1.9481
1560.00,1.9922
1559.00,2.0497
1558.00,2.0887
1557.00,2.1122
1556.00,2.1349
1555.00,2.1470
1554.00,2.1480
1553.00,2.1533
1552.00,2.1699
1551.00,2.1861
1550.00,2.1968
1549.00,2.2143
1548.00,2.2438
1547.00,2.2725
1546.00,2.2932
1545.00,2.3204
1544.00,2.3632
1543.00,2.4013
1542.00,2.4184
1541.00,2.4468
1540.00,2.5115
1539.00,2.5673
1538.00,2.5853
1537.00,2.6103
1536.00,2.6603
1535.00,2.7051
1534.00,2.7216
1533.00,2.7446
1532.00,2.7962
1531.00,2.8351
1530.00,2.8435
1529.00,2.8713
1528.00,2.9465
1527.00,3.0085
1526.00,3.0023
1525.00,3.0095
1524.00,3.0835
1523.00,3.1441
1522.00,3.1094
1521.00,3.0841
1520.00,3.1336
1519.00,3.1719
1518.00,3.1559
1517.00,3.1980
1516.00,3.3533
1515.00,3.4563
1514.00,3.3546
1513.00,3.2683
1512.00,3.2801
1511.00,3.2870
1510.00,3.2269
1509.00,3.2170
1508.00,3.3738
1507.00,3.6535
1506.00,3.6370
1505.00,3.5383
1504.00,3.5877
1503.00,3.6011
1502.00,3.5062
1501.00,3.4645
1500.00,3.5480
1499.00,3.6125
1498.00,3.5020
1497.00,3.4330
1496.00,3.5351
1495.00,3.6252
1494.00,3.5148
1493.00,3.4416
1492.00,3.4994
1491.00,3.5618
1490.00,3.5091
1489.00,3.5193
1488.00,3.7050
1487.00,3.8459
1486.00,3.6721
1485.00,3.5788
1484.00,3.6619
1483.00,3.7080
1482.00,3.5640
1481.00,3.4941
1480.00,3.5896
1479.00,3.6957
1478.00,3.6464
1477.00,3.6445
1476.00,3.8512
1475.00,4.0953
1474.00,3.9158
1473.00,3.8300
1472.00,4.0241
1471.00,4.1532
1470.00,3.9418
1469.00,3.9728
1468.00,4.1284
1467.00,3.9746
1466.00,3.8772
1465.00,3.8298
1464.00,3.9244
1463.00,4.1625
1462.00,4.1086
1461.00,4.2693
1460.00,4.2419
1459.00,3.8972
1458.00,3.8593
1457.00,3.8227
1456.00,4.0017
1455.00,4.4137
1454.00,4.0201
1453.00,3.7780
1452.00,3.7877
1451.00,3.8263
1450.00,3.7186
1449.00,3.6305
1448.00,3.6731
1447.00,3.7093
1446.00,3.6392
1445.00,3.6431
1444.00,3.8039
1443.00,4.0227
1442.00,3.9269
1441.00,3.7532
1440.00,3.7457
1439.00,3.7774
1438.00,3.9127
1437.00,4.1972
1436.00,3.9200
1435.00,3.7545
1434.00,4.0532
1433.00,4.5133
1432.00,3.9137
1431.00,3.7789
1430.00,3.8304
1429.00,3.9332
1428.00,4.0970
1427.00,4.0151
1426.00,3.8041
1425.00,3.7037
1424.00,3.7801
1423.00,3.8651
1422.00,3.8017
1421.00,3.7689
1420.00,3.9259
1419.00,4.0859
1418.00,3.8630
1417.00,3.7705
1416.00,3.8185
1415.00,3.7465
1414.00,3.5929
1413.00,3.5523
1412.00,3.6253
1411.00,3.6535
1410.00,3.5908
1409.00,3.6050
1408.00,3.8157
1407.00,4.1168
1406.00,4.0298
1405.00,3.8580
1404.00,3.7667
1403.00,3.7486
1402.00,3.8029
1401.00,3.7911
1400.00,3.7483
1399.00,3.6374
1398.00,3.4642
1397.00,3.3742
1396.00,3.3815
1395.00,3.4204
1394.00,3.4415
1393.00,3.4708
1392.00,3.5253
1391.00,3.5304
1390.00,3.4586
1389.00,3.4163
1388.00,3.4265
1387.00,3.3989
1386.00,3.3302
1385.00,3.3066
1384.00,3.3534
1383.00,3.4046
1382.00,3.3997
1381.00,3.3958
1380.00,3.4326
1379.00,3.4583
1378.00,3.4484
1377.00,3.4586
1376.00,3.4879
1375.00,3.4295
1374.00,3.2947
1373.00,3.2073
1372.00,3.1761
1371.00,3.1321
1370.00,3.0522
1369.00,2.9800
1368.00,2.9317
1367.00,2.8798
1366.00,2.8092
1365.00,2.7314
1364.00,2.6470
1363.00,2.5471
1362.00,2.4423
1361.00,2.3511
1360.00,2.2756
1359.00,2.2080
1358.00,2.1475
1357.00,2.0986
1356.00,2.0604
1355.00,2.0263
1354.00,1.9930
1353.00,1.9621
1352.00,1.9340
1351.00,1.9055
1350.00,1.8751
1349.00,1.8446
1348.00,1.8153
1347.00,1.7868
1346.00,1.7600
1345.00,1.7371
1344.00,1.7180
1343.00,1.6993
1342.00,1.6786
1341.00,1.6555
1340.00,1.6299
1339.00,1.6012
1338.00,1.5709
1337.00,1.5413
1336.00,1.5135
1335.00,1.4870
1334.00,1.4618
1333.00,1.4384
1332.00,1.4170
1331.00,1.3967
1330.00,1.3776
1329.00,1.3606
1328.00,1.3463
1327.00,1.3342
1326.00,1.3237
1325.00,1.3149
1324.00,1.3079
1323.00,1.3024
1322.00,1.2982
1321.00,1.2956
1320.00,1.2944
1319.00,1.2936
1318.00,1.2924
1317.00,1.2909
1316.00,1.2895
1315.00,1.2880
1314.00,1.2860
1313.00,1.2838
1312.00,1.2814
1311.00,1.2786
1310.00,1.2749
1309.00,1.2708
1308.00,1.2663
1307.00,1.2609
1306.00,1.2542
1305.00,1.2465
1304.00,1.2383
1303.00,1.2292
1302.00,1.2187
1301.00,1.2069
1300.00,1.1939
1299.00,1.1798
1298.00,1.1648
1297.00,1.1494
1296.00,1.1342
1295.00,1.1195
1294.00,1.1054
1293.00,1.0924
1292.00,1.0805
1291.00,1.0694
1290.00,1.0586
1289.00,1.0481
1288.00,1.0382
1287.00,1.0286
1286.00,1.0196
1285.00,1.0113
1284.00,1.0036
1283.00,0.9965
1282.00,0.9896
1281.00,0.9831
1280.00,0.9768
1279.00,0.9708
1278.00,0.9650
1277.00,0.9594
1276.00,0.9543
1275.00,0.9495
1274.00,0.9450
1273.00,0.9408
1272.00,0.9372
1271.00,0.9338
1270.00,0.9304
1269.00,0.9267
1268.00,0.9227
1267.00,0.9182
1266.00,0.9135
1265.00,0.9086
1264.00,0.9039
1263.00,0.8997
1262.00,0.8958
1261.00,0.8923
1260.00,0.8894
1259.00,0.8872
1258.00,0.8857
1257.00,0.8850
1256.00,0.8850
1255.00,0.8855
1254.00,0.8865
1253.00,0.8876
1252.00,0.8892
1251.00,0.8915
1250.00,0.8944
1249.00,0.8980
1248.00,0.9022
1247.00,0.9066
1246.00,0.9110
1245.00,0.9154
1244.00,0.9198
1243.00,0.9242
1242.00,0.9285
1241.00,0.9328
1240.00,0.9375
1239.00,0.9427
1238.00,0.9485
1237.00,0.9552
1236.00,0.9632
1235.00,0.9723
1234.00,0.9823
1233.00,0.9932
1232.00,1.0048
1231.00,1.0170
1230.00,1.0294
1229.00,1.0421
1228.00,1.0553
1227.00,1.0684
1226.00,1.0811
1225.00,1.0935
1224.00,1.1061
1223.00,1.1186
1222.00,1.1311
1221.00,1.1437
1220.00,1.1566
1219.00,1.1699
1218.00,1.1833
1217.00,1.1970
1216.00,1.2110
1215.00,1.2246
1214.00,1.2373
1213.00,1.2491
1212.00,1.2601
1211.00,1.2699
1210.00,1.2783
1209.00,1.2855
1208.00,1.2918
1207.00,1.2969
1206.00,1.3010
1205.00,1.3051
1204.00,1.3096
1203.00,1.3143
1202.00,1.3184
1201.00,1.3221
1200.00,1.3254
1199.00,1.3285
1198.00,1.3316
1197.00,1.3353
1196.00,1.3393
1195.00,1.3424
1194.00,1.3440
1193.00,1.3448
1192.00,1.3455
1191.00,1.3450
1190.00,1.3424
1189.00,1.3373
1188.00,1.3301
1187.00,1.3208
1186.00,1.3101
1185.00,1.2993
1184.00,1.2893
1183.00,1.2794
1182.00,1.2688
1181.00,1.2573
1180.00,1.2453
1179.00,1.2329
1178.00,1.2203
1177.00,1.2078
1176.00,1.1958
1175.00,1.1839
1174.00,1.1724
1173.00,1.1619
1172.00,1.1521
1171.00,1.1420
1170.00,1.1302
1169.00,1.1165
1168.00,1.1011
1167.00,1.0846
1166.00,1.0675
1165.00,1.0507
1164.00,1.0348
1163.00,1.0199
1162.00,1.0060
1161.00,0.9931
1160.00,0.9814
1159.00,0.9707
1158.00,0.9604
1157.00,0.9502
1156.00,0.9399
1155.00,0.9293
1154.00,0.9183
1153.00,0.9072
1152.00,0.8964
1151.00,0.8862
1150.00,0.8768
1149.00,0.8686
1148.00,0.8621
1147.00,0.8574
1146.00,0.8547
1145.00,0.8541
1144.00,0.8554
1143.00,0.8584
1142.00,0.8628
1141.00,0.8685
1140.00,0.8755
1139.00,0.8831
1138.00,0.8905
1137.00,0.8966
1136.00,0.9008
1135.00,0.9021
1134.00,0.8997
1133.00,0.8930
1132.00,0.8819
1131.00,0.8665
1130.00,0.8476
1129.00,0.8264
1128.00,0.8042
1127.00,0.7825
1126.00,0.7621
1125.00,0.7436
1124.00,0.7275
1123.00,0.7136
1122.00,0.7018
1121.00,0.6920
1120.00,0.6839
1119.00,0.6773
1118.00,0.6720
1117.00,0.6678
1116.00,0.6647
1115.00,0.6624
1114.00,0.6605
1113.00,0.6588
1112.00,0.6569
1111.00,0.6547
1110.00,0.6521
1109.00,0.6493
1108.00,0.6466
1107.00,0.6442
1106.00,0.6423
1105.00,0.6410
1104.00,0.6406
1103.00,0.6410
1102.00,0.6423
1101.00,0.6447
1100.00,0.6484
1099.00,0.6534
1098.00,0.6596
1097.00,0.6668
1096.00,0.6751
1095.00,0.6846
1094.00,0.6951
1093.00,0.7064
1092.00,0.7184
1091.00,0.7308
1090.00,0.7430
1089.00,0.7542
1088.00,0.7637
1087.00,0.7712
1086.00,0.7764
1085.00,0.7792
1084.00,0.7798
1083.00,0.7783
1082.00,0.7750
1081.00,0.7703
1080.00,0.7648
1079.00,0.7589
1078.00,0.7526
1077.00,0.7456
1076.00,0.7381
1075.00,0.7302
1074.00,0.7223
1073.00,0.7147
1072.00,0.7079
1071.00,0.7026
1070.00,0.6991
1069.00,0.6979
1068.00,0.6993
1067.00,0.7032
1066.00,0.7089
1065.00,0.7150
1064.00,0.7198
1063.00,0.7222
1062.00,0.7222
1061.00,0.7210
1060.00,0.7199
1059.00,0.7198
1058.00,0.7212
1057.00,0.7241
1056.00,0.7283
1055.00,0.7335
1054.00,0.7392
1053.00,0.7446
1052.00,0.7494
1051.00,0.7533
1050.00,0.7564
1049.00,0.7586
1048.00,0.7599
1047.00,0.7598
1046.00,0.7577
1045.00,0.7532
1044.00,0.7468
1043.00,0.7392
1042.00,0.7310
1041.00,0.7227
1040.00,0.7148
1039.00,0.7076
1038.00,0.7015
1037.00,0.6964
1036.00,0.6925
1035.00,0.6896
1034.00,0.6875
1033.00,0.6861
1032.00,0.6854
1031.00,0.6853
1030.00,0.6850
1029.00,0.6843
1028.00,0.6828
1027.00,0.6808
1026.00,0.6781
1025.00,0.6745
1024.00,0.6703
1023.00,0.6657
1022.00,0.6610
1021.00,0.6566
1020.00,0.6536
1019.00,0.6530
1018.00,0.6559
1017.00,0.6622
1016.00,0.6709
1015.00,0.6797
1014.00,0.6854
1013.00,0.6848
1012.00,0.6766
1011.00,0.6611
1010.00,0.6406
1009.00,0.6180
1008.00,0.5960
1007.00,0.5763
1006.00,0.5596
1005.00,0.5459
1004.00,0.5351
1003.00,0.5267
1002.00,0.5202
1001.00,0.5150
1000.00,0.5107
999.00,0.5074
998.00,0.5047
997.00,0.5023
996.00,0.4999
995.00,0.4975
994.00,0.4952
993.00,0.4930
992.00,0.4912
991.00,0.4901
990.00,0.4894
989.00,0.4891
988.00,0.4892
987.00,0.4898
986.00,0.4909
985.00,0.4924
984.00,0.4945
983.00,0.4970
982.00,0.4999
981.00,0.5030
980.00,0.5062
979.00,0.5096
978.00,0.5128
977.00,0.5157
976.00,0.5183
975.00,0.5205
974.00,0.5225
973.00,0.5242
972.00,0.5257
971.00,0.5272
970.00,0.5285
969.00,0.5297
968.00,0.5306
967.00,0.5312
966.00,0.5312
965.00,0.5308
964.00,0.5299
963.00,0.5287
962.00,0.5275
961.00,0.5261
960.00,0.5246
959.00,0.5232
958.00,0.5219
957.00,0.5207
956.00,0.5198
955.00,0.5192
954.00,0.5185
953.00,0.5177
952.00,0.5168
951.00,0.5158
950.00,0.5150
949.00,0.5143
948.00,0.5138
947.00,0.5136
946.00,0.5136
945.00,0.5136
944.00,0.5137
943.00,0.5141
942.00,0.5146
941.00,0.5152
940.00,0.5158
939.00,0.5164
938.00,0.5169
937.00,0.5170
936.00,0.5166
935.00,0.5158
934.00,0.5143
933.00,0.5121
932.00,0.5095
931.00,0.5067
930.00,0.5037
929.00,0.5008
928.00,0.4981
927.00,0.4958
926.00,0.4943
925.00,0.4935
924.00,0.4935
923.00,0.4946
922.00,0.4962
921.00,0.4980
920.00,0.4994
919.00,0.4999
918.00,0.4989
917.00,0.4965
916.00,0.4930
915.00,0.4893
914.00,0.4862
913.00,0.4838
912.00,0.4822
911.00,0.4814
910.00,0.4809
909.00,0.4806
908.00,0.4804
907.00,0.4804
906.00,0.4806
905.00,0.4809
904.00,0.4815
903.00,0.4828
902.00,0.4848
901.00,0.4878
900.00,0.4918
899.00,0.4967
898.00,0.5025
897.00,0.5089
896.00,0.5159
895.00,0.5236
894.00,0.5319
893.00,0.5411
892.00,0.5521
891.00,0.5662
890.00,0.5865
889.00,0.6200
888.00,0.6765
887.00,0.7643
886.00,0.8839
885.00,1.0222
884.00,1.1535
883.00,1.2589
882.00,1.3458
881.00,1.4357
880.00,1.5422
879.00,1.6669
878.00,1.8084
877.00,1.9565
876.00,2.0786
875.00,2.1204
874.00,2.0491
873.00,1.8900
872.00,1.6957
871.00,1.5103
870.00,1.3560
869.00,1.2388
868.00,1.1571
867.00,1.1057
866.00,1.0772
865.00,1.0614
864.00,1.0486
863.00,1.0319
862.00,1.0096
861.00,0.9830
860.00,0.9549
859.00,0.9282
858.00,0.9042
857.00,0.8824
856.00,0.8601
855.00,0.8341
854.00,0.8022
853.00,0.7655
852.00,0.7289
851.00,0.6979
850.00,0.6744
849.00,0.6556
848.00,0.6366
847.00,0.6152
846.00,0.5939
845.00,0.5765
844.00,0.5649
843.00,0.5584
842.00,0.5557
841.00,0.5560
840.00,0.5588
839.00,0.5637
838.00,0.5699
837.00,0.5764
836.00,0.5826
835.00,0.5878
834.00,0.5916
833.00,0.5940
832.00,0.5947
831.00,0.5937
830.00,0.5910
829.00,0.5871
828.00,0.5829
827.00,0.5792
826.00,0.5766
825.00,0.5755
824.00,0.5757
823.00,0.5767
822.00,0.5777
821.00,0.5783
820.00,0.5778
819.00,0.5763
818.00,0.5739
817.00,0.5706
816.00,0.5668
815.00,0.5629
814.00,0.5590
813.00,0.5549
812.00,0.5505
811.00,0.5462
810.00,0.5420
809.00,0.5380
808.00,0.5342
807.00,0.5305
806.00,0.5269
805.00,0.5232
804.00,0.5193
803.00,0.5151
802.00,0.5109
801.00,0.5069
800.00,0.5035
799.00,0.5009
798.00,0.4991
797.00,0.4979
796.00,0.4975
795.00,0.4979
794.00,0.4990
793.00,0.5008
792.00,0.5028
791.00,0.5051
790.00,0.5076
789.00,0.5104
788.00,0.5136
787.00,0.5175
786.00,0.5223
785.00,0.5276
784.00,0.5332
783.00,0.5388
782.00,0.5441
781.00,0.5491
780.00,0.5543
779.00,0.5598
778.00,0.5659
777.00,0.5725
776.00,0.5792
775.00,0.5861
774.00,0.5930
773.00,0.5998
772.00,0.6064
771.00,0.6123
770.00,0.6174
769.00,0.6213
768.00,0.6243
767.00,0.6267
766.00,0.6287
765.00,0.6308
764.00,0.6333
763.00,0.6365
762.00,0.6405
761.00,0.6449
760.00,0.6498
759.00,0.6551
758.00,0.6613
757.00,0.6683
756.00,0.6761
755.00,0.6845
754.00,0.6935
753.00,0.7029
752.00,0.7124
751.00,0.7221
750.00,0.7317
749.00,0.7414
748.00,0.7514
747.00,0.7615
746.00,0.7714
745.00,0.7805
744.00,0.7888
743.00,0.7974
742.00,0.8072
741.00,0.8182
740.00,0.8301
739.00,0.8421
738.00,0.8541
737.00,0.8659
736.00,0.8778
735.00,0.8902
734.00,0.9039
733.00,0.9195
732.00,0.9372
731.00,0.9570
730.00,0.9791
729.00,1.0039
728.00,1.0326
727.00,1.0663
726.00,1.1055
725.00,1.1478
724.00,1.1890
723.00,1.2233
722.00,1.2436
721.00,1.2437
720.00,1.2232
719.00,1.1906
718.00,1.1584
717.00,1.1375
716.00,1.1337
715.00,1.1454
714.00,1.1588
713.00,1.1503
712.00,1.1046
711.00,1.0318
710.00,0.9549
709.00,0.8898
708.00,0.8413
707.00,0.8082
706.00,0.7874
705.00,0.7761
704.00,0.7722
703.00,0.7744
702.00,0.7810
701.00,0.7888
700.00,0.7937
699.00,0.7913
698.00,0.7792
697.00,0.7582
696.00,0.7318
695.00,0.7052
694.00,0.6823
693.00,0.6648
692.00,0.6522
691.00,0.6428
690.00,0.6349
689.00,0.6270
688.00,0.6187
687.00,0.6104
686.00,0.6029
685.00,0.5963
684.00,0.5905
683.00,0.5853
682.00,0.5807
681.00,0.5771
680.00,0.5749
679.00,0.5741
678.00,0.5745
677.00,0.5758
676.00,0.5775
675.00,0.5792
674.00,0.5802
673.00,0.5801
672.00,0.5789
671.00,0.5772
670.00,0.5751
669.00,0.5718
668.00,0.5668
667.00,0.5625
666.00,0.5605
665.00,0.5599
664.00,0.5597
663.00,0.5596
662.00,0.5594
661.00,0.5591
660.00,0.5590
659.00,0.5595
658.00,0.5605
657.00,0.5614
656.00,0.5621
655.00,0.5627
654.00,0.5635
653.00,0.5646
652.00,0.5656
651.00,0.5668
650.00,0.5681
649.00,0.5696
648.00,0.5713
647.00,0.5733
646.00,0.5757
645.00,0.5788
644.00,0.5823
643.00,0.5860
642.00,0.5902
641.00,0.5949
640.00,0.6007
639.00,0.6078
638.00,0.6159
637.00,0.6244
636.00,0.6328
635.00,0.6411
634.00,0.6495
633.00,0.6584
632.00,0.6672
631.00,0.6752
630.00,0.6813
629.00,0.6854
628.00,0.6880
627.00,0.6896
626.00,0.6908
625.00,0.6920
624.00,0.6936
623.00,0.6956
622.00,0.6978
621.00,0.7004
620.00,0.7029
619.00,0.7049
618.00,0.7065
617.00,0.7082
616.00,0.7103
615.00,0.7127
614.00,0.7142
613.00,0.7146
612.00,0.7139
611.00,0.7122
610.00,0.7095
609.00,0.7057
608.00,0.7015
607.00,0.6973
606.00,0.6933
605.00,0.6895
604.00,0.6859
603.00,0.6830
602.00,0.6811
601.00,0.6801
600.00,0.6798
599.00,0.6805
598.00,0.6824
597.00,0.6857
596.00,0.6901
595.00,0.6954
594.00,0.7016
593.00,0.7090
592.00,0.7173
591.00,0.7260
590.00,0.7344
589.00,0.7425
588.00,0.7503
587.00,0.7581
586.00,0.7655
585.00,0.7721
584.00,0.7773
583.00,0.7804
582.00,0.7813
581.00,0.7800
580.00,0.7769
579.00,0.7724
578.00,0.7677
577.00,0.7638
576.00,0.7611
575.00,0.7590
574.00,0.7575
573.00,0.7571
572.00,0.7574
571.00,0.7576
570.00,0.7566
569.00,0.7547
568.00,0.7529
567.00,0.7515
566.00,0.7505
565.00,0.7495
564.00,0.7486
563.00,0.7473
562.00,0.7455
561.00,0.7430
560.00,0.7403
559.00,0.7379
558.00,0.7361
557.00,0.7346
556.00,0.7333
555.00,0.7323
554.00,0.7318
553.00,0.7313
552.00,0.7305
551.00,0.7294
550.00,0.7287
