Created as New Dataset,
cm-1,A
4000.00,0.4041
3999.00,0.4034
3998.00,0.4027
3997.00,0.4021
3996.00,0.4014
3995.00,0.4007
3994.00,0.4001
3993.00,0.3995
3992.00,0.3990
3991.00,0.3985
3990.00,0.3981
3989.00,0.3976
3988.00,0.3970
3987.00,0.3965
3986.00,0.3960
3985.00,0.3955
3984.00,0.3950
3983.00,0.3946
3982.00,0.3942
3981.00,0.3938
3980.00,0.3935
3979.00,0.3932
3978.00,0.3929
3977.00,0.3926
3976.00,0.3923
3975.00,0.3921
3974.00,0.3919
3973.00,0.3917
3972.00,0.3915
3971.00,0.3913
3970.00,0.3912
3969.00,0.3912
3968.00,0.3911
3967.00,0.3911
3966.00,0.3910
3965.00,0.3909
3964.00,0.3908
3963.00,0.3908
3962.00,0.3907
3961.00,0.3908
3960.00,0.3908
3959.00,0.3908
3958.00,0.3909
3957.00,0.3908
3956.00,0.3908
3955.00,0.3907
3954.00,0.3906
3953.00,0.3905
3952.00,0.3905
3951.00,0.3905
3950.00,0.3904
3949.00,0.3903
3948.00,0.3902
3947.00,0.3900
3946.00,0.3898
3945.00,0.3896
3944.00,0.3894
3943.00,0.3892
3942.00,0.3890
3941.00,0.3887
3940.00,0.3885
3939.00,0.3882
3938.00,0.3879
3937.00,0.3876
3936.00,0.3873
3935.00,0.3869
3934.00,0.3866
3933.00,0.3863
3932.00,0.3860
3931.00,0.3857
3930.00,0.3854
3929.00,0.3851
3928.00,0.3849
3927.00,0.3847
3926.00,0.3845
3925.00,0.3842
3924.00,0.3839
3923.00,0.3837
3922.00,0.3835
3921.00,0.3834
3920.00,0.3832
3919.00,0.3830
3918.00,0.3829
3917.00,0.3827
3916.00,0.3824
3915.00,0.3822
3914.00,0.3819
3913.00,0.3816
3912.00,0.3813
3911.00,0.3810
3910.00,0.3807
3909.00,0.3803
3908.00,0.3800
3907.00,0.3797
3906.00,0.3795
3905.00,0.3793
3904.00,0.3791
3903.00,0.3789
3902.00,0.3788
3901.00,0.3787
3900.00,0.3785
3899.00,0.3783
3898.00,0.3780
3897.00,0.3776
3896.00,0.3773
3895.00,0.3769
3894.00,0.3766
3893.00,0.3764
3892.00,0.3763
3891.00,0.3761
3890.00,0.3758
3889.00,0.3757
3888.00,0.3756
3887.00,0.3755
3886.00,0.3753
3885.00,0.3751
3884.00,0.3749
3883.00,0.3749
3882.00,0.3748
3881.00,0.3746
3880.00,0.3745
3879.00,0.3743
3878.00,0.3741
3877.00,0.3740
3876.00,0.3739
3875.00,0.3737
3874.00,0.3735
3873.00,0.3733
3872.00,0.3732
3871.00,0.3731
3870.00,0.3730
3869.00,0.3729
3868.00,0.3730
3867.00,0.3730
3866.00,0.3731
3865.00,0.3730
3864.00,0.3729
3863.00,0.3729
3862.00,0.3728
3861.00,0.3726
3860.00,0.3725
3859.00,0.3724
3858.00,0.3723
3857.00,0.3723
3856.00,0.3722
3855.00,0.3722
3854.00,0.3722
3853.00,0.3722
3852.00,0.3725
3851.00,0.3727
3850.00,0.3727
3849.00,0.3725
3848.00,0.3722
3847.00,0.3719
3846.00,0.3716
3845.00,0.3712
3844.00,0.3708
3843.00,0.3705
3842.00,0.3703
3841.00,0.3702
3840.00,0.3702
3839.00,0.3702
3838.00,0.3701
3837.00,0.3700
3836.00,0.3700
3835.00,0.3699
3834.00,0.3697
3833.00,0.3695
3832.00,0.3692
3831.00,0.3689
3830.00,0.3687
3829.00,0.3685
3828.00,0.3684
3827.00,0.3683
3826.00,0.3680
3825.00,0.3679
3824.00,0.3678
3823.00,0.3677
3822.00,0.3677
3821.00,0.3676
3820.00,0.3675
3819.00,0.3675
3818.00,0.3676
3817.00,0.3677
3816.00,0.3676
3815.00,0.3675
3814.00,0.3674
3813.00,0.3672
3812.00,0.3670
3811.00,0.3667
3810.00,0.3666
3809.00,0.3664
3808.00,0.3662
3807.00,0.3659
3806.00,0.3657
3805.00,0.3656
3804.00,0.3656
3803.00,0.3656
3802.00,0.3655
3801.00,0.3653
3800.00,0.3652
3799.00,0.3651
3798.00,0.3649
3797.00,0.3648
3796.00,0.3645
3795.00,0.3643
3794.00,0.3640
3793.00,0.3638
3792.00,0.3635
3791.00,0.3632
3790.00,0.3630
3789.00,0.3627
3788.00,0.3625
3787.00,0.3624
3786.00,0.3623
3785.00,0.3622
3784.00,0.3622
3783.00,0.3621
3782.00,0.3621
3781.00,0.3621
3780.00,0.3621
3779.00,0.3620
3778.00,0.3619
3777.00,0.3618
3776.00,0.3617
3775.00,0.3615
3774.00,0.3614
3773.00,0.3614
3772.00,0.3613
3771.00,0.3613
3770.00,0.3612
3769.00,0.3611
3768.00,0.3611
3767.00,0.3611
3766.00,0.3610
3765.00,0.3609
3764.00,0.3608
3763.00,0.3607
3762.00,0.3606
3761.00,0.3605
3760.00,0.3604
3759.00,0.3602
3758.00,0.3601
3757.00,0.3599
3756.00,0.3597
3755.00,0.3596
3754.00,0.3596
3753.00,0.3596
3752.00,0.3595
3751.00,0.3595
3750.00,0.3596
3749.00,0.3596
3748.00,0.3597
3747.00,0.3598
3746.00,0.3599
3745.00,0.3600
3744.00,0.3598
3743.00,0.3597
3742.00,0.3597
3741.00,0.3595
3740.00,0.3593
3739.00,0.3592
3738.00,0.3591
3737.00,0.3591
3736.00,0.3590
3735.00,0.3590
3734.00,0.3591
3733.00,0.3592
3732.00,0.3592
3731.00,0.3591
3730.00,0.3590
3729.00,0.3589
3728.00,0.3587
3727.00,0.3585
3726.00,0.3584
3725.00,0.3585
3724.00,0.3587
3723.00,0.3590
3722.00,0.3594
3721.00,0.3600
3720.00,0.3606
3719.00,0.3614
3718.00,0.3621
3717.00,0.3628
3716.00,0.3635
3715.00,0.3642
3714.00,0.3650
3713.00,0.3660
3712.00,0.3671
3711.00,0.3684
3710.00,0.3696
3709.00,0.3706
3708.00,0.3714
3707.00,0.3718
3706.00,0.3720
3705.00,0.3722
3704.00,0.3727
3703.00,0.3737
3702.00,0.3754
3701.00,0.3781
3700.00,0.3815
3699.00,0.3859
3698.00,0.3912
3697.00,0.3973
3696.00,0.4039
3695.00,0.4107
3694.00,0.4175
3693.00,0.4241
3692.00,0.4306
3691.00,0.4370
3690.00,0.4433
3689.00,0.4491
3688.00,0.4541
3687.00,0.4579
3686.00,0.4603
3685.00,0.4613
3684.00,0.4608
3683.00,0.4586
3682.00,0.4549
3681.00,0.4497
3680.00,0.4436
3679.00,0.4373
3678.00,0.4308
3677.00,0.4238
3676.00,0.4166
3675.00,0.4102
3674.00,0.4056
3673.00,0.4027
3672.00,0.4009
3671.00,0.3995
3670.00,0.3986
3669.00,0.3981
3668.00,0.3978
3667.00,0.3978
3666.00,0.3979
3665.00,0.3981
3664.00,0.3985
3663.00,0.3990
3662.00,0.3994
3661.00,0.4000
3660.00,0.4006
3659.00,0.4014
3658.00,0.4023
3657.00,0.4032
3656.00,0.4040
3655.00,0.4048
3654.00,0.4055
3653.00,0.4063
3652.00,0.4071
3651.00,0.4082
3650.00,0.4093
3649.00,0.4103
3648.00,0.4114
3647.00,0.4123
3646.00,0.4130
3645.00,0.4135
3644.00,0.4140
3643.00,0.4145
3642.00,0.4149
3641.00,0.4154
3640.00,0.4158
3639.00,0.4163
3638.00,0.4168
3637.00,0.4172
3636.00,0.4177
3635.00,0.4180
3634.00,0.4183
3633.00,0.4185
3632.00,0.4188
3631.00,0.4192
3630.00,0.4195
3629.00,0.4197
3628.00,0.4198
3627.00,0.4197
3626.00,0.4196
3625.00,0.4193
3624.00,0.4190
3623.00,0.4187
3622.00,0.4183
3621.00,0.4178
3620.00,0.4171
3619.00,0.4164
3618.00,0.4158
3617.00,0.4151
3616.00,0.4145
3615.00,0.4138
3614.00,0.4132
3613.00,0.4125
3612.00,0.4118
3611.00,0.4111
3610.00,0.4105
3609.00,0.4098
3608.00,0.4092
3607.00,0.4086
3606.00,0.4081
3605.00,0.4077
3604.00,0.4073
3603.00,0.4071
3602.00,0.4070
3601.00,0.4069
3600.00,0.4068
3599.00,0.4068
3598.00,0.4069
3597.00,0.4070
3596.00,0.4072
3595.00,0.4075
3594.00,0.4078
3593.00,0.4081
3592.00,0.4084
3591.00,0.4088
3590.00,0.4092
3589.00,0.4097
3588.00,0.4104
3587.00,0.4110
3586.00,0.4117
3585.00,0.4124
3584.00,0.4131
3583.00,0.4139
3582.00,0.4146
3581.00,0.4154
3580.00,0.4161
3579.00,0.4168
3578.00,0.4175
3577.00,0.4183
3576.00,0.4192
3575.00,0.4201
3574.00,0.4210
3573.00,0.4219
3572.00,0.4228
3571.00,0.4236
3570.00,0.4245
3569.00,0.4254
3568.00,0.4265
3567.00,0.4276
3566.00,0.4286
3565.00,0.4296
3564.00,0.4304
3563.00,0.4311
3562.00,0.4317
3561.00,0.4323
3560.00,0.4328
3559.00,0.4332
3558.00,0.4335
3557.00,0.4337
3556.00,0.4340
3555.00,0.4341
3554.00,0.4343
3553.00,0.4344
3552.00,0.4344
3551.00,0.4344
3550.00,0.4343
3549.00,0.4342
3548.00,0.4340
3547.00,0.4338
3546.00,0.4336
3545.00,0.4333
3544.00,0.4329
3543.00,0.4325
3542.00,0.4320
3541.00,0.4316
3540.00,0.4311
3539.00,0.4307
3538.00,0.4301
3537.00,0.4296
3536.00,0.4291
3535.00,0.4285
3534.00,0.4280
3533.00,0.4275
3532.00,0.4270
3531.00,0.4265
3530.00,0.4260
3529.00,0.4254
3528.00,0.4248
3527.00,0.4242
3526.00,0.4238
3525.00,0.4233
3524.00,0.4229
3523.00,0.4225
3522.00,0.4220
3521.00,0.4216
3520.00,0.4212
3519.00,0.4208
3518.00,0.4204
3517.00,0.4200
3516.00,0.4196
3515.00,0.4193
3514.00,0.4189
3513.00,0.4186
3512.00,0.4183
3511.00,0.4180
3510.00,0.4177
3509.00,0.4174
3508.00,0.4171
3507.00,0.4169
3506.00,0.4168
3505.00,0.4166
3504.00,0.4165
3503.00,0.4164
3502.00,0.4163
3501.00,0.4163
3500.00,0.4164
3499.00,0.4165
3498.00,0.4166
3497.00,0.4167
3496.00,0.4169
3495.00,0.4171
3494.00,0.4174
3493.00,0.4177
3492.00,0.4182
3491.00,0.4188
3490.00,0.4194
3489.00,0.4202
3488.00,0.4210
3487.00,0.4219
3486.00,0.4229
3485.00,0.4241
3484.00,0.4254
3483.00,0.4269
3482.00,0.4285
3481.00,0.4304
3480.00,0.4324
3479.00,0.4347
3478.00,0.4373
3477.00,0.4400
3476.00,0.4430
3475.00,0.4462
3474.00,0.4496
3473.00,0.4533
3472.00,0.4572
3471.00,0.4614
3470.00,0.4658
3469.00,0.4704
3468.00,0.4751
3467.00,0.4800
3466.00,0.4848
3465.00,0.4897
3464.00,0.4945
3463.00,0.4992
3462.00,0.5036
3461.00,0.5075
3460.00,0.5111
3459.00,0.5141
3458.00,0.5165
3457.00,0.5184
3456.00,0.5198
3455.00,0.5205
3454.00,0.5206
3453.00,0.5201
3452.00,0.5190
3451.00,0.5173
3450.00,0.5150
3449.00,0.5122
3448.00,0.5090
3447.00,0.5053
3446.00,0.5013
3445.00,0.4972
3444.00,0.4930
3443.00,0.4888
3442.00,0.4846
3441.00,0.4805
3440.00,0.4764
3439.00,0.4724
3438.00,0.4685
3437.00,0.4649
3436.00,0.4615
3435.00,0.4583
3434.00,0.4554
3433.00,0.4527
3432.00,0.4502
3431.00,0.4480
3430.00,0.4461
3429.00,0.4444
3428.00,0.4428
3427.00,0.4415
3426.00,0.4403
3425.00,0.4393
3424.00,0.4385
3423.00,0.4377
3422.00,0.4372
3421.00,0.4368
3420.00,0.4366
3419.00,0.4365
3418.00,0.4364
3417.00,0.4364
3416.00,0.4366
3415.00,0.4368
3414.00,0.4371
3413.00,0.4375
3412.00,0.4378
3411.00,0.4382
3410.00,0.4386
3409.00,0.4391
3408.00,0.4398
3407.00,0.4405
3406.00,0.4413
3405.00,0.4421
3404.00,0.4430
3403.00,0.4438
3402.00,0.4448
3401.00,0.4459
3400.00,0.4470
3399.00,0.4481
3398.00,0.4493
3397.00,0.4506
3396.00,0.4519
3395.00,0.4533
3394.00,0.4548
3393.00,0.4563
3392.00,0.4579
3391.00,0.4596
3390.00,0.4613
3389.00,0.4631
3388.00,0.4648
3387.00,0.4666
3386.00,0.4685
3385.00,0.4704
3384.00,0.4723
3383.00,0.4743
3382.00,0.4763
3381.00,0.4784
3380.00,0.4804
3379.00,0.4824
3378.00,0.4843
3377.00,0.4862
3376.00,0.4880
3375.00,0.4897
3374.00,0.4913
3373.00,0.4927
3372.00,0.4939
3371.00,0.4949
3370.00,0.4958
3369.00,0.4966
3368.00,0.4971
3367.00,0.4973
3366.00,0.4973
3365.00,0.4971
3364.00,0.4968
3363.00,0.4964
3362.00,0.4958
3361.00,0.4949
3360.00,0.4938
3359.00,0.4926
3358.00,0.4912
3357.00,0.4898
3356.00,0.4882
3355.00,0.4866
3354.00,0.4848
3353.00,0.4831
3352.00,0.4813
3351.00,0.4795
3350.00,0.4777
3349.00,0.4758
3348.00,0.4738
3347.00,0.4718
3346.00,0.4699
3345.00,0.4680
3344.00,0.4661
3343.00,0.4642
3342.00,0.4623
3341.00,0.4603
3340.00,0.4583
3339.00,0.4563
3338.00,0.4544
3337.00,0.4526
3336.00,0.4507
3335.00,0.4488
3334.00,0.4470
3333.00,0.4452
3332.00,0.4435
3331.00,0.4419
3330.00,0.4403
3329.00,0.4386
3328.00,0.4370
3327.00,0.4355
3326.00,0.4341
3325.00,0.4327
3324.00,0.4314
3323.00,0.4302
3322.00,0.4289
3321.00,0.4276
3320.00,0.4265
3319.00,0.4254
3318.00,0.4244
3317.00,0.4234
3316.00,0.4225
3315.00,0.4215
3314.00,0.4206
3313.00,0.4198
3312.00,0.4191
3311.00,0.4183
3310.00,0.4177
3309.00,0.4170
3308.00,0.4164
3307.00,0.4159
3306.00,0.4153
3305.00,0.4148
3304.00,0.4142
3303.00,0.4137
3302.00,0.4133
3301.00,0.4129
3300.00,0.4126
3299.00,0.4123
3298.00,0.4120
3297.00,0.4116
3296.00,0.4113
3295.00,0.4109
3294.00,0.4106
3293.00,0.4104
3292.00,0.4101
3291.00,0.4098
3290.00,0.4095
3289.00,0.4092
3288.00,0.4090
3287.00,0.4088
3286.00,0.4087
3285.00,0.4085
3284.00,0.4084
3283.00,0.4082
3282.00,0.4082
3281.00,0.4082
3280.00,0.4082
3279.00,0.4081
3278.00,0.4080
3277.00,0.4079
3276.00,0.4079
3275.00,0.4079
3274.00,0.4080
3273.00,0.4080
3272.00,0.4081
3271.00,0.4082
3270.00,0.4082
3269.00,0.4082
3268.00,0.4083
3267.00,0.4083
3266.00,0.4085
3265.00,0.4086
3264.00,0.4087
3263.00,0.4088
3262.00,0.4088
3261.00,0.4089
3260.00,0.4089
3259.00,0.4090
3258.00,0.4090
3257.00,0.4091
3256.00,0.4093
3255.00,0.4094
3254.00,0.4096
3253.00,0.4097
3252.00,0.4099
3251.00,0.4099
3250.00,0.4100
3249.00,0.4102
3248.00,0.4103
3247.00,0.4105
3246.00,0.4106
3245.00,0.4107
3244.00,0.4109
3243.00,0.4111
3242.00,0.4113
3241.00,0.4114
3240.00,0.4116
3239.00,0.4118
3238.00,0.4121
3237.00,0.4123
3236.00,0.4127
3235.00,0.4130
3234.00,0.4134
3233.00,0.4137
3232.00,0.4141
3231.00,0.4146
3230.00,0.4151
3229.00,0.4155
3228.00,0.4160
3227.00,0.4164
3226.00,0.4168
3225.00,0.4173
3224.00,0.4179
3223.00,0.4185
3222.00,0.4191
3221.00,0.4197
3220.00,0.4203
3219.00,0.4208
3218.00,0.4213
3217.00,0.4219
3216.00,0.4225
3215.00,0.4231
3214.00,0.4236
3213.00,0.4242
3212.00,0.4248
3211.00,0.4254
3210.00,0.4261
3209.00,0.4269
3208.00,0.4277
3207.00,0.4284
3206.00,0.4291
3205.00,0.4299
3204.00,0.4307
3203.00,0.4315
3202.00,0.4323
3201.00,0.4330
3200.00,0.4337
3199.00,0.4344
3198.00,0.4352
3197.00,0.4360
3196.00,0.4368
3195.00,0.4375
3194.00,0.4383
3193.00,0.4391
3192.00,0.4398
3191.00,0.4404
3190.00,0.4410
3189.00,0.4416
3188.00,0.4421
3187.00,0.4424
3186.00,0.4426
3185.00,0.4426
3184.00,0.4425
3183.00,0.4424
3182.00,0.4422
3181.00,0.4420
3180.00,0.4419
3179.00,0.4417
3178.00,0.4416
3177.00,0.4415
3176.00,0.4413
3175.00,0.4412
3174.00,0.4410
3173.00,0.4409
3172.00,0.4409
3171.00,0.4408
3170.00,0.4407
3169.00,0.4406
3168.00,0.4405
3167.00,0.4403
3166.00,0.4402
3165.00,0.4402
3164.00,0.4402
3163.00,0.4401
3162.00,0.4401
3161.00,0.4400
3160.00,0.4399
3159.00,0.4399
3158.00,0.4398
3157.00,0.4398
3156.00,0.4398
3155.00,0.4398
3154.00,0.4397
3153.00,0.4397
3152.00,0.4397
3151.00,0.4397
3150.00,0.4397
3149.00,0.4397
3148.00,0.4397
3147.00,0.4396
3146.00,0.4396
3145.00,0.4396
3144.00,0.4397
3143.00,0.4399
3142.00,0.4400
3141.00,0.4403
3140.00,0.4405
3139.00,0.4407
3138.00,0.4410
3137.00,0.4413
3136.00,0.4418
3135.00,0.4422
3134.00,0.4426
3133.00,0.4431
3132.00,0.4437
3131.00,0.4442
3130.00,0.4447
3129.00,0.4453
3128.00,0.4460
3127.00,0.4467
3126.00,0.4475
3125.00,0.4483
3124.00,0.4492
3123.00,0.4502
3122.00,0.4511
3121.00,0.4520
3120.00,0.4529
3119.00,0.4539
3118.00,0.4549
3117.00,0.4560
3116.00,0.4572
3115.00,0.4585
3114.00,0.4598
3113.00,0.4611
3112.00,0.4623
3111.00,0.4636
3110.00,0.4648
3109.00,0.4660
3108.00,0.4673
3107.00,0.4685
3106.00,0.4697
3105.00,0.4709
3104.00,0.4722
3103.00,0.4734
3102.00,0.4747
3101.00,0.4760
3100.00,0.4774
3099.00,0.4788
3098.00,0.4803
3097.00,0.4818
3096.00,0.4834
3095.00,0.4849
3094.00,0.4864
3093.00,0.4879
3092.00,0.4894
3091.00,0.4909
3090.00,0.4925
3089.00,0.4940
3088.00,0.4955
3087.00,0.4970
3086.00,0.4987
3085.00,0.5005
3084.00,0.5024
3083.00,0.5043
3082.00,0.5064
3081.00,0.5087
3080.00,0.5111
3079.00,0.5137
3078.00,0.5165
3077.00,0.5196
3076.00,0.5230
3075.00,0.5267
3074.00,0.5306
3073.00,0.5347
3072.00,0.5390
3071.00,0.5433
3070.00,0.5477
3069.00,0.5522
3068.00,0.5565
3067.00,0.5608
3066.00,0.5650
3065.00,0.5691
3064.00,0.5730
3063.00,0.5769
3062.00,0.5806
3061.00,0.5842
3060.00,0.5876
3059.00,0.5908
3058.00,0.5938
3057.00,0.5967
3056.00,0.5994
3055.00,0.6019
3054.00,0.6042
3053.00,0.6064
3052.00,0.6085
3051.00,0.6105
3050.00,0.6124
3049.00,0.6143
3048.00,0.6161
3047.00,0.6180
3046.00,0.6201
3045.00,0.6225
3044.00,0.6252
3043.00,0.6283
3042.00,0.6316
3041.00,0.6351
3040.00,0.6389
3039.00,0.6427
3038.00,0.6466
3037.00,0.6505
3036.00,0.6543
3035.00,0.6580
3034.00,0.6618
3033.00,0.6657
3032.00,0.6697
3031.00,0.6738
3030.00,0.6781
3029.00,0.6828
3028.00,0.6880
3027.00,0.6936
3026.00,0.6998
3025.00,0.7066
3024.00,0.7139
3023.00,0.7216
3022.00,0.7299
3021.00,0.7388
3020.00,0.7481
3019.00,0.7581
3018.00,0.7687
3017.00,0.7800
3016.00,0.7919
3015.00,0.8046
3014.00,0.8179
3013.00,0.8319
3012.00,0.8468
3011.00,0.8626
3010.00,0.8795
3009.00,0.8976
3008.00,0.9170
3007.00,0.9376
3006.00,0.9599
3005.00,0.9842
3004.00,1.0105
3003.00,1.0390
3002.00,1.0697
3001.00,1.1030
3000.00,1.1393
2999.00,1.1790
2998.00,1.2225
2997.00,1.2699
2996.00,1.3212
2995.00,1.3766
2994.00,1.4365
2993.00,1.5017
2992.00,1.5728
2991.00,1.6503
2990.00,1.7345
2989.00,1.8254
2988.00,1.9227
2987.00,2.0269
2986.00,2.1398
2985.00,2.2637
2984.00,2.3994
2983.00,2.5463
2982.00,2.7044
2981.00,2.8742
2980.00,3.0547
2979.00,3.2486
2978.00,3.4694
2977.00,3.7433
2976.00,4.0679
2975.00,4.2061
2974.00,4.1503
2973.00,4.1158
2972.00,4.1429
2971.00,4.1258
2970.00,4.0399
2969.00,4.0040
2968.00,4.0268
2967.00,4.0888
2966.00,4.1697
2965.00,4.2582
2964.00,4.3341
2963.00,4.4184
2962.00,4.3774
2961.00,4.2348
2960.00,4.2217
2959.00,4.2130
2958.00,4.1433
2957.00,4.1160
2956.00,4.1761
2955.00,4.2163
2954.00,4.1673
2953.00,4.2125
2952.00,4.2400
2951.00,4.0364
2950.00,3.8639
2949.00,3.8387
2948.00,3.9751
2947.00,4.2052
2946.00,4.2705
2945.00,4.1416
2944.00,3.9998
2943.00,3.9701
2942.00,3.9878
2941.00,4.1226
2940.00,4.5141
2939.00,4.6312
2938.00,4.3451
2937.00,4.1320
2936.00,4.1705
2935.00,4.2442
2934.00,4.1637
2933.00,4.0559
2932.00,3.9573
2931.00,3.8915
2930.00,3.8523
2929.00,3.8653
2928.00,3.9943
2927.00,4.2120
2926.00,4.1539
2925.00,3.9600
2924.00,3.8280
2923.00,3.8354
2922.00,3.9330
2921.00,4.1657
2920.00,4.5259
2919.00,4.3790
2918.00,4.2661
2917.00,4.3750
2916.00,4.6790
2915.00,4.3918
2914.00,4.1075
2913.00,4.0244
2912.00,4.0467
2911.00,4.0488
2910.00,3.9799
2909.00,3.9263
2908.00,4.0698
2907.00,4.4522
2906.00,4.3159
2905.00,4.1254
2904.00,4.0524
2903.00,4.2239
2902.00,4.3424
2901.00,4.1862
2900.00,3.9686
2899.00,3.7956
2898.00,3.7669
2897.00,3.8381
2896.00,3.9346
2895.00,4.0082
2894.00,4.0712
2893.00,4.0993
2892.00,4.1224
2891.00,4.1380
2890.00,4.0782
2889.00,3.9841
2888.00,3.9440
2887.00,4.0260
2886.00,4.1360
2885.00,4.1016
2884.00,3.9716
2883.00,3.8698
2882.00,3.8854
2881.00,4.0035
2880.00,4.0929
2879.00,4.0610
2878.00,3.9699
2877.00,3.9164
2876.00,3.9044
2875.00,3.9443
2874.00,4.0527
2873.00,4.0881
2872.00,4.0092
2871.00,3.9552
2870.00,3.9812
2869.00,4.0505
2868.00,4.1151
2867.00,4.2292
2866.00,4.3224
2865.00,4.2226
2864.00,4.0469
2863.00,3.9339
2862.00,3.9281
2861.00,4.0499
2860.00,4.3218
2859.00,4.6524
2858.00,4.4784
2857.00,4.4522
2856.00,4.6834
2855.00,4.3823
2854.00,4.1101
2853.00,4.0104
2852.00,4.1142
2851.00,4.1467
2850.00,3.9312
2849.00,3.6199
2848.00,3.3134
2847.00,3.0479
2846.00,2.8120
2845.00,2.5978
2844.00,2.4029
2843.00,2.2293
2842.00,2.0778
2841.00,1.9470
2840.00,1.8344
2839.00,1.7367
2838.00,1.6513
2837.00,1.5760
2836.00,1.5091
2835.00,1.4493
2834.00,1.3957
2833.00,1.3475
2832.00,1.3040
2831.00,1.2642
2830.00,1.2278
2829.00,1.1940
2828.00,1.1625
2827.00,1.1328
2826.00,1.1045
2825.00,1.0777
2824.00,1.0521
2823.00,1.0276
2822.00,1.0041
2821.00,0.9815
2820.00,0.9599
2819.00,0.9391
2818.00,0.9190
2817.00,0.8998
2816.00,0.8812
2815.00,0.8635
2814.00,0.8467
2813.00,0.8310
2812.00,0.8162
2811.00,0.8022
2810.00,0.7891
2809.00,0.7768
2808.00,0.7652
2807.00,0.7542
2806.00,0.7438
2805.00,0.7337
2804.00,0.7239
2803.00,0.7143
2802.00,0.7048
2801.00,0.6955
2800.00,0.6864
2799.00,0.6775
2798.00,0.6689
2797.00,0.6606
2796.00,0.6525
2795.00,0.6448
2794.00,0.6375
2793.00,0.6306
2792.00,0.6241
2791.00,0.6179
2790.00,0.6121
2789.00,0.6066
2788.00,0.6014
2787.00,0.5963
2786.00,0.5915
2785.00,0.5867
2784.00,0.5822
2783.00,0.5778
2782.00,0.5735
2781.00,0.5695
2780.00,0.5657
2779.00,0.5621
2778.00,0.5589
2777.00,0.5558
2776.00,0.5529
2775.00,0.5502
2774.00,0.5477
2773.00,0.5454
2772.00,0.5432
2771.00,0.5413
2770.00,0.5394
2769.00,0.5377
2768.00,0.5360
2767.00,0.5344
2766.00,0.5330
2765.00,0.5318
2764.00,0.5307
2763.00,0.5298
2762.00,0.5290
2761.00,0.5283
2760.00,0.5276
2759.00,0.5271
2758.00,0.5267
2757.00,0.5265
2756.00,0.5265
2755.00,0.5266
2754.00,0.5268
2753.00,0.5272
2752.00,0.5277
2751.00,0.5284
2750.00,0.5293
2749.00,0.5305
2748.00,0.5319
2747.00,0.5334
2746.00,0.5350
2745.00,0.5369
2744.00,0.5389
2743.00,0.5412
2742.00,0.5437
2741.00,0.5465
2740.00,0.5493
2739.00,0.5522
2738.00,0.5549
2737.00,0.5575
2736.00,0.5596
2735.00,0.5611
2734.00,0.5619
2733.00,0.5618
2732.00,0.5609
2731.00,0.5591
2730.00,0.5563
2729.00,0.5528
2728.00,0.5486
2727.00,0.5439
2726.00,0.5390
2725.00,0.5342
2724.00,0.5297
2723.00,0.5255
2722.00,0.5217
2721.00,0.5184
2720.00,0.5155
2719.00,0.5130
2718.00,0.5108
2717.00,0.5088
2716.00,0.5069
2715.00,0.5050
2714.00,0.5031
2713.00,0.5013
2712.00,0.4995
2711.00,0.4977
2710.00,0.4961
2709.00,0.4946
2708.00,0.4932
2707.00,0.4921
2706.00,0.4911
2705.00,0.4902
2704.00,0.4894
2703.00,0.4887
2702.00,0.4881
2701.00,0.4876
2700.00,0.4873
2699.00,0.4871
2698.00,0.4869
2697.00,0.4867
2696.00,0.4864
2695.00,0.4861
2694.00,0.4857
2693.00,0.4853
2692.00,0.4850
2691.00,0.4848
2690.00,0.4846
2689.00,0.4844
2688.00,0.4843
2687.00,0.4843
2686.00,0.4843
2685.00,0.4845
2684.00,0.4848
2683.00,0.4851
2682.00,0.4855
2681.00,0.4859
2680.00,0.4862
2679.00,0.4864
2678.00,0.4865
2677.00,0.4865
2676.00,0.4863
2675.00,0.4861
2674.00,0.4857
2673.00,0.4852
2672.00,0.4845
2671.00,0.4836
2670.00,0.4825
2669.00,0.4812
2668.00,0.4797
2667.00,0.4779
2666.00,0.4757
2665.00,0.4734
2664.00,0.4710
2663.00,0.4684
2662.00,0.4659
2661.00,0.4634
2660.00,0.4610
2659.00,0.4587
2658.00,0.4565
2657.00,0.4545
2656.00,0.4526
2655.00,0.4508
2654.00,0.4491
2653.00,0.4475
2652.00,0.4461
2651.00,0.4449
2650.00,0.4437
2649.00,0.4425
2648.00,0.4414
2647.00,0.4404
2646.00,0.4394
2645.00,0.4385
2644.00,0.4377
2643.00,0.4369
2642.00,0.4362
2641.00,0.4354
2640.00,0.4348
2639.00,0.4341
2638.00,0.4334
2637.00,0.4328
2636.00,0.4321
2635.00,0.4315
2634.00,0.4309
2633.00,0.4303
2632.00,0.4297
2631.00,0.4292
2630.00,0.4287
2629.00,0.4283
2628.00,0.4279
2627.00,0.4275
2626.00,0.4272
2625.00,0.4268
2624.00,0.4265
2623.00,0.4262
2622.00,0.4259
2621.00,0.4257
2620.00,0.4256
2619.00,0.4254
2618.00,0.4252
2617.00,0.4250
2616.00,0.4248
2615.00,0.4245
2614.00,0.4242
2613.00,0.4238
2612.00,0.4235
2611.00,0.4232
2610.00,0.4230
2609.00,0.4228
2608.00,0.4226
2607.00,0.4223
2606.00,0.4220
2605.00,0.4215
2604.00,0.4211
2603.00,0.4206
2602.00,0.4200
2601.00,0.4193
2600.00,0.4186
2599.00,0.4177
2598.00,0.4167
2597.00,0.4156
2596.00,0.4145
2595.00,0.4133
2594.00,0.4122
2593.00,0.4111
2592.00,0.4100
2591.00,0.4089
2590.00,0.4077
2589.00,0.4066
2588.00,0.4055
2587.00,0.4045
2586.00,0.4035
2585.00,0.4026
2584.00,0.4016
2583.00,0.4006
2582.00,0.3995
2581.00,0.3985
2580.00,0.3974
2579.00,0.3963
2578.00,0.3951
2577.00,0.3939
2576.00,0.3928
2575.00,0.3917
2574.00,0.3905
2573.00,0.3894
2572.00,0.3884
2571.00,0.3873
2570.00,0.3863
2569.00,0.3853
2568.00,0.3844
2567.00,0.3836
2566.00,0.3827
2565.00,0.3818
2564.00,0.3810
2563.00,0.3803
2562.00,0.3795
2561.00,0.3789
2560.00,0.3782
2559.00,0.3774
2558.00,0.3767
2557.00,0.3760
2556.00,0.3754
2555.00,0.3748
2554.00,0.3742
2553.00,0.3738
2552.00,0.3733
2551.00,0.3729
2550.00,0.3726
2549.00,0.3723
2548.00,0.3721
2547.00,0.3719
2546.00,0.3717
2545.00,0.3714
2544.00,0.3712
2543.00,0.3709
2542.00,0.3706
2541.00,0.3703
2540.00,0.3701
2539.00,0.3699
2538.00,0.3698
2537.00,0.3697
2536.00,0.3696
2535.00,0.3694
2534.00,0.3693
2533.00,0.3692
2532.00,0.3690
2531.00,0.3688
2530.00,0.3686
2529.00,0.3683
2528.00,0.3680
2527.00,0.3677
2526.00,0.3674
2525.00,0.3671
2524.00,0.3668
2523.00,0.3665
2522.00,0.3661
2521.00,0.3658
2520.00,0.3655
2519.00,0.3652
2518.00,0.3649
2517.00,0.3645
2516.00,0.3642
2515.00,0.3638
2514.00,0.3634
2513.00,0.3629
2512.00,0.3624
2511.00,0.3619
2510.00,0.3614
2509.00,0.3610
2508.00,0.3605
2507.00,0.3601
2506.00,0.3596
2505.00,0.3592
2504.00,0.3588
2503.00,0.3585
2502.00,0.3581
2501.00,0.3577
2500.00,0.3572
2499.00,0.3568
2498.00,0.3565
2497.00,0.3561
2496.00,0.3558
2495.00,0.3555
2494.00,0.3551
2493.00,0.3548
2492.00,0.3546
2491.00,0.3543
2490.00,0.3540
2489.00,0.3537
2488.00,0.3535
2487.00,0.3532
2486.00,0.3529
2485.00,0.3526
2484.00,0.3524
2483.00,0.3521
2482.00,0.3518
2481.00,0.3515
2480.00,0.3512
2479.00,0.3509
2478.00,0.3506
2477.00,0.3503
2476.00,0.3501
2475.00,0.3498
2474.00,0.3495
2473.00,0.3493
2472.00,0.3491
2471.00,0.3490
2470.00,0.3488
2469.00,0.3487
2468.00,0.3486
2467.00,0.3485
2466.00,0.3484
2465.00,0.3483
2464.00,0.3482
2463.00,0.3481
2462.00,0.3481
2461.00,0.3481
2460.00,0.3481
2459.00,0.3481
2458.00,0.3480
2457.00,0.3480
2456.00,0.3480
2455.00,0.3481
2454.00,0.3481
2453.00,0.3482
2452.00,0.3483
2451.00,0.3484
2450.00,0.3484
2449.00,0.3486
2448.00,0.3487
2447.00,0.3489
2446.00,0.3490
2445.00,0.3491
2444.00,0.3494
2443.00,0.3496
2442.00,0.3498
2441.00,0.3501
2440.00,0.3503
2439.00,0.3505
2438.00,0.3507
2437.00,0.3510
2436.00,0.3512
2435.00,0.3515
2434.00,0.3517
2433.00,0.3520
2432.00,0.3523
2431.00,0.3526
2430.00,0.3530
2429.00,0.3534
2428.00,0.3539
2427.00,0.3544
2426.00,0.3549
2425.00,0.3554
2424.00,0.3559
2423.00,0.3564
2422.00,0.3569
2421.00,0.3573
2420.00,0.3577
2419.00,0.3580
2418.00,0.3583
2417.00,0.3586
2416.00,0.3589
2415.00,0.3590
2414.00,0.3592
2413.00,0.3593
2412.00,0.3594
2411.00,0.3595
2410.00,0.3596
2409.00,0.3598
2408.00,0.3600
2407.00,0.3602
2406.00,0.3603
2405.00,0.3605
2404.00,0.3607
2403.00,0.3609
2402.00,0.3611
2401.00,0.3613
2400.00,0.3616
2399.00,0.3617
2398.00,0.3619
2397.00,0.3621
2396.00,0.3623
2395.00,0.3625
2394.00,0.3627
2393.00,0.3630
2392.00,0.3633
2391.00,0.3635
2390.00,0.3637
2389.00,0.3639
2388.00,0.3641
2387.00,0.3643
2386.00,0.3645
2385.00,0.3647
2384.00,0.3650
2383.00,0.3652
2382.00,0.3653
2381.00,0.3656
2380.00,0.3658
2379.00,0.3661
2378.00,0.3663
2377.00,0.3665
2376.00,0.3667
2375.00,0.3669
2374.00,0.3669
2373.00,0.3669
2372.00,0.3669
2371.00,0.3669
2370.00,0.3669
2369.00,0.3670
2368.00,0.3672
2367.00,0.3673
2366.00,0.3675
2365.00,0.3677
2364.00,0.3679
2363.00,0.3682
2362.00,0.3684
2361.00,0.3687
2360.00,0.3689
2359.00,0.3691
2358.00,0.3691
2357.00,0.3692
2356.00,0.3693
2355.00,0.3695
2354.00,0.3697
2353.00,0.3699
2352.00,0.3703
2351.00,0.3706
2350.00,0.3706
2349.00,0.3704
2348.00,0.3701
2347.00,0.3699
2346.00,0.3699
2345.00,0.3701
2344.00,0.3702
2343.00,0.3701
2342.00,0.3700
2341.00,0.3700
2340.00,0.3701
2339.00,0.3702
2338.00,0.3703
2337.00,0.3704
2336.00,0.3704
2335.00,0.3703
2334.00,0.3701
2333.00,0.3700
2332.00,0.3699
2331.00,0.3699
2330.00,0.3699
2329.00,0.3699
2328.00,0.3698
2327.00,0.3697
2326.00,0.3696
2325.00,0.3695
2324.00,0.3695
2323.00,0.3695
2322.00,0.3694
2321.00,0.3693
2320.00,0.3691
2319.00,0.3688
2318.00,0.3685
2317.00,0.3681
2316.00,0.3677
2315.00,0.3673
2314.00,0.3669
2313.00,0.3665
2312.00,0.3662
2311.00,0.3659
2310.00,0.3654
2309.00,0.3650
2308.00,0.3646
2307.00,0.3642
2306.00,0.3638
2305.00,0.3633
2304.00,0.3630
2303.00,0.3626
2302.00,0.3622
2301.00,0.3619
2300.00,0.3616
2299.00,0.3613
2298.00,0.3610
2297.00,0.3608
2296.00,0.3605
2295.00,0.3602
2294.00,0.3598
2293.00,0.3595
2292.00,0.3592
2291.00,0.3588
2290.00,0.3584
2289.00,0.3581
2288.00,0.3577
2287.00,0.3574
2286.00,0.3570
2285.00,0.3566
2284.00,0.3562
2283.00,0.3557
2282.00,0.3551
2281.00,0.3546
2280.00,0.3542
2279.00,0.3537
2278.00,0.3532
2277.00,0.3527
2276.00,0.3523
2275.00,0.3518
2274.00,0.3513
2273.00,0.3509
2272.00,0.3504
2271.00,0.3499
2270.00,0.3495
2269.00,0.3490
2268.00,0.3485
2267.00,0.3480
2266.00,0.3475
2265.00,0.3470
2264.00,0.3466
2263.00,0.3461
2262.00,0.3457
2261.00,0.3454
2260.00,0.3452
2259.00,0.3449
2258.00,0.3447
2257.00,0.3445
2256.00,0.3444
2255.00,0.3444
2254.00,0.3444
2253.00,0.3444
2252.00,0.3444
2251.00,0.3444
2250.00,0.3443
2249.00,0.3442
2248.00,0.3442
2247.00,0.3441
2246.00,0.3439
2245.00,0.3438
2244.00,0.3437
2243.00,0.3436
2242.00,0.3434
2241.00,0.3434
2240.00,0.3433
2239.00,0.3433
2238.00,0.3432
2237.00,0.3431
2236.00,0.3431
2235.00,0.3430
2234.00,0.3429
2233.00,0.3428
2232.00,0.3428
2231.00,0.3427
2230.00,0.3426
2229.00,0.3425
2228.00,0.3424
2227.00,0.3423
2226.00,0.3422
2225.00,0.3421
2224.00,0.3420
2223.00,0.3419
2222.00,0.3418
2221.00,0.3417
2220.00,0.3417
2219.00,0.3416
2218.00,0.3416
2217.00,0.3415
2216.00,0.3415
2215.00,0.3415
2214.00,0.3415
2213.00,0.3414
2212.00,0.3413
2211.00,0.3413
2210.00,0.3412
2209.00,0.3411
2208.00,0.3409
2207.00,0.3408
2206.00,0.3406
2205.00,0.3404
2204.00,0.3403
2203.00,0.3401
2202.00,0.3400
2201.00,0.3399
2200.00,0.3398
2199.00,0.3397
2198.00,0.3396
2197.00,0.3395
2196.00,0.3394
2195.00,0.3394
2194.00,0.3394
2193.00,0.3395
2192.00,0.3396
2191.00,0.3397
2190.00,0.3398
2189.00,0.3400
2188.00,0.3401
2187.00,0.3402
2186.00,0.3403
2185.00,0.3405
2184.00,0.3406
2183.00,0.3408
2182.00,0.3410
2181.00,0.3412
2180.00,0.3415
2179.00,0.3418
2178.00,0.3421
2177.00,0.3424
2176.00,0.3428
2175.00,0.3432
2174.00,0.3435
2173.00,0.3439
2172.00,0.3443
2171.00,0.3447
2170.00,0.3451
2169.00,0.3456
2168.00,0.3462
2167.00,0.3468
2166.00,0.3473
2165.00,0.3478
2164.00,0.3484
2163.00,0.3488
2162.00,0.3492
2161.00,0.3496
2160.00,0.3499
2159.00,0.3502
2158.00,0.3505
2157.00,0.3506
2156.00,0.3507
2155.00,0.3506
2154.00,0.3505
2153.00,0.3504
2152.00,0.3503
2151.00,0.3502
2150.00,0.3500
2149.00,0.3498
2148.00,0.3497
2147.00,0.3496
2146.00,0.3494
2145.00,0.3493
2144.00,0.3493
2143.00,0.3492
2142.00,0.3492
2141.00,0.3491
2140.00,0.3491
2139.00,0.3490
2138.00,0.3489
2137.00,0.3488
2136.00,0.3488
2135.00,0.3489
2134.00,0.3490
2133.00,0.3491
2132.00,0.3492
2131.00,0.3492
2130.00,0.3493
2129.00,0.3494
2128.00,0.3496
2127.00,0.3498
2126.00,0.3499
2125.00,0.3500
2124.00,0.3501
2123.00,0.3502
2122.00,0.3502
2121.00,0.3503
2120.00,0.3504
2119.00,0.3505
2118.00,0.3505
2117.00,0.3506
2116.00,0.3507
2115.00,0.3508
2114.00,0.3509
2113.00,0.3510
2112.00,0.3512
2111.00,0.3514
2110.00,0.3516
2109.00,0.3518
2108.00,0.3521
2107.00,0.3523
2106.00,0.3525
2105.00,0.3527
2104.00,0.3529
2103.00,0.3531
2102.00,0.3533
2101.00,0.3534
2100.00,0.3537
2099.00,0.3539
2098.00,0.3541
2097.00,0.3543
2096.00,0.3546
2095.00,0.3548
2094.00,0.3549
2093.00,0.3552
2092.00,0.3554
2091.00,0.3555
2090.00,0.3556
2089.00,0.3558
2088.00,0.3561
2087.00,0.3563
2086.00,0.3565
2085.00,0.3567
2084.00,0.3568
2083.00,0.3570
2082.00,0.3570
2081.00,0.3571
2080.00,0.3572
2079.00,0.3573
2078.00,0.3574
2077.00,0.3575
2076.00,0.3575
2075.00,0.3575
2074.00,0.3575
2073.00,0.3576
2072.00,0.3577
2071.00,0.3578
2070.00,0.3578
2069.00,0.3578
2068.00,0.3579
2067.00,0.3578
2066.00,0.3577
2065.00,0.3577
2064.00,0.3578
2063.00,0.3579
2062.00,0.3580
2061.00,0.3581
2060.00,0.3582
2059.00,0.3582
2058.00,0.3583
2057.00,0.3583
2056.00,0.3585
2055.00,0.3586
2054.00,0.3587
2053.00,0.3588
2052.00,0.3590
2051.00,0.3592
2050.00,0.3593
2049.00,0.3595
2048.00,0.3597
2047.00,0.3599
2046.00,0.3601
2045.00,0.3603
2044.00,0.3606
2043.00,0.3609
2042.00,0.3611
2041.00,0.3614
2040.00,0.3618
2039.00,0.3622
2038.00,0.3625
2037.00,0.3627
2036.00,0.3630
2035.00,0.3631
2034.00,0.3631
2033.00,0.3631
2032.00,0.3630
2031.00,0.3628
2030.00,0.3625
2029.00,0.3622
2028.00,0.3618
2027.00,0.3614
2026.00,0.3608
2025.00,0.3602
2024.00,0.3596
2023.00,0.3589
2022.00,0.3582
2021.00,0.3576
2020.00,0.3569
2019.00,0.3563
2018.00,0.3556
2017.00,0.3551
2016.00,0.3548
2015.00,0.3545
2014.00,0.3543
2013.00,0.3541
2012.00,0.3540
2011.00,0.3538
2010.00,0.3536
2009.00,0.3535
2008.00,0.3534
2007.00,0.3534
2006.00,0.3533
2005.00,0.3533
2004.00,0.3534
2003.00,0.3534
2002.00,0.3534
2001.00,0.3535
2000.00,0.3536
1999.00,0.3537
1998.00,0.3538
1997.00,0.3538
1996.00,0.3539
1995.00,0.3539
1994.00,0.3536
1993.00,0.3533
1992.00,0.3531
1991.00,0.3531
1990.00,0.3531
1989.00,0.3533
1988.00,0.3534
1987.00,0.3535
1986.00,0.3535
1985.00,0.3535
1984.00,0.3536
1983.00,0.3535
1982.00,0.3534
1981.00,0.3534
1980.00,0.3535
1979.00,0.3535
1978.00,0.3535
1977.00,0.3537
1976.00,0.3538
1975.00,0.3540
1974.00,0.3541
1973.00,0.3543
1972.00,0.3546
1971.00,0.3547
1970.00,0.3548
1969.00,0.3548
1968.00,0.3549
1967.00,0.3550
1966.00,0.3553
1965.00,0.3557
1964.00,0.3562
1963.00,0.3565
1962.00,0.3566
1961.00,0.3568
1960.00,0.3570
1959.00,0.3571
1958.00,0.3572
1957.00,0.3574
1956.00,0.3577
1955.00,0.3579
1954.00,0.3581
1953.00,0.3584
1952.00,0.3588
1951.00,0.3591
1950.00,0.3593
1949.00,0.3596
1948.00,0.3600
1947.00,0.3603
1946.00,0.3605
1945.00,0.3606
1944.00,0.3606
1943.00,0.3606
1942.00,0.3608
1941.00,0.3613
1940.00,0.3620
1939.00,0.3625
1938.00,0.3627
1937.00,0.3627
1936.00,0.3627
1935.00,0.3627
1934.00,0.3626
1933.00,0.3626
1932.00,0.3627
1931.00,0.3628
1930.00,0.3628
1929.00,0.3629
1928.00,0.3631
1927.00,0.3632
1926.00,0.3631
1925.00,0.3630
1924.00,0.3630
1923.00,0.3630
1922.00,0.3632
1921.00,0.3636
1920.00,0.3640
1919.00,0.3642
1918.00,0.3643
1917.00,0.3648
1916.00,0.3654
1915.00,0.3660
1914.00,0.3664
1913.00,0.3666
1912.00,0.3667
1911.00,0.3666
1910.00,0.3665
1909.00,0.3666
1908.00,0.3668
1907.00,0.3670
1906.00,0.3672
1905.00,0.3674
1904.00,0.3676
1903.00,0.3678
1902.00,0.3679
1901.00,0.3681
1900.00,0.3683
1899.00,0.3685
1898.00,0.3685
1897.00,0.3685
1896.00,0.3686
1895.00,0.3689
1894.00,0.3691
1893.00,0.3695
1892.00,0.3697
1891.00,0.3696
1890.00,0.3695
1889.00,0.3697
1888.00,0.3703
1887.00,0.3709
1886.00,0.3715
1885.00,0.3719
1884.00,0.3723
1883.00,0.3727
1882.00,0.3731
1881.00,0.3737
1880.00,0.3743
1879.00,0.3750
1878.00,0.3756
1877.00,0.3764
1876.00,0.3772
1875.00,0.3780
1874.00,0.3788
1873.00,0.3795
1872.00,0.3801
1871.00,0.3804
1870.00,0.3808
1869.00,0.3817
1868.00,0.3832
1867.00,0.3850
1866.00,0.3868
1865.00,0.3885
1864.00,0.3902
1863.00,0.3916
1862.00,0.3930
1861.00,0.3946
1860.00,0.3963
1859.00,0.3981
1858.00,0.4000
1857.00,0.4021
1856.00,0.4043
1855.00,0.4064
1854.00,0.4086
1853.00,0.4110
1852.00,0.4136
1851.00,0.4161
1850.00,0.4186
1849.00,0.4214
1848.00,0.4244
1847.00,0.4276
1846.00,0.4313
1845.00,0.4361
1844.00,0.4420
1843.00,0.4487
1842.00,0.4557
1841.00,0.4633
1840.00,0.4718
1839.00,0.4815
1838.00,0.4927
1837.00,0.5057
1836.00,0.5203
1835.00,0.5359
1834.00,0.5520
1833.00,0.5684
1832.00,0.5850
1831.00,0.6020
1830.00,0.6197
1829.00,0.6371
1828.00,0.6526
1827.00,0.6665
1826.00,0.6802
1825.00,0.6953
1824.00,0.7115
1823.00,0.7277
1822.00,0.7436
1821.00,0.7592
1820.00,0.7740
1819.00,0.7874
1818.00,0.7994
1817.00,0.8100
1816.00,0.8190
1815.00,0.8262
1814.00,0.8320
1813.00,0.8369
1812.00,0.8413
1811.00,0.8456
1810.00,0.8501
1809.00,0.8551
1808.00,0.8603
1807.00,0.8656
1806.00,0.8712
1805.00,0.8771
1804.00,0.8831
1803.00,0.8891
1802.00,0.8959
1801.00,0.9041
1800.00,0.9137
1799.00,0.9240
1798.00,0.9348
1797.00,0.9462
1796.00,0.9579
1795.00,0.9701
1794.00,0.9836
1793.00,0.9988
1792.00,1.0152
1791.00,1.0313
1790.00,1.0463
1789.00,1.0600
1788.00,1.0720
1787.00,1.0821
1786.00,1.0902
1785.00,1.0964
1784.00,1.1006
1783.00,1.1031
1782.00,1.1043
1781.00,1.1040
1780.00,1.1025
1779.00,1.1010
1778.00,1.1002
1777.00,1.1002
1776.00,1.1014
1775.00,1.1046
1774.00,1.1111
1773.00,1.1215
1772.00,1.1352
1771.00,1.1512
1770.00,1.1697
1769.00,1.1923
1768.00,1.2207
1767.00,1.2545
1766.00,1.2921
1765.00,1.3327
1764.00,1.3783
1763.00,1.4341
1762.00,1.5045
1761.00,1.5873
1760.00,1.6764
1759.00,1.7719
1758.00,1.8849
1757.00,2.0269
1756.00,2.1954
1755.00,2.3757
1754.00,2.5664
1753.00,2.7818
1752.00,3.0273
1751.00,3.3122
1750.00,3.7757
1749.00,4.3251
1748.00,4.1674
1747.00,4.2567
1746.00,3.9808
1745.00,3.7726
1744.00,3.8162
1743.00,3.8769
1742.00,3.7406
1741.00,3.6760
1740.00,3.8191
1739.00,4.0015
1738.00,3.9909
1737.00,3.9218
1736.00,4.1126
1735.00,4.4157
1734.00,3.9306
1733.00,3.7271
1732.00,3.9964
1731.00,4.4997
1730.00,3.9200
1729.00,3.7225
1728.00,3.8888
1727.00,4.0690
1726.00,3.7865
1725.00,3.7712
1724.00,3.9981
1723.00,3.8055
1722.00,3.7429
1721.00,3.6279
1720.00,3.2586
1719.00,2.9962
1718.00,2.8137
1717.00,2.6058
1716.00,2.3912
1715.00,2.2204
1714.00,2.0847
1713.00,1.9609
1712.00,1.8452
1711.00,1.7430
1710.00,1.6538
1709.00,1.5726
1708.00,1.4971
1707.00,1.4274
1706.00,1.3639
1705.00,1.3090
1704.00,1.2664
1703.00,1.2355
1702.00,1.2100
1701.00,1.1821
1700.00,1.1532
1699.00,1.1326
1698.00,1.1196
1697.00,1.1052
1696.00,1.0830
1695.00,1.0556
1694.00,1.0289
1693.00,1.0030
1692.00,0.9750
1691.00,0.9439
1690.00,0.9106
1689.00,0.8781
1688.00,0.8501
1687.00,0.8271
1686.00,0.8054
1685.00,0.7783
1684.00,0.7468
1683.00,0.7203
1682.00,0.7021
1681.00,0.6882
1680.00,0.6756
1679.00,0.6641
1678.00,0.6540
1677.00,0.6441
1676.00,0.6329
1675.00,0.6215
1674.00,0.6122
1673.00,0.6049
1672.00,0.5979
1671.00,0.5907
1670.00,0.5830
1669.00,0.5756
1668.00,0.5692
1667.00,0.5644
1666.00,0.5606
1665.00,0.5569
1664.00,0.5526
1663.00,0.5482
1662.00,0.5446
1661.00,0.5418
1660.00,0.5394
1659.00,0.5372
1658.00,0.5350
1657.00,0.5328
1656.00,0.5311
1655.00,0.5301
1654.00,0.5290
1653.00,0.5270
1652.00,0.5246
1651.00,0.5213
1650.00,0.5169
1649.00,0.5129
1648.00,0.5102
1647.00,0.5086
1646.00,0.5077
1645.00,0.5073
1644.00,0.5065
1643.00,0.5053
1642.00,0.5042
1641.00,0.5034
1640.00,0.5026
1639.00,0.5020
1638.00,0.5021
1637.00,0.5027
1636.00,0.5032
1635.00,0.5035
1634.00,0.5039
1633.00,0.5044
1632.00,0.5048
1631.00,0.5054
1630.00,0.5062
1629.00,0.5069
1628.00,0.5074
1627.00,0.5077
1626.00,0.5078
1625.00,0.5076
1624.00,0.5070
1623.00,0.5064
1622.00,0.5060
1621.00,0.5060
1620.00,0.5065
1619.00,0.5077
1618.00,0.5099
1617.00,0.5124
1616.00,0.5142
1615.00,0.5150
1614.00,0.5159
1613.00,0.5180
1612.00,0.5220
1611.00,0.5279
1610.00,0.5362
1609.00,0.5475
1608.00,0.5627
1607.00,0.5813
1606.00,0.6019
1605.00,0.6217
1604.00,0.6368
1603.00,0.6435
1602.00,0.6411
1601.00,0.6324
1600.00,0.6216
1599.00,0.6123
1598.00,0.6068
1597.00,0.6059
1596.00,0.6089
1595.00,0.6140
1594.00,0.6191
1593.00,0.6217
1592.00,0.6199
1591.00,0.6129
1590.00,0.6022
1589.00,0.5907
1588.00,0.5813
1587.00,0.5756
1586.00,0.5751
1585.00,0.5804
1584.00,0.5912
1583.00,0.6064
1582.00,0.6240
1581.00,0.6414
1580.00,0.6561
1579.00,0.6673
1578.00,0.6745
1577.00,0.6774
1576.00,0.6749
1575.00,0.6676
1574.00,0.6573
1573.00,0.6458
1572.00,0.6333
1571.00,0.6188
1570.00,0.6030
1569.00,0.5892
1568.00,0.5798
1567.00,0.5740
1566.00,0.5703
1565.00,0.5678
1564.00,0.5661
1563.00,0.5655
1562.00,0.5659
1561.00,0.5665
1560.00,0.5662
1559.00,0.5664
1558.00,0.5671
1557.00,0.5678
1556.00,0.5683
1555.00,0.5686
1554.00,0.5694
1553.00,0.5703
1552.00,0.5710
1551.00,0.5716
1550.00,0.5729
1549.00,0.5754
1548.00,0.5784
1547.00,0.5811
1546.00,0.5835
1545.00,0.5865
1544.00,0.5908
1543.00,0.5963
1542.00,0.6035
1541.00,0.6130
1540.00,0.6242
1539.00,0.6340
1538.00,0.6404
1537.00,0.6440
1536.00,0.6463
1535.00,0.6491
1534.00,0.6528
1533.00,0.6574
1532.00,0.6618
1531.00,0.6656
1530.00,0.6686
1529.00,0.6708
1528.00,0.6725
1527.00,0.6737
1526.00,0.6747
1525.00,0.6757
1524.00,0.6764
1523.00,0.6762
1522.00,0.6746
1521.00,0.6719
1520.00,0.6689
1519.00,0.6659
1518.00,0.6629
1517.00,0.6606
1516.00,0.6594
1515.00,0.6595
1514.00,0.6607
1513.00,0.6631
1512.00,0.6664
1511.00,0.6708
1510.00,0.6765
1509.00,0.6857
1508.00,0.7026
1507.00,0.7330
1506.00,0.7751
1505.00,0.8186
1504.00,0.8565
1503.00,0.8897
1502.00,0.9209
1501.00,0.9495
1500.00,0.9713
1499.00,0.9829
1498.00,0.9833
1497.00,0.9726
1496.00,0.9535
1495.00,0.9331
1494.00,0.9183
1493.00,0.9113
1492.00,0.9117
1491.00,0.9196
1490.00,0.9369
1489.00,0.9639
1488.00,0.9980
1487.00,1.0368
1486.00,1.0802
1485.00,1.1284
1484.00,1.1808
1483.00,1.2384
1482.00,1.3044
1481.00,1.3796
1480.00,1.4602
1479.00,1.5440
1478.00,1.6370
1477.00,1.7472
1476.00,1.8751
1475.00,2.0183
1474.00,2.1906
1473.00,2.4243
1472.00,2.7358
1471.00,3.0998
1470.00,3.5246
1469.00,3.9218
1468.00,3.9710
1467.00,4.0184
1466.00,4.0655
1465.00,4.2716
1464.00,4.1353
1463.00,3.8303
1462.00,3.8646
1461.00,4.3145
1460.00,4.6613
1459.00,4.1423
1458.00,3.8659
1457.00,3.8513
1456.00,3.8132
1455.00,3.5950
1454.00,3.4823
1453.00,3.3714
1452.00,3.1615
1451.00,2.9508
1450.00,2.8007
1449.00,2.6962
1448.00,2.6064
1447.00,2.5261
1446.00,2.4564
1445.00,2.3841
1444.00,2.2975
1443.00,2.2042
1442.00,2.1169
1441.00,2.0399
1440.00,1.9715
1439.00,1.9093
1438.00,1.8493
1437.00,1.7882
1436.00,1.7310
1435.00,1.6861
1434.00,1.6533
1433.00,1.6271
1432.00,1.6045
1431.00,1.5869
1430.00,1.5773
1429.00,1.5767
1428.00,1.5846
1427.00,1.6010
1426.00,1.6266
1425.00,1.6622
1424.00,1.7060
1423.00,1.7525
1422.00,1.7960
1421.00,1.8316
1420.00,1.8509
1419.00,1.8439
1418.00,1.8103
1417.00,1.7567
1416.00,1.6886
1415.00,1.6118
1414.00,1.5338
1413.00,1.4606
1412.00,1.3968
1411.00,1.3466
1410.00,1.3119
1409.00,1.2916
1408.00,1.2836
1407.00,1.2872
1406.00,1.3023
1405.00,1.3283
1404.00,1.3633
1403.00,1.4047
1402.00,1.4513
1401.00,1.5053
1400.00,1.5712
1399.00,1.6517
1398.00,1.7444
1397.00,1.8461
1396.00,1.9583
1395.00,2.0837
1394.00,2.2174
1393.00,2.3437
1392.00,2.4437
1391.00,2.5115
1390.00,2.5590
1389.00,2.5984
1388.00,2.6291
1387.00,2.6525
1386.00,2.6829
1385.00,2.7258
1384.00,2.7646
1383.00,2.7853
1382.00,2.7947
1381.00,2.7930
1380.00,2.7546
1379.00,2.6666
1378.00,2.5499
1377.00,2.4231
1376.00,2.2931
1375.00,2.1719
1374.00,2.0741
1373.00,2.0047
1372.00,1.9581
1371.00,1.9279
1370.00,1.9122
1369.00,1.9105
1368.00,1.9202
1367.00,1.9378
1366.00,1.9622
1365.00,1.9922
1364.00,2.0252
1363.00,2.0595
1362.00,2.0964
1361.00,2.1349
1360.00,2.1691
1359.00,2.1948
1358.00,2.2144
1357.00,2.2292
1356.00,2.2360
1355.00,2.2348
1354.00,2.2318
1353.00,2.2297
1352.00,2.2226
1351.00,2.2056
1350.00,2.1820
1349.00,2.1565
1348.00,2.1299
1347.00,2.1024
1346.00,2.0762
1345.00,2.0510
1344.00,2.0243
1343.00,1.9956
1342.00,1.9674
1341.00,1.9401
1340.00,1.9106
1339.00,1.8786
1338.00,1.8469
1337.00,1.8175
1336.00,1.7904
1335.00,1.7663
1334.00,1.7479
1333.00,1.7365
1332.00,1.7318
1331.00,1.7340
1330.00,1.7441
1329.00,1.7615
1328.00,1.7836
1327.00,1.8084
1326.00,1.8359
1325.00,1.8656
1324.00,1.8951
1323.00,1.9239
1322.00,1.9548
1321.00,1.9898
1320.00,2.0261
1319.00,2.0593
1318.00,2.0891
1317.00,2.1169
1316.00,2.1424
1315.00,2.1654
1314.00,2.1888
1313.00,2.2128
1312.00,2.2334
1311.00,2.2492
1310.00,2.2660
1309.00,2.2870
1308.00,2.3071
1307.00,2.3206
1306.00,2.3293
1305.00,2.3354
1304.00,2.3350
1303.00,2.3268
1302.00,2.3164
1301.00,2.3077
1300.00,2.2968
1299.00,2.2813
1298.00,2.2657
1297.00,2.2531
1296.00,2.2408
1295.00,2.2287
1294.00,2.2235
1293.00,2.2304
1292.00,2.2465
1291.00,2.2672
1290.00,2.2938
1289.00,2.3297
1288.00,2.3731
1287.00,2.4197
1286.00,2.4707
1285.00,2.5278
1284.00,2.5834
1283.00,2.6266
1282.00,2.6577
1281.00,2.6815
1280.00,2.6946
1279.00,2.6978
1278.00,2.7070
1277.00,2.7351
1276.00,2.7771
1275.00,2.8207
1274.00,2.8624
1273.00,2.9017
1272.00,2.9304
1271.00,2.9524
1270.00,2.9937
1269.00,3.0630
1268.00,3.1200
1267.00,3.1318
1266.00,3.1396
1265.00,3.1920
1264.00,3.2824
1263.00,3.3567
1262.00,3.3925
1261.00,3.4266
1260.00,3.4616
1259.00,3.4727
1258.00,3.4996
1257.00,3.5877
1256.00,3.6651
1255.00,3.6814
1254.00,3.7729
1253.00,3.8258
1252.00,3.6948
1251.00,3.6924
1250.00,3.7636
1249.00,3.6409
1248.00,3.4926
1247.00,3.4979
1246.00,3.6388
1245.00,3.8050
1244.00,3.8556
1243.00,3.7623
1242.00,3.6112
1241.00,3.4995
1240.00,3.5214
1239.00,3.5341
1238.00,3.4039
1237.00,3.3604
1236.00,3.4228
1235.00,3.5194
1234.00,3.6039
1233.00,3.6787
1232.00,3.7796
1231.00,3.7767
1230.00,3.6529
1229.00,3.6293
1228.00,3.6976
1227.00,3.7484
1226.00,3.8218
1225.00,3.8282
1224.00,3.7685
1223.00,3.8143
1222.00,3.9297
1221.00,4.1090
1220.00,4.2628
1219.00,4.5281
1218.00,4.2514
1217.00,3.9532
1216.00,3.8092
1215.00,3.7207
1214.00,3.7046
1213.00,3.6781
1212.00,3.6163
1211.00,3.6318
1210.00,3.6660
1209.00,3.6018
1208.00,3.5167
1207.00,3.4597
1206.00,3.4097
1205.00,3.3694
1204.00,3.3837
1203.00,3.4355
1202.00,3.4740
1201.00,3.5438
1200.00,3.6618
1199.00,3.8048
1198.00,3.8747
1197.00,3.8648
1196.00,3.9996
1195.00,4.3561
1194.00,4.1520
1193.00,3.8031
1192.00,3.7376
1191.00,3.8511
1190.00,3.9891
1189.00,3.9766
1188.00,3.8147
1187.00,3.6918
1186.00,3.6671
1185.00,3.6889
1184.00,3.7490
1183.00,3.9610
1182.00,4.2999
1181.00,4.1099
1180.00,3.8296
1179.00,3.7856
1178.00,3.8824
1177.00,3.9646
1176.00,3.9017
1175.00,3.8287
1174.00,3.8118
1173.00,3.8076
1172.00,3.9592
1171.00,4.1805
1170.00,3.9011
1169.00,3.7911
1168.00,3.7490
1167.00,3.6150
1166.00,3.5228
1165.00,3.5255
1164.00,3.6092
1163.00,3.7701
1162.00,4.0013
1161.00,4.1371
1160.00,4.2853
1159.00,4.7697
1158.00,4.4308
1157.00,3.8787
1156.00,3.6785
1155.00,3.6832
1154.00,3.8846
1153.00,4.2802
1152.00,3.8643
1151.00,3.5897
1150.00,3.4757
1149.00,3.3991
1148.00,3.3167
1147.00,3.2370
1146.00,3.2067
1145.00,3.2174
1144.00,3.2086
1143.00,3.1508
1142.00,3.0882
1141.00,3.0454
1140.00,3.0006
1139.00,2.9466
1138.00,2.9098
1137.00,2.9050
1136.00,2.9177
1135.00,2.9300
1134.00,2.9487
1133.00,2.9782
1132.00,3.0088
1131.00,3.0445
1130.00,3.0802
1129.00,3.0912
1128.00,3.0514
1127.00,2.9635
1126.00,2.8617
1125.00,2.7644
1124.00,2.6689
1123.00,2.5755
1122.00,2.4928
1121.00,2.4251
1120.00,2.3683
1119.00,2.3184
1118.00,2.2745
1117.00,2.2337
1116.00,2.1911
1115.00,2.1470
1114.00,2.1068
1113.00,2.0755
1112.00,2.0559
1111.00,2.0510
1110.00,2.0646
1109.00,2.0973
1108.00,2.1451
1107.00,2.2048
1106.00,2.2773
1105.00,2.3649
1104.00,2.4659
1103.00,2.5758
1102.00,2.6935
1101.00,2.8124
1100.00,2.9109
1099.00,2.9876
1098.00,3.0752
1097.00,3.1956
1096.00,3.3219
1095.00,3.3908
1094.00,3.4234
1093.00,3.4790
1092.00,3.5259
1091.00,3.5214
1090.00,3.5456
1089.00,3.6918
1088.00,3.9461
1087.00,4.0324
1086.00,4.2127
1085.00,4.4310
1084.00,3.9626
1083.00,3.8153
1082.00,3.7894
1081.00,3.7679
1080.00,3.9241
1079.00,4.3077
1078.00,3.8209
1077.00,3.5975
1076.00,3.4847
1075.00,3.3681
1074.00,3.2749
1073.00,3.1875
1072.00,3.0718
1071.00,2.9351
1070.00,2.8135
1069.00,2.7168
1068.00,2.6351
1067.00,2.5612
1066.00,2.4961
1065.00,2.4396
1064.00,2.3881
1063.00,2.3426
1062.00,2.3084
1061.00,2.2854
1060.00,2.2679
1059.00,2.2522
1058.00,2.2394
1057.00,2.2271
1056.00,2.2085
1055.00,2.1834
1054.00,2.1609
1053.00,2.1473
1052.00,2.1412
1051.00,2.1389
1050.00,2.1406
1049.00,2.1463
1048.00,2.1522
1047.00,2.1582
1046.00,2.1710
1045.00,2.1950
1044.00,2.2255
1043.00,2.2560
1042.00,2.2860
1041.00,2.3191
1040.00,2.3568
1039.00,2.4009
1038.00,2.4571
1037.00,2.5276
1036.00,2.6014
1035.00,2.6662
1034.00,2.7301
1033.00,2.8153
1032.00,2.9282
1031.00,3.0525
1030.00,3.1661
1029.00,3.2418
1028.00,3.2568
1027.00,3.2456
1026.00,3.2782
1025.00,3.3830
1024.00,3.5636
1023.00,3.6385
1022.00,3.4826
1021.00,3.4236
1020.00,3.4555
1019.00,3.5046
1018.00,3.5762
1017.00,3.6396
1016.00,3.6629
1015.00,3.6960
1014.00,3.8317
1013.00,4.1473
1012.00,3.9383
1011.00,3.7311
1010.00,3.7131
1009.00,3.9047
1008.00,4.2500
1007.00,3.9938
1006.00,3.7933
1005.00,3.6432
1004.00,3.5539
1003.00,3.5744
1002.00,3.6733
1001.00,3.8986
1000.00,4.0556
999.00,3.7163
998.00,3.6221
997.00,3.8147
996.00,3.9855
995.00,3.6200
994.00,3.4307
993.00,3.4007
992.00,3.5278
991.00,3.7892
990.00,3.6342
989.00,3.4896
988.00,3.4546
987.00,3.3882
986.00,3.2720
985.00,3.1198
984.00,2.9564
983.00,2.8111
982.00,2.6979
981.00,2.6026
980.00,2.5052
979.00,2.4000
978.00,2.2931
977.00,2.1903
976.00,2.0945
975.00,2.0093
974.00,1.9379
973.00,1.8798
972.00,1.8311
971.00,1.7882
970.00,1.7498
969.00,1.7150
968.00,1.6831
967.00,1.6535
966.00,1.6257
965.00,1.5980
964.00,1.5681
963.00,1.5353
962.00,1.5004
961.00,1.4640
960.00,1.4260
959.00,1.3867
958.00,1.3469
957.00,1.3074
956.00,1.2687
955.00,1.2317
954.00,1.1971
953.00,1.1652
952.00,1.1354
951.00,1.1078
950.00,1.0828
949.00,1.0608
948.00,1.0414
947.00,1.0242
946.00,1.0087
945.00,0.9950
944.00,0.9832
943.00,0.9736
942.00,0.9664
941.00,0.9613
940.00,0.9579
939.00,0.9553
938.00,0.9530
937.00,0.9504
936.00,0.9471
935.00,0.9433
934.00,0.9393
933.00,0.9352
932.00,0.9312
931.00,0.9272
930.00,0.9235
929.00,0.9202
928.00,0.9177
927.00,0.9162
926.00,0.9157
925.00,0.9157
924.00,0.9157
923.00,0.9152
922.00,0.9140
921.00,0.9119
920.00,0.9088
919.00,0.9057
918.00,0.9033
917.00,0.9023
916.00,0.9028
915.00,0.9047
914.00,0.9076
913.00,0.9109
912.00,0.9134
911.00,0.9146
910.00,0.9138
909.00,0.9104
908.00,0.9045
907.00,0.8962
906.00,0.8861
905.00,0.8745
904.00,0.8620
903.00,0.8499
902.00,0.8388
901.00,0.8291
900.00,0.8210
899.00,0.8147
898.00,0.8105
897.00,0.8076
896.00,0.8046
895.00,0.8001
894.00,0.7929
893.00,0.7819
892.00,0.7673
891.00,0.7505
890.00,0.7340
889.00,0.7198
888.00,0.7091
887.00,0.7025
886.00,0.6995
885.00,0.6992
884.00,0.7004
883.00,0.7024
882.00,0.7053
881.00,0.7092
880.00,0.7142
879.00,0.7198
878.00,0.7251
877.00,0.7285
876.00,0.7288
875.00,0.7251
874.00,0.7176
873.00,0.7071
872.00,0.6947
871.00,0.6822
870.00,0.6705
869.00,0.6600
868.00,0.6505
867.00,0.6420
866.00,0.6345
865.00,0.6277
864.00,0.6215
863.00,0.6158
862.00,0.6107
861.00,0.6059
860.00,0.6014
859.00,0.5972
858.00,0.5932
857.00,0.5886
856.00,0.5829
855.00,0.5758
854.00,0.5679
853.00,0.5598
852.00,0.5524
851.00,0.5462
850.00,0.5412
849.00,0.5368
848.00,0.5324
847.00,0.5280
846.00,0.5238
845.00,0.5204
844.00,0.5176
843.00,0.5156
842.00,0.5141
841.00,0.5133
840.00,0.5131
839.00,0.5138
838.00,0.5155
837.00,0.5180
836.00,0.5213
835.00,0.5252
834.00,0.5295
833.00,0.5340
832.00,0.5383
831.00,0.5423
830.00,0.5456
829.00,0.5481
828.00,0.5498
827.00,0.5507
826.00,0.5508
825.00,0.5496
824.00,0.5472
823.00,0.5440
822.00,0.5404
821.00,0.5365
820.00,0.5326
819.00,0.5290
818.00,0.5261
817.00,0.5238
816.00,0.5224
815.00,0.5219
814.00,0.5223
813.00,0.5234
812.00,0.5248
811.00,0.5266
810.00,0.5289
809.00,0.5315
808.00,0.5342
807.00,0.5373
806.00,0.5413
805.00,0.5464
804.00,0.5527
803.00,0.5607
802.00,0.5705
801.00,0.5820
800.00,0.5945
799.00,0.6076
798.00,0.6211
797.00,0.6353
796.00,0.6511
795.00,0.6698
794.00,0.6915
793.00,0.7147
792.00,0.7368
791.00,0.7556
790.00,0.7705
789.00,0.7820
788.00,0.7916
787.00,0.8015
786.00,0.8141
785.00,0.8308
784.00,0.8524
783.00,0.8790
782.00,0.9092
781.00,0.9403
780.00,0.9685
779.00,0.9910
778.00,1.0071
777.00,1.0177
776.00,1.0240
775.00,1.0264
774.00,1.0238
773.00,1.0144
772.00,0.9975
771.00,0.9748
770.00,0.9489
769.00,0.9219
768.00,0.8943
767.00,0.8662
766.00,0.8369
765.00,0.8062
764.00,0.7753
763.00,0.7461
762.00,0.7204
761.00,0.6990
760.00,0.6823
759.00,0.6710
758.00,0.6652
757.00,0.6644
756.00,0.6674
755.00,0.6732
754.00,0.6813
753.00,0.6913
752.00,0.7026
751.00,0.7149
750.00,0.7278
749.00,0.7405
748.00,0.7524
747.00,0.7633
746.00,0.7736
745.00,0.7832
744.00,0.7925
743.00,0.8021
742.00,0.8120
741.00,0.8220
740.00,0.8321
739.00,0.8434
738.00,0.8570
737.00,0.8735
736.00,0.8936
735.00,0.9185
734.00,0.9498
733.00,0.9881
732.00,1.0321
731.00,1.0791
730.00,1.1234
729.00,1.1561
728.00,1.1678
727.00,1.1542
726.00,1.1174
725.00,1.0638
724.00,1.0011
723.00,0.9368
722.00,0.8760
721.00,0.8213
720.00,0.7738
719.00,0.7344
718.00,0.7031
717.00,0.6798
716.00,0.6641
715.00,0.6551
714.00,0.6512
713.00,0.6497
712.00,0.6487
711.00,0.6477
710.00,0.6475
709.00,0.6488
708.00,0.6517
707.00,0.6555
706.00,0.6596
705.00,0.6626
704.00,0.6634
703.00,0.6617
702.00,0.6573
701.00,0.6502
700.00,0.6410
699.00,0.6312
698.00,0.6225
697.00,0.6161
696.00,0.6114
695.00,0.6068
694.00,0.5993
693.00,0.5867
692.00,0.5689
691.00,0.5487
690.00,0.5291
689.00,0.5123
688.00,0.4993
687.00,0.4899
686.00,0.4833
685.00,0.4787
684.00,0.4753
683.00,0.4730
682.00,0.4716
681.00,0.4708
680.00,0.4703
679.00,0.4702
678.00,0.4706
677.00,0.4711
676.00,0.4714
675.00,0.4715
674.00,0.4714
673.00,0.4710
672.00,0.4703
671.00,0.4697
670.00,0.4695
669.00,0.4691
668.00,0.4683
667.00,0.4677
666.00,0.4681
665.00,0.4695
664.00,0.4714
663.00,0.4742
662.00,0.4783
661.00,0.4839
660.00,0.4911
659.00,0.4997
658.00,0.5091
657.00,0.5189
656.00,0.5283
655.00,0.5369
654.00,0.5441
653.00,0.5500
652.00,0.5547
651.00,0.5579
650.00,0.5595
649.00,0.5597
648.00,0.5587
647.00,0.5568
646.00,0.5542
645.00,0.5513
644.00,0.5485
643.00,0.5456
642.00,0.5425
641.00,0.5386
640.00,0.5340
639.00,0.5290
638.00,0.5239
637.00,0.5190
636.00,0.5142
635.00,0.5099
634.00,0.5065
633.00,0.5037
632.00,0.5013
631.00,0.4992
630.00,0.4978
629.00,0.4971
628.00,0.4970
627.00,0.4976
626.00,0.4990
625.00,0.5012
624.00,0.5038
623.00,0.5062
622.00,0.5078
621.00,0.5084
620.00,0.5087
619.00,0.5095
618.00,0.5111
617.00,0.5129
616.00,0.5147
615.00,0.5165
614.00,0.5180
613.00,0.5187
612.00,0.5184
611.00,0.5172
610.00,0.5159
609.00,0.5148
608.00,0.5139
607.00,0.5132
606.00,0.5127
605.00,0.5125
604.00,0.5128
603.00,0.5138
602.00,0.5152
601.00,0.5170
600.00,0.5193
599.00,0.5223
598.00,0.5260
597.00,0.5294
596.00,0.5321
595.00,0.5342
594.00,0.5363
593.00,0.5389
592.00,0.5420
591.00,0.5455
590.00,0.5493
589.00,0.5529
588.00,0.5566
587.00,0.5606
586.00,0.5651
585.00,0.5694
584.00,0.5730
583.00,0.5759
582.00,0.5782
581.00,0.5798
580.00,0.5805
579.00,0.5803
578.00,0.5793
577.00,0.5771
576.00,0.5740
575.00,0.5707
574.00,0.5677
573.00,0.5649
572.00,0.5625
571.00,0.5610
570.00,0.5607
569.00,0.5610
568.00,0.5614
567.00,0.5618
566.00,0.5624
565.00,0.5629
564.00,0.5630
563.00,0.5631
562.00,0.5632
561.00,0.5636
560.00,0.5643
559.00,0.5661
558.00,0.5692
557.00,0.5735
556.00,0.5787
555.00,0.5850
554.00,0.5927
553.00,0.6014
552.00,0.6107
551.00,0.6210
550.00,0.6325
