Created as New Dataset,
cm-1,A
4000.00,0.0853
3999.00,0.0846
3998.00,0.0840
3997.00,0.0833
3996.00,0.0827
3995.00,0.0821
3994.00,0.0817
3993.00,0.0816
3992.00,0.0814
3991.00,0.0811
3990.00,0.0804
3989.00,0.0797
3988.00,0.0790
3987.00,0.0785
3986.00,0.0780
3985.00,0.0775
3984.00,0.0771
3983.00,0.0766
3982.00,0.0760
3981.00,0.0753
3980.00,0.0747
3979.00,0.0743
3978.00,0.0740
3977.00,0.0739
3976.00,0.0735
3975.00,0.0729
3974.00,0.0723
3973.00,0.0720
3972.00,0.0718
3971.00,0.0716
3970.00,0.0712
3969.00,0.0707
3968.00,0.0703
3967.00,0.0702
3966.00,0.0703
3965.00,0.0703
3964.00,0.0701
3963.00,0.0697
3962.00,0.0694
3961.00,0.0693
3960.00,0.0692
3959.00,0.0692
3958.00,0.0691
3957.00,0.0690
3956.00,0.0688
3955.00,0.0686
3954.00,0.0685
3953.00,0.0684
3952.00,0.0682
3951.00,0.0680
3950.00,0.0678
3949.00,0.0676
3948.00,0.0675
3947.00,0.0675
3946.00,0.0676
3945.00,0.0675
3944.00,0.0673
3943.00,0.0671
3942.00,0.0671
3941.00,0.0671
3940.00,0.0670
3939.00,0.0668
3938.00,0.0667
3937.00,0.0668
3936.00,0.0670
3935.00,0.0671
3934.00,0.0670
3933.00,0.0669
3932.00,0.0669
3931.00,0.0671
3930.00,0.0672
3929.00,0.0673
3928.00,0.0671
3927.00,0.0669
3926.00,0.0667
3925.00,0.0667
3924.00,0.0668
3923.00,0.0669
3922.00,0.0669
3921.00,0.0668
3920.00,0.0665
3919.00,0.0663
3918.00,0.0661
3917.00,0.0661
3916.00,0.0662
3915.00,0.0662
3914.00,0.0663
3913.00,0.0663
3912.00,0.0662
3911.00,0.0662
3910.00,0.0662
3909.00,0.0662
3908.00,0.0660
3907.00,0.0658
3906.00,0.0655
3905.00,0.0653
3904.00,0.0653
3903.00,0.0654
3902.00,0.0655
3901.00,0.0656
3900.00,0.0657
3899.00,0.0658
3898.00,0.0659
3897.00,0.0657
3896.00,0.0652
3895.00,0.0647
3894.00,0.0643
3893.00,0.0642
3892.00,0.0645
3891.00,0.0649
3890.00,0.0650
3889.00,0.0648
3888.00,0.0643
3887.00,0.0638
3886.00,0.0636
3885.00,0.0639
3884.00,0.0643
3883.00,0.0645
3882.00,0.0643
3881.00,0.0641
3880.00,0.0641
3879.00,0.0642
3878.00,0.0641
3877.00,0.0638
3876.00,0.0633
3875.00,0.0630
3874.00,0.0630
3873.00,0.0631
3872.00,0.0630
3871.00,0.0626
3870.00,0.0622
3869.00,0.0623
3868.00,0.0627
3867.00,0.0630
3866.00,0.0630
3865.00,0.0628
3864.00,0.0625
3863.00,0.0624
3862.00,0.0623
3861.00,0.0621
3860.00,0.0620
3859.00,0.0620
3858.00,0.0620
3857.00,0.0620
3856.00,0.0619
3855.00,0.0615
3854.00,0.0610
3853.00,0.0610
3852.00,0.0613
3851.00,0.0615
3850.00,0.0616
3849.00,0.0615
3848.00,0.0615
3847.00,0.0616
3846.00,0.0616
3845.00,0.0615
3844.00,0.0613
3843.00,0.0610
3842.00,0.0606
3841.00,0.0603
3840.00,0.0602
3839.00,0.0603
3838.00,0.0607
3837.00,0.0611
3836.00,0.0611
3835.00,0.0608
3834.00,0.0605
3833.00,0.0603
3832.00,0.0604
3831.00,0.0606
3830.00,0.0608
3829.00,0.0607
3828.00,0.0605
3827.00,0.0603
3826.00,0.0600
3825.00,0.0598
3824.00,0.0595
3823.00,0.0591
3822.00,0.0589
3821.00,0.0591
3820.00,0.0596
3819.00,0.0599
3818.00,0.0598
3817.00,0.0595
3816.00,0.0591
3815.00,0.0592
3814.00,0.0593
3813.00,0.0591
3812.00,0.0586
3811.00,0.0581
3810.00,0.0578
3809.00,0.0578
3808.00,0.0578
3807.00,0.0577
3806.00,0.0575
3805.00,0.0572
3804.00,0.0570
3803.00,0.0566
3802.00,0.0564
3801.00,0.0564
3800.00,0.0565
3799.00,0.0565
3798.00,0.0561
3797.00,0.0558
3796.00,0.0557
3795.00,0.0558
3794.00,0.0559
3793.00,0.0558
3792.00,0.0555
3791.00,0.0554
3790.00,0.0554
3789.00,0.0554
3788.00,0.0554
3787.00,0.0553
3786.00,0.0552
3785.00,0.0553
3784.00,0.0552
3783.00,0.0550
3782.00,0.0546
3781.00,0.0541
3780.00,0.0537
3779.00,0.0536
3778.00,0.0537
3777.00,0.0539
3776.00,0.0540
3775.00,0.0539
3774.00,0.0537
3773.00,0.0534
3772.00,0.0532
3771.00,0.0529
3770.00,0.0526
3769.00,0.0526
3768.00,0.0526
3767.00,0.0525
3766.00,0.0524
3765.00,0.0523
3764.00,0.0520
3763.00,0.0517
3762.00,0.0514
3761.00,0.0510
3760.00,0.0508
3759.00,0.0507
3758.00,0.0506
3757.00,0.0505
3756.00,0.0502
3755.00,0.0501
3754.00,0.0501
3753.00,0.0501
3752.00,0.0499
3751.00,0.0496
3750.00,0.0493
3749.00,0.0491
3748.00,0.0490
3747.00,0.0490
3746.00,0.0490
3745.00,0.0490
3744.00,0.0492
3743.00,0.0493
3742.00,0.0491
3741.00,0.0487
3740.00,0.0483
3739.00,0.0484
3738.00,0.0487
3737.00,0.0490
3736.00,0.0490
3735.00,0.0486
3734.00,0.0481
3733.00,0.0479
3732.00,0.0479
3731.00,0.0480
3730.00,0.0480
3729.00,0.0479
3728.00,0.0477
3727.00,0.0475
3726.00,0.0475
3725.00,0.0476
3724.00,0.0475
3723.00,0.0472
3722.00,0.0470
3721.00,0.0469
3720.00,0.0469
3719.00,0.0470
3718.00,0.0469
3717.00,0.0468
3716.00,0.0468
3715.00,0.0467
3714.00,0.0466
3713.00,0.0464
3712.00,0.0463
3711.00,0.0463
3710.00,0.0462
3709.00,0.0461
3708.00,0.0461
3707.00,0.0462
3706.00,0.0464
3705.00,0.0465
3704.00,0.0466
3703.00,0.0467
3702.00,0.0467
3701.00,0.0466
3700.00,0.0466
3699.00,0.0464
3698.00,0.0462
3697.00,0.0461
3696.00,0.0459
3695.00,0.0459
3694.00,0.0459
3693.00,0.0458
3692.00,0.0458
3691.00,0.0456
3690.00,0.0455
3689.00,0.0454
3688.00,0.0456
3687.00,0.0458
3686.00,0.0458
3685.00,0.0456
3684.00,0.0453
3683.00,0.0451
3682.00,0.0450
3681.00,0.0451
3680.00,0.0453
3679.00,0.0453
3678.00,0.0453
3677.00,0.0450
3676.00,0.0448
3675.00,0.0449
3674.00,0.0452
3673.00,0.0453
3672.00,0.0453
3671.00,0.0453
3670.00,0.0456
3669.00,0.0462
3668.00,0.0466
3667.00,0.0467
3666.00,0.0466
3665.00,0.0466
3664.00,0.0468
3663.00,0.0472
3662.00,0.0478
3661.00,0.0483
3660.00,0.0489
3659.00,0.0495
3658.00,0.0504
3657.00,0.0518
3656.00,0.0539
3655.00,0.0561
3654.00,0.0578
3653.00,0.0591
3652.00,0.0602
3651.00,0.0617
3650.00,0.0632
3649.00,0.0638
3648.00,0.0631
3647.00,0.0616
3646.00,0.0602
3645.00,0.0590
3644.00,0.0579
3643.00,0.0569
3642.00,0.0558
3641.00,0.0548
3640.00,0.0537
3639.00,0.0525
3638.00,0.0513
3637.00,0.0503
3636.00,0.0495
3635.00,0.0490
3634.00,0.0485
3633.00,0.0479
3632.00,0.0473
3631.00,0.0466
3630.00,0.0461
3629.00,0.0461
3628.00,0.0465
3627.00,0.0467
3626.00,0.0466
3625.00,0.0463
3624.00,0.0462
3623.00,0.0463
3622.00,0.0463
3621.00,0.0461
3620.00,0.0457
3619.00,0.0454
3618.00,0.0452
3617.00,0.0452
3616.00,0.0451
3615.00,0.0451
3614.00,0.0451
3613.00,0.0451
3612.00,0.0448
3611.00,0.0443
3610.00,0.0438
3609.00,0.0435
3608.00,0.0436
3607.00,0.0437
3606.00,0.0435
3605.00,0.0430
3604.00,0.0423
3603.00,0.0416
3602.00,0.0408
3601.00,0.0400
3600.00,0.0389
3599.00,0.0378
3598.00,0.0367
3597.00,0.0358
3596.00,0.0350
3595.00,0.0344
3594.00,0.0338
3593.00,0.0332
3592.00,0.0324
3591.00,0.0317
3590.00,0.0310
3589.00,0.0304
3588.00,0.0300
3587.00,0.0297
3586.00,0.0293
3585.00,0.0290
3584.00,0.0287
3583.00,0.0285
3582.00,0.0284
3581.00,0.0283
3580.00,0.0282
3579.00,0.0281
3578.00,0.0280
3577.00,0.0279
3576.00,0.0279
3575.00,0.0278
3574.00,0.0277
3573.00,0.0275
3572.00,0.0272
3571.00,0.0269
3570.00,0.0266
3569.00,0.0264
3568.00,0.0261
3567.00,0.0259
3566.00,0.0257
3565.00,0.0256
3564.00,0.0256
3563.00,0.0256
3562.00,0.0257
3561.00,0.0257
3560.00,0.0256
3559.00,0.0255
3558.00,0.0253
3557.00,0.0251
3556.00,0.0250
3555.00,0.0249
3554.00,0.0248
3553.00,0.0248
3552.00,0.0248
3551.00,0.0248
3550.00,0.0247
3549.00,0.0245
3548.00,0.0244
3547.00,0.0244
3546.00,0.0244
3545.00,0.0243
3544.00,0.0243
3543.00,0.0243
3542.00,0.0243
3541.00,0.0244
3540.00,0.0244
3539.00,0.0242
3538.00,0.0240
3537.00,0.0239
3536.00,0.0239
3535.00,0.0241
3534.00,0.0243
3533.00,0.0244
3532.00,0.0244
3531.00,0.0244
3530.00,0.0245
3529.00,0.0246
3528.00,0.0248
3527.00,0.0248
3526.00,0.0247
3525.00,0.0246
3524.00,0.0246
3523.00,0.0246
3522.00,0.0247
3521.00,0.0247
3520.00,0.0248
3519.00,0.0249
3518.00,0.0252
3517.00,0.0254
3516.00,0.0256
3515.00,0.0257
3514.00,0.0257
3513.00,0.0256
3512.00,0.0256
3511.00,0.0256
3510.00,0.0257
3509.00,0.0259
3508.00,0.0260
3507.00,0.0261
3506.00,0.0261
3505.00,0.0262
3504.00,0.0264
3503.00,0.0266
3502.00,0.0268
3501.00,0.0269
3500.00,0.0271
3499.00,0.0273
3498.00,0.0274
3497.00,0.0275
3496.00,0.0276
3495.00,0.0277
3494.00,0.0277
3493.00,0.0277
3492.00,0.0276
3491.00,0.0276
3490.00,0.0277
3489.00,0.0279
3488.00,0.0281
3487.00,0.0283
3486.00,0.0284
3485.00,0.0286
3484.00,0.0286
3483.00,0.0287
3482.00,0.0287
3481.00,0.0287
3480.00,0.0287
3479.00,0.0287
3478.00,0.0289
3477.00,0.0292
3476.00,0.0296
3475.00,0.0298
3474.00,0.0299
3473.00,0.0299
3472.00,0.0299
3471.00,0.0300
3470.00,0.0302
3469.00,0.0304
3468.00,0.0306
3467.00,0.0308
3466.00,0.0309
3465.00,0.0311
3464.00,0.0312
3463.00,0.0314
3462.00,0.0316
3461.00,0.0318
3460.00,0.0320
3459.00,0.0321
3458.00,0.0323
3457.00,0.0323
3456.00,0.0324
3455.00,0.0325
3454.00,0.0327
3453.00,0.0329
3452.00,0.0331
3451.00,0.0333
3450.00,0.0335
3449.00,0.0336
3448.00,0.0338
3447.00,0.0340
3446.00,0.0342
3445.00,0.0342
3444.00,0.0340
3443.00,0.0338
3442.00,0.0339
3441.00,0.0341
3440.00,0.0343
3439.00,0.0345
3438.00,0.0346
3437.00,0.0348
3436.00,0.0351
3435.00,0.0353
3434.00,0.0354
3433.00,0.0353
3432.00,0.0353
3431.00,0.0354
3430.00,0.0355
3429.00,0.0355
3428.00,0.0355
3427.00,0.0355
3426.00,0.0356
3425.00,0.0358
3424.00,0.0359
3423.00,0.0359
3422.00,0.0360
3421.00,0.0362
3420.00,0.0364
3419.00,0.0367
3418.00,0.0369
3417.00,0.0370
3416.00,0.0371
3415.00,0.0372
3414.00,0.0373
3413.00,0.0373
3412.00,0.0374
3411.00,0.0375
3410.00,0.0376
3409.00,0.0376
3408.00,0.0376
3407.00,0.0376
3406.00,0.0377
3405.00,0.0378
3404.00,0.0379
3403.00,0.0381
3402.00,0.0383
3401.00,0.0384
3400.00,0.0384
3399.00,0.0386
3398.00,0.0389
3397.00,0.0392
3396.00,0.0395
3395.00,0.0397
3394.00,0.0400
3393.00,0.0401
3392.00,0.0404
3391.00,0.0406
3390.00,0.0409
3389.00,0.0410
3388.00,0.0410
3387.00,0.0409
3386.00,0.0410
3385.00,0.0412
3384.00,0.0414
3383.00,0.0415
3382.00,0.0416
3381.00,0.0416
3380.00,0.0418
3379.00,0.0420
3378.00,0.0422
3377.00,0.0424
3376.00,0.0426
3375.00,0.0426
3374.00,0.0425
3373.00,0.0425
3372.00,0.0426
3371.00,0.0427
3370.00,0.0428
3369.00,0.0428
3368.00,0.0428
3367.00,0.0427
3366.00,0.0427
3365.00,0.0428
3364.00,0.0428
3363.00,0.0428
3362.00,0.0427
3361.00,0.0426
3360.00,0.0426
3359.00,0.0427
3358.00,0.0428
3357.00,0.0429
3356.00,0.0430
3355.00,0.0431
3354.00,0.0430
3353.00,0.0431
3352.00,0.0432
3351.00,0.0434
3350.00,0.0436
3349.00,0.0438
3348.00,0.0438
3347.00,0.0436
3346.00,0.0434
3345.00,0.0433
3344.00,0.0434
3343.00,0.0435
3342.00,0.0435
3341.00,0.0435
3340.00,0.0434
3339.00,0.0433
3338.00,0.0431
3337.00,0.0430
3336.00,0.0430
3335.00,0.0431
3334.00,0.0431
3333.00,0.0429
3332.00,0.0427
3331.00,0.0425
3330.00,0.0425
3329.00,0.0425
3328.00,0.0424
3327.00,0.0423
3326.00,0.0423
3325.00,0.0423
3324.00,0.0423
3323.00,0.0423
3322.00,0.0422
3321.00,0.0422
3320.00,0.0421
3319.00,0.0421
3318.00,0.0421
3317.00,0.0420
3316.00,0.0420
3315.00,0.0420
3314.00,0.0421
3313.00,0.0421
3312.00,0.0421
3311.00,0.0420
3310.00,0.0419
3309.00,0.0419
3308.00,0.0419
3307.00,0.0419
3306.00,0.0419
3305.00,0.0420
3304.00,0.0420
3303.00,0.0419
3302.00,0.0417
3301.00,0.0415
3300.00,0.0414
3299.00,0.0414
3298.00,0.0414
3297.00,0.0414
3296.00,0.0414
3295.00,0.0413
3294.00,0.0412
3293.00,0.0412
3292.00,0.0411
3291.00,0.0411
3290.00,0.0411
3289.00,0.0412
3288.00,0.0413
3287.00,0.0414
3286.00,0.0415
3285.00,0.0417
3284.00,0.0418
3283.00,0.0419
3282.00,0.0420
3281.00,0.0421
3280.00,0.0423
3279.00,0.0426
3278.00,0.0429
3277.00,0.0431
3276.00,0.0431
3275.00,0.0430
3274.00,0.0429
3273.00,0.0429
3272.00,0.0430
3271.00,0.0433
3270.00,0.0435
3269.00,0.0437
3268.00,0.0438
3267.00,0.0438
3266.00,0.0439
3265.00,0.0440
3264.00,0.0442
3263.00,0.0445
3262.00,0.0446
3261.00,0.0448
3260.00,0.0450
3259.00,0.0452
3258.00,0.0455
3257.00,0.0457
3256.00,0.0459
3255.00,0.0460
3254.00,0.0460
3253.00,0.0462
3252.00,0.0467
3251.00,0.0472
3250.00,0.0477
3249.00,0.0482
3248.00,0.0485
3247.00,0.0487
3246.00,0.0490
3245.00,0.0494
3244.00,0.0499
3243.00,0.0504
3242.00,0.0509
3241.00,0.0513
3240.00,0.0517
3239.00,0.0522
3238.00,0.0526
3237.00,0.0530
3236.00,0.0534
3235.00,0.0538
3234.00,0.0542
3233.00,0.0547
3232.00,0.0552
3231.00,0.0558
3230.00,0.0562
3229.00,0.0566
3228.00,0.0570
3227.00,0.0576
3226.00,0.0583
3225.00,0.0590
3224.00,0.0596
3223.00,0.0603
3222.00,0.0611
3221.00,0.0620
3220.00,0.0629
3219.00,0.0639
3218.00,0.0648
3217.00,0.0658
3216.00,0.0669
3215.00,0.0681
3214.00,0.0692
3213.00,0.0703
3212.00,0.0714
3211.00,0.0725
3210.00,0.0736
3209.00,0.0749
3208.00,0.0761
3207.00,0.0773
3206.00,0.0784
3205.00,0.0795
3204.00,0.0807
3203.00,0.0820
3202.00,0.0834
3201.00,0.0847
3200.00,0.0858
3199.00,0.0867
3198.00,0.0876
3197.00,0.0886
3196.00,0.0895
3195.00,0.0904
3194.00,0.0911
3193.00,0.0919
3192.00,0.0926
3191.00,0.0933
3190.00,0.0940
3189.00,0.0946
3188.00,0.0954
3187.00,0.0963
3186.00,0.0970
3185.00,0.0976
3184.00,0.0981
3183.00,0.0986
3182.00,0.0991
3181.00,0.0996
3180.00,0.1002
3179.00,0.1007
3178.00,0.1013
3177.00,0.1017
3176.00,0.1021
3175.00,0.1025
3174.00,0.1028
3173.00,0.1030
3172.00,0.1032
3171.00,0.1034
3170.00,0.1036
3169.00,0.1038
3168.00,0.1040
3167.00,0.1042
3166.00,0.1042
3165.00,0.1043
3164.00,0.1043
3163.00,0.1044
3162.00,0.1044
3161.00,0.1043
3160.00,0.1042
3159.00,0.1041
3158.00,0.1041
3157.00,0.1040
3156.00,0.1040
3155.00,0.1040
3154.00,0.1040
3153.00,0.1040
3152.00,0.1040
3151.00,0.1040
3150.00,0.1040
3149.00,0.1041
3148.00,0.1043
3147.00,0.1044
3146.00,0.1044
3145.00,0.1044
3144.00,0.1046
3143.00,0.1048
3142.00,0.1050
3141.00,0.1051
3140.00,0.1050
3139.00,0.1049
3138.00,0.1049
3137.00,0.1051
3136.00,0.1055
3135.00,0.1059
3134.00,0.1063
3133.00,0.1063
3132.00,0.1062
3131.00,0.1062
3130.00,0.1062
3129.00,0.1063
3128.00,0.1063
3127.00,0.1064
3126.00,0.1064
3125.00,0.1064
3124.00,0.1065
3123.00,0.1066
3122.00,0.1069
3121.00,0.1072
3120.00,0.1075
3119.00,0.1078
3118.00,0.1082
3117.00,0.1087
3116.00,0.1091
3115.00,0.1095
3114.00,0.1098
3113.00,0.1103
3112.00,0.1110
3111.00,0.1117
3110.00,0.1125
3109.00,0.1132
3108.00,0.1138
3107.00,0.1144
3106.00,0.1150
3105.00,0.1156
3104.00,0.1163
3103.00,0.1173
3102.00,0.1184
3101.00,0.1196
3100.00,0.1207
3099.00,0.1217
3098.00,0.1226
3097.00,0.1235
3096.00,0.1244
3095.00,0.1255
3094.00,0.1267
3093.00,0.1279
3092.00,0.1291
3091.00,0.1301
3090.00,0.1314
3089.00,0.1328
3088.00,0.1345
3087.00,0.1362
3086.00,0.1378
3085.00,0.1394
3084.00,0.1409
3083.00,0.1425
3082.00,0.1441
3081.00,0.1458
3080.00,0.1475
3079.00,0.1489
3078.00,0.1503
3077.00,0.1518
3076.00,0.1535
3075.00,0.1555
3074.00,0.1576
3073.00,0.1598
3072.00,0.1619
3071.00,0.1639
3070.00,0.1659
3069.00,0.1680
3068.00,0.1701
3067.00,0.1723
3066.00,0.1745
3065.00,0.1767
3064.00,0.1790
3063.00,0.1813
3062.00,0.1837
3061.00,0.1861
3060.00,0.1886
3059.00,0.1910
3058.00,0.1935
3057.00,0.1961
3056.00,0.1990
3055.00,0.2020
3054.00,0.2049
3053.00,0.2079
3052.00,0.2108
3051.00,0.2139
3050.00,0.2172
3049.00,0.2206
3048.00,0.2240
3047.00,0.2275
3046.00,0.2312
3045.00,0.2349
3044.00,0.2387
3043.00,0.2425
3042.00,0.2464
3041.00,0.2504
3040.00,0.2546
3039.00,0.2588
3038.00,0.2630
3037.00,0.2672
3036.00,0.2716
3035.00,0.2761
3034.00,0.2810
3033.00,0.2861
3032.00,0.2915
3031.00,0.2970
3030.00,0.3027
3029.00,0.3086
3028.00,0.3147
3027.00,0.3210
3026.00,0.3274
3025.00,0.3341
3024.00,0.3413
3023.00,0.3488
3022.00,0.3567
3021.00,0.3647
3020.00,0.3729
3019.00,0.3813
3018.00,0.3900
3017.00,0.3989
3016.00,0.4082
3015.00,0.4180
3014.00,0.4283
3013.00,0.4392
3012.00,0.4507
3011.00,0.4629
3010.00,0.4759
3009.00,0.4894
3008.00,0.5032
3007.00,0.5177
3006.00,0.5333
3005.00,0.5505
3004.00,0.5691
3003.00,0.5884
3002.00,0.6084
3001.00,0.6292
3000.00,0.6512
2999.00,0.6748
2998.00,0.6999
2997.00,0.7269
2996.00,0.7562
2995.00,0.7881
2994.00,0.8230
2993.00,0.8608
2992.00,0.9019
2991.00,0.9470
2990.00,0.9971
2989.00,1.0527
2988.00,1.1138
2987.00,1.1811
2986.00,1.2557
2985.00,1.3386
2984.00,1.4309
2983.00,1.5337
2982.00,1.6492
2981.00,1.7798
2980.00,1.9281
2979.00,2.0976
2978.00,2.2913
2977.00,2.5050
2976.00,2.7307
2975.00,2.9945
2974.00,3.4392
2973.00,7.7282
2972.00,7.7278
2971.00,4.0700
2970.00,3.5867
2969.00,3.5166
2968.00,3.6170
2967.00,3.5833
2966.00,3.3185
2965.00,3.1263
2964.00,3.1462
2963.00,3.4638
2962.00,3.7724
2961.00,3.5268
2960.00,3.3432
2959.00,3.4677
2958.00,3.6443
2957.00,3.4493
2956.00,3.2581
2955.00,3.2484
2954.00,3.4229
2953.00,3.8853
2952.00,7.7190
2951.00,3.9614
2950.00,3.5984
2949.00,3.5127
2948.00,3.5700
2947.00,3.4311
2946.00,3.2556
2945.00,3.2416
2944.00,3.4108
2943.00,3.8410
2942.00,4.2444
2941.00,4.0027
2940.00,3.9064
2939.00,3.7733
2938.00,3.5736
2937.00,3.3961
2936.00,3.3579
2935.00,3.3788
2934.00,3.3611
2933.00,3.2843
2932.00,3.1836
2931.00,3.1477
2930.00,3.2402
2929.00,3.4392
2928.00,3.5992
2927.00,3.5387
2926.00,3.6534
2925.00,3.8600
2924.00,3.3250
2923.00,2.9663
2922.00,2.8113
2921.00,2.8533
2920.00,2.9923
2919.00,3.2393
2918.00,3.5665
2917.00,3.8227
2916.00,3.7776
2915.00,3.6749
2914.00,3.5794
2913.00,3.3692
2912.00,3.2089
2911.00,3.2026
2910.00,3.3404
2909.00,3.4848
2908.00,3.4403
2907.00,3.4265
2906.00,3.6346
2905.00,3.6985
2904.00,3.5305
2903.00,3.4537
2902.00,3.7102
2901.00,4.2817
2900.00,3.6881
2899.00,3.3346
2898.00,3.2550
2897.00,3.5041
2896.00,4.4888
2895.00,7.7263
2894.00,4.0009
2893.00,3.4230
2892.00,3.1946
2891.00,3.1622
2890.00,3.2929
2889.00,3.5328
2888.00,4.0175
2887.00,3.8087
2886.00,3.4055
2885.00,3.1823
2884.00,3.2044
2883.00,3.4881
2882.00,4.3632
2881.00,4.0090
2880.00,3.4405
2879.00,3.2436
2878.00,3.3757
2877.00,3.8067
2876.00,4.5955
2875.00,3.8290
2874.00,3.6132
2873.00,3.8238
2872.00,3.7136
2871.00,3.3400
2870.00,3.1516
2869.00,3.1965
2868.00,3.3293
2867.00,3.5065
2866.00,3.7181
2865.00,3.8527
2864.00,3.6266
2863.00,3.3732
2862.00,3.2865
2861.00,3.3466
2860.00,3.5218
2859.00,3.6260
2858.00,3.5638
2857.00,3.5015
2856.00,3.5143
2855.00,3.5951
2854.00,3.5817
2853.00,3.4004
2852.00,3.2267
2851.00,3.1634
2850.00,3.2069
2849.00,3.2731
2848.00,3.3380
2847.00,3.4880
2846.00,3.6003
2845.00,3.5013
2844.00,3.3474
2843.00,3.4932
2842.00,4.4736
2841.00,4.1086
2840.00,3.5937
2839.00,3.5161
2838.00,3.6137
2837.00,3.0683
2836.00,2.6517
2835.00,2.3921
2834.00,2.2028
2833.00,2.0351
2832.00,1.8839
2831.00,1.7544
2830.00,1.6450
2829.00,1.5492
2828.00,1.4625
2827.00,1.3843
2826.00,1.3150
2825.00,1.2538
2824.00,1.1985
2823.00,1.1478
2822.00,1.1013
2821.00,1.0592
2820.00,1.0210
2819.00,0.9861
2818.00,0.9532
2817.00,0.9218
2816.00,0.8921
2815.00,0.8644
2814.00,0.8385
2813.00,0.8135
2812.00,0.7889
2811.00,0.7652
2810.00,0.7428
2809.00,0.7212
2808.00,0.7003
2807.00,0.6801
2806.00,0.6611
2805.00,0.6433
2804.00,0.6265
2803.00,0.6102
2802.00,0.5946
2801.00,0.5796
2800.00,0.5651
2799.00,0.5514
2798.00,0.5384
2797.00,0.5259
2796.00,0.5137
2795.00,0.5016
2794.00,0.4898
2793.00,0.4784
2792.00,0.4670
2791.00,0.4557
2790.00,0.4445
2789.00,0.4337
2788.00,0.4232
2787.00,0.4128
2786.00,0.4026
2785.00,0.3926
2784.00,0.3831
2783.00,0.3740
2782.00,0.3650
2781.00,0.3561
2780.00,0.3476
2779.00,0.3395
2778.00,0.3320
2777.00,0.3249
2776.00,0.3180
2775.00,0.3114
2774.00,0.3052
2773.00,0.2996
2772.00,0.2947
2771.00,0.2903
2770.00,0.2864
2769.00,0.2826
2768.00,0.2791
2767.00,0.2761
2766.00,0.2733
2765.00,0.2709
2764.00,0.2688
2763.00,0.2673
2762.00,0.2662
2761.00,0.2653
2760.00,0.2642
2759.00,0.2630
2758.00,0.2620
2757.00,0.2610
2756.00,0.2602
2755.00,0.2594
2754.00,0.2587
2753.00,0.2582
2752.00,0.2580
2751.00,0.2579
2750.00,0.2579
2749.00,0.2582
2748.00,0.2589
2747.00,0.2599
2746.00,0.2611
2745.00,0.2624
2744.00,0.2639
2743.00,0.2658
2742.00,0.2681
2741.00,0.2708
2740.00,0.2737
2739.00,0.2769
2738.00,0.2806
2737.00,0.2846
2736.00,0.2892
2735.00,0.2943
2734.00,0.2997
2733.00,0.3052
2732.00,0.3102
2731.00,0.3145
2730.00,0.3180
2729.00,0.3204
2728.00,0.3217
2727.00,0.3218
2726.00,0.3212
2725.00,0.3200
2724.00,0.3183
2723.00,0.3161
2722.00,0.3137
2721.00,0.3113
2720.00,0.3085
2719.00,0.3052
2718.00,0.3012
2717.00,0.2969
2716.00,0.2925
2715.00,0.2881
2714.00,0.2834
2713.00,0.2786
2712.00,0.2739
2711.00,0.2698
2710.00,0.2662
2709.00,0.2632
2708.00,0.2606
2707.00,0.2585
2706.00,0.2567
2705.00,0.2552
2704.00,0.2541
2703.00,0.2535
2702.00,0.2532
2701.00,0.2532
2700.00,0.2534
2699.00,0.2538
2698.00,0.2544
2697.00,0.2552
2696.00,0.2561
2695.00,0.2571
2694.00,0.2583
2693.00,0.2596
2692.00,0.2609
2691.00,0.2622
2690.00,0.2635
2689.00,0.2650
2688.00,0.2664
2687.00,0.2674
2686.00,0.2681
2685.00,0.2685
2684.00,0.2690
2683.00,0.2694
2682.00,0.2695
2681.00,0.2695
2680.00,0.2695
2679.00,0.2694
2678.00,0.2694
2677.00,0.2696
2676.00,0.2698
2675.00,0.2700
2674.00,0.2699
2673.00,0.2698
2672.00,0.2695
2671.00,0.2691
2670.00,0.2683
2669.00,0.2672
2668.00,0.2658
2667.00,0.2642
2666.00,0.2624
2665.00,0.2604
2664.00,0.2581
2663.00,0.2556
2662.00,0.2529
2661.00,0.2504
2660.00,0.2481
2659.00,0.2460
2658.00,0.2439
2657.00,0.2418
2656.00,0.2396
2655.00,0.2376
2654.00,0.2358
2653.00,0.2342
2652.00,0.2326
2651.00,0.2309
2650.00,0.2293
2649.00,0.2277
2648.00,0.2261
2647.00,0.2247
2646.00,0.2235
2645.00,0.2224
2644.00,0.2215
2643.00,0.2206
2642.00,0.2198
2641.00,0.2191
2640.00,0.2182
2639.00,0.2173
2638.00,0.2162
2637.00,0.2152
2636.00,0.2143
2635.00,0.2134
2634.00,0.2127
2633.00,0.2119
2632.00,0.2111
2631.00,0.2102
2630.00,0.2094
2629.00,0.2087
2628.00,0.2080
2627.00,0.2074
2626.00,0.2066
2625.00,0.2058
2624.00,0.2051
2623.00,0.2045
2622.00,0.2040
2621.00,0.2035
2620.00,0.2028
2619.00,0.2020
2618.00,0.2011
2617.00,0.2003
2616.00,0.1995
2615.00,0.1987
2614.00,0.1979
2613.00,0.1970
2612.00,0.1961
2611.00,0.1953
2610.00,0.1944
2609.00,0.1934
2608.00,0.1923
2607.00,0.1909
2606.00,0.1895
2605.00,0.1882
2604.00,0.1870
2603.00,0.1859
2602.00,0.1845
2601.00,0.1830
2600.00,0.1814
2599.00,0.1799
2598.00,0.1783
2597.00,0.1767
2596.00,0.1749
2595.00,0.1733
2594.00,0.1717
2593.00,0.1702
2592.00,0.1686
2591.00,0.1669
2590.00,0.1652
2589.00,0.1636
2588.00,0.1620
2587.00,0.1603
2586.00,0.1587
2585.00,0.1568
2584.00,0.1547
2583.00,0.1525
2582.00,0.1503
2581.00,0.1484
2580.00,0.1466
2579.00,0.1449
2578.00,0.1429
2577.00,0.1409
2576.00,0.1389
2575.00,0.1370
2574.00,0.1351
2573.00,0.1331
2572.00,0.1309
2571.00,0.1289
2570.00,0.1271
2569.00,0.1255
2568.00,0.1239
2567.00,0.1222
2566.00,0.1204
2565.00,0.1186
2564.00,0.1171
2563.00,0.1157
2562.00,0.1145
2561.00,0.1132
2560.00,0.1118
2559.00,0.1104
2558.00,0.1092
2557.00,0.1080
2556.00,0.1069
2555.00,0.1059
2554.00,0.1048
2553.00,0.1037
2552.00,0.1026
2551.00,0.1018
2550.00,0.1011
2549.00,0.1004
2548.00,0.0997
2547.00,0.0988
2546.00,0.0978
2545.00,0.0969
2544.00,0.0960
2543.00,0.0951
2542.00,0.0943
2541.00,0.0936
2540.00,0.0929
2539.00,0.0923
2538.00,0.0918
2537.00,0.0912
2536.00,0.0907
2535.00,0.0901
2534.00,0.0895
2533.00,0.0888
2532.00,0.0880
2531.00,0.0872
2530.00,0.0864
2529.00,0.0856
2528.00,0.0847
2527.00,0.0839
2526.00,0.0831
2525.00,0.0823
2524.00,0.0814
2523.00,0.0805
2522.00,0.0796
2521.00,0.0787
2520.00,0.0778
2519.00,0.0770
2518.00,0.0761
2517.00,0.0754
2516.00,0.0746
2515.00,0.0739
2514.00,0.0731
2513.00,0.0723
2512.00,0.0717
2511.00,0.0711
2510.00,0.0704
2509.00,0.0698
2508.00,0.0691
2507.00,0.0684
2506.00,0.0677
2505.00,0.0670
2504.00,0.0663
2503.00,0.0656
2502.00,0.0650
2501.00,0.0646
2500.00,0.0641
2499.00,0.0636
2498.00,0.0629
2497.00,0.0622
2496.00,0.0616
2495.00,0.0611
2494.00,0.0606
2493.00,0.0602
2492.00,0.0599
2491.00,0.0595
2490.00,0.0591
2489.00,0.0587
2488.00,0.0583
2487.00,0.0580
2486.00,0.0578
2485.00,0.0575
2484.00,0.0573
2483.00,0.0571
2482.00,0.0570
2481.00,0.0568
2480.00,0.0567
2479.00,0.0564
2478.00,0.0561
2477.00,0.0559
2476.00,0.0557
2475.00,0.0556
2474.00,0.0555
2473.00,0.0553
2472.00,0.0551
2471.00,0.0550
2470.00,0.0548
2469.00,0.0547
2468.00,0.0545
2467.00,0.0543
2466.00,0.0540
2465.00,0.0540
2464.00,0.0540
2463.00,0.0541
2462.00,0.0541
2461.00,0.0540
2460.00,0.0541
2459.00,0.0541
2458.00,0.0541
2457.00,0.0540
2456.00,0.0540
2455.00,0.0540
2454.00,0.0540
2453.00,0.0540
2452.00,0.0540
2451.00,0.0541
2450.00,0.0542
2449.00,0.0543
2448.00,0.0544
2447.00,0.0544
2446.00,0.0545
2445.00,0.0547
2444.00,0.0549
2443.00,0.0551
2442.00,0.0552
2441.00,0.0553
2440.00,0.0554
2439.00,0.0556
2438.00,0.0557
2437.00,0.0558
2436.00,0.0559
2435.00,0.0561
2434.00,0.0563
2433.00,0.0567
2432.00,0.0572
2431.00,0.0576
2430.00,0.0578
2429.00,0.0579
2428.00,0.0579
2427.00,0.0578
2426.00,0.0579
2425.00,0.0580
2424.00,0.0583
2423.00,0.0586
2422.00,0.0590
2421.00,0.0592
2420.00,0.0593
2419.00,0.0593
2418.00,0.0594
2417.00,0.0596
2416.00,0.0599
2415.00,0.0601
2414.00,0.0601
2413.00,0.0600
2412.00,0.0601
2411.00,0.0601
2410.00,0.0602
2409.00,0.0602
2408.00,0.0602
2407.00,0.0602
2406.00,0.0604
2405.00,0.0605
2404.00,0.0606
2403.00,0.0606
2402.00,0.0606
2401.00,0.0605
2400.00,0.0605
2399.00,0.0604
2398.00,0.0602
2397.00,0.0601
2396.00,0.0600
2395.00,0.0600
2394.00,0.0599
2393.00,0.0599
2392.00,0.0598
2391.00,0.0596
2390.00,0.0595
2389.00,0.0595
2388.00,0.0595
2387.00,0.0595
2386.00,0.0595
2385.00,0.0596
2384.00,0.0596
2383.00,0.0596
2382.00,0.0596
2381.00,0.0596
2380.00,0.0597
2379.00,0.0599
2378.00,0.0600
2377.00,0.0602
2376.00,0.0602
2375.00,0.0601
2374.00,0.0601
2373.00,0.0601
2372.00,0.0601
2371.00,0.0599
2370.00,0.0598
2369.00,0.0598
2368.00,0.0599
2367.00,0.0600
2366.00,0.0601
2365.00,0.0602
2364.00,0.0603
2363.00,0.0603
2362.00,0.0603
2361.00,0.0603
2360.00,0.0603
2359.00,0.0603
2358.00,0.0602
2357.00,0.0603
2356.00,0.0604
2355.00,0.0604
2354.00,0.0602
2353.00,0.0601
2352.00,0.0601
2351.00,0.0601
2350.00,0.0601
2349.00,0.0600
2348.00,0.0600
2347.00,0.0601
2346.00,0.0602
2345.00,0.0601
2344.00,0.0598
2343.00,0.0597
2342.00,0.0598
2341.00,0.0598
2340.00,0.0597
2339.00,0.0594
2338.00,0.0593
2337.00,0.0593
2336.00,0.0593
2335.00,0.0593
2334.00,0.0592
2333.00,0.0591
2332.00,0.0591
2331.00,0.0589
2330.00,0.0586
2329.00,0.0583
2328.00,0.0583
2327.00,0.0582
2326.00,0.0579
2325.00,0.0577
2324.00,0.0575
2323.00,0.0574
2322.00,0.0572
2321.00,0.0570
2320.00,0.0568
2319.00,0.0565
2318.00,0.0562
2317.00,0.0560
2316.00,0.0559
2315.00,0.0558
2314.00,0.0556
2313.00,0.0553
2312.00,0.0550
2311.00,0.0547
2310.00,0.0546
2309.00,0.0545
2308.00,0.0544
2307.00,0.0540
2306.00,0.0535
2305.00,0.0531
2304.00,0.0528
2303.00,0.0526
2302.00,0.0523
2301.00,0.0520
2300.00,0.0516
2299.00,0.0513
2298.00,0.0510
2297.00,0.0507
2296.00,0.0505
2295.00,0.0503
2294.00,0.0500
2293.00,0.0498
2292.00,0.0497
2291.00,0.0495
2290.00,0.0493
2289.00,0.0491
2288.00,0.0489
2287.00,0.0488
2286.00,0.0486
2285.00,0.0483
2284.00,0.0482
2283.00,0.0480
2282.00,0.0478
2281.00,0.0476
2280.00,0.0474
2279.00,0.0472
2278.00,0.0470
2277.00,0.0468
2276.00,0.0465
2275.00,0.0463
2274.00,0.0462
2273.00,0.0462
2272.00,0.0462
2271.00,0.0461
2270.00,0.0460
2269.00,0.0458
2268.00,0.0456
2267.00,0.0455
2266.00,0.0453
2265.00,0.0450
2264.00,0.0447
2263.00,0.0445
2262.00,0.0444
2261.00,0.0443
2260.00,0.0442
2259.00,0.0439
2258.00,0.0435
2257.00,0.0431
2256.00,0.0426
2255.00,0.0422
2254.00,0.0419
2253.00,0.0418
2252.00,0.0416
2251.00,0.0414
2250.00,0.0410
2249.00,0.0407
2248.00,0.0403
2247.00,0.0400
2246.00,0.0397
2245.00,0.0394
2244.00,0.0393
2243.00,0.0392
2242.00,0.0391
2241.00,0.0390
2240.00,0.0389
2239.00,0.0388
2238.00,0.0388
2237.00,0.0387
2236.00,0.0387
2235.00,0.0387
2234.00,0.0387
2233.00,0.0387
2232.00,0.0388
2231.00,0.0389
2230.00,0.0389
2229.00,0.0390
2228.00,0.0390
2227.00,0.0390
2226.00,0.0391
2225.00,0.0392
2224.00,0.0392
2223.00,0.0391
2222.00,0.0389
2221.00,0.0388
2220.00,0.0388
2219.00,0.0390
2218.00,0.0392
2217.00,0.0391
2216.00,0.0389
2215.00,0.0386
2214.00,0.0383
2213.00,0.0384
2212.00,0.0385
2211.00,0.0386
2210.00,0.0387
2209.00,0.0387
2208.00,0.0388
2207.00,0.0388
2206.00,0.0388
2205.00,0.0388
2204.00,0.0389
2203.00,0.0390
2202.00,0.0390
2201.00,0.0389
2200.00,0.0389
2199.00,0.0389
2198.00,0.0390
2197.00,0.0391
2196.00,0.0393
2195.00,0.0393
2194.00,0.0393
2193.00,0.0392
2192.00,0.0392
2191.00,0.0392
2190.00,0.0393
2189.00,0.0394
2188.00,0.0395
2187.00,0.0395
2186.00,0.0394
2185.00,0.0393
2184.00,0.0392
2183.00,0.0389
2182.00,0.0386
2181.00,0.0384
2180.00,0.0383
2179.00,0.0382
2178.00,0.0380
2177.00,0.0379
2176.00,0.0377
2175.00,0.0376
2174.00,0.0375
2173.00,0.0374
2172.00,0.0374
2171.00,0.0374
2170.00,0.0374
2169.00,0.0374
2168.00,0.0374
2167.00,0.0374
2166.00,0.0375
2165.00,0.0376
2164.00,0.0376
2163.00,0.0376
2162.00,0.0375
2161.00,0.0374
2160.00,0.0375
2159.00,0.0376
2158.00,0.0377
2157.00,0.0378
2156.00,0.0378
2155.00,0.0379
2154.00,0.0379
2153.00,0.0377
2152.00,0.0374
2151.00,0.0371
2150.00,0.0367
2149.00,0.0364
2148.00,0.0361
2147.00,0.0358
2146.00,0.0354
2145.00,0.0349
2144.00,0.0342
2143.00,0.0334
2142.00,0.0327
2141.00,0.0321
2140.00,0.0316
2139.00,0.0312
2138.00,0.0307
2137.00,0.0303
2136.00,0.0298
2135.00,0.0294
2134.00,0.0291
2133.00,0.0288
2132.00,0.0285
2131.00,0.0283
2130.00,0.0281
2129.00,0.0278
2128.00,0.0276
2127.00,0.0273
2126.00,0.0272
2125.00,0.0271
2124.00,0.0271
2123.00,0.0271
2122.00,0.0271
2121.00,0.0272
2120.00,0.0272
2119.00,0.0273
2118.00,0.0272
2117.00,0.0272
2116.00,0.0272
2115.00,0.0271
2114.00,0.0270
2113.00,0.0270
2112.00,0.0272
2111.00,0.0273
2110.00,0.0273
2109.00,0.0273
2108.00,0.0273
2107.00,0.0273
2106.00,0.0273
2105.00,0.0273
2104.00,0.0273
2103.00,0.0273
2102.00,0.0273
2101.00,0.0273
2100.00,0.0273
2099.00,0.0273
2098.00,0.0272
2097.00,0.0272
2096.00,0.0271
2095.00,0.0271
2094.00,0.0270
2093.00,0.0269
2092.00,0.0269
2091.00,0.0269
2090.00,0.0267
2089.00,0.0267
2088.00,0.0268
2087.00,0.0269
2086.00,0.0269
2085.00,0.0268
2084.00,0.0267
2083.00,0.0267
2082.00,0.0266
2081.00,0.0265
2080.00,0.0264
2079.00,0.0263
2078.00,0.0264
2077.00,0.0265
2076.00,0.0266
2075.00,0.0265
2074.00,0.0264
2073.00,0.0264
2072.00,0.0265
2071.00,0.0266
2070.00,0.0267
2069.00,0.0268
2068.00,0.0269
2067.00,0.0269
2066.00,0.0270
2065.00,0.0273
2064.00,0.0275
2063.00,0.0277
2062.00,0.0279
2061.00,0.0280
2060.00,0.0282
2059.00,0.0285
2058.00,0.0287
2057.00,0.0290
2056.00,0.0294
2055.00,0.0296
2054.00,0.0298
2053.00,0.0301
2052.00,0.0305
2051.00,0.0309
2050.00,0.0313
2049.00,0.0317
2048.00,0.0320
2047.00,0.0323
2046.00,0.0325
2045.00,0.0327
2044.00,0.0330
2043.00,0.0332
2042.00,0.0335
2041.00,0.0337
2040.00,0.0338
2039.00,0.0340
2038.00,0.0341
2037.00,0.0342
2036.00,0.0344
2035.00,0.0345
2034.00,0.0345
2033.00,0.0345
2032.00,0.0343
2031.00,0.0341
2030.00,0.0339
2029.00,0.0338
2028.00,0.0337
2027.00,0.0335
2026.00,0.0333
2025.00,0.0331
2024.00,0.0328
2023.00,0.0323
2022.00,0.0318
2021.00,0.0313
2020.00,0.0308
2019.00,0.0303
2018.00,0.0295
2017.00,0.0285
2016.00,0.0275
2015.00,0.0267
2014.00,0.0259
2013.00,0.0253
2012.00,0.0247
2011.00,0.0240
2010.00,0.0235
2009.00,0.0230
2008.00,0.0227
2007.00,0.0224
2006.00,0.0221
2005.00,0.0217
2004.00,0.0214
2003.00,0.0212
2002.00,0.0210
2001.00,0.0208
2000.00,0.0207
1999.00,0.0206
1998.00,0.0205
1997.00,0.0206
1996.00,0.0207
1995.00,0.0208
1994.00,0.0207
1993.00,0.0206
1992.00,0.0204
1991.00,0.0203
1990.00,0.0202
1989.00,0.0202
1988.00,0.0202
1987.00,0.0202
1986.00,0.0201
1985.00,0.0201
1984.00,0.0200
1983.00,0.0199
1982.00,0.0197
1981.00,0.0197
1980.00,0.0196
1979.00,0.0196
1978.00,0.0195
1977.00,0.0194
1976.00,0.0193
1975.00,0.0192
1974.00,0.0191
1973.00,0.0191
1972.00,0.0191
1971.00,0.0190
1970.00,0.0189
1969.00,0.0188
1968.00,0.0186
1967.00,0.0184
1966.00,0.0182
1965.00,0.0181
1964.00,0.0180
1963.00,0.0180
1962.00,0.0180
1961.00,0.0180
1960.00,0.0180
1959.00,0.0180
1958.00,0.0180
1957.00,0.0180
1956.00,0.0180
1955.00,0.0180
1954.00,0.0179
1953.00,0.0179
1952.00,0.0180
1951.00,0.0182
1950.00,0.0184
1949.00,0.0185
1948.00,0.0186
1947.00,0.0187
1946.00,0.0188
1945.00,0.0190
1944.00,0.0192
1943.00,0.0194
1942.00,0.0195
1941.00,0.0196
1940.00,0.0198
1939.00,0.0200
1938.00,0.0201
1937.00,0.0203
1936.00,0.0204
1935.00,0.0204
1934.00,0.0205
1933.00,0.0206
1932.00,0.0208
1931.00,0.0209
1930.00,0.0209
1929.00,0.0209
1928.00,0.0209
1927.00,0.0210
1926.00,0.0211
1925.00,0.0212
1924.00,0.0212
1923.00,0.0212
1922.00,0.0211
1921.00,0.0211
1920.00,0.0211
1919.00,0.0212
1918.00,0.0213
1917.00,0.0214
1916.00,0.0215
1915.00,0.0216
1914.00,0.0217
1913.00,0.0218
1912.00,0.0219
1911.00,0.0221
1910.00,0.0222
1909.00,0.0223
1908.00,0.0224
1907.00,0.0224
1906.00,0.0223
1905.00,0.0223
1904.00,0.0224
1903.00,0.0224
1902.00,0.0224
1901.00,0.0225
1900.00,0.0227
1899.00,0.0228
1898.00,0.0229
1897.00,0.0231
1896.00,0.0233
1895.00,0.0233
1894.00,0.0234
1893.00,0.0234
1892.00,0.0234
1891.00,0.0232
1890.00,0.0231
1889.00,0.0230
1888.00,0.0230
1887.00,0.0231
1886.00,0.0232
1885.00,0.0233
1884.00,0.0234
1883.00,0.0234
1882.00,0.0234
1881.00,0.0234
1880.00,0.0234
1879.00,0.0235
1878.00,0.0234
1877.00,0.0234
1876.00,0.0234
1875.00,0.0234
1874.00,0.0234
1873.00,0.0233
1872.00,0.0233
1871.00,0.0232
1870.00,0.0231
1869.00,0.0229
1868.00,0.0228
1867.00,0.0227
1866.00,0.0226
1865.00,0.0226
1864.00,0.0226
1863.00,0.0226
1862.00,0.0226
1861.00,0.0225
1860.00,0.0225
1859.00,0.0223
1858.00,0.0220
1857.00,0.0219
1856.00,0.0219
1855.00,0.0219
1854.00,0.0219
1853.00,0.0219
1852.00,0.0219
1851.00,0.0220
1850.00,0.0220
1849.00,0.0220
1848.00,0.0219
1847.00,0.0216
1846.00,0.0212
1845.00,0.0208
1844.00,0.0205
1843.00,0.0202
1842.00,0.0200
1841.00,0.0199
1840.00,0.0200
1839.00,0.0200
1838.00,0.0200
1837.00,0.0200
1836.00,0.0200
1835.00,0.0200
1834.00,0.0200
1833.00,0.0200
1832.00,0.0202
1831.00,0.0203
1830.00,0.0204
1829.00,0.0206
1828.00,0.0208
1827.00,0.0210
1826.00,0.0212
1825.00,0.0214
1824.00,0.0215
1823.00,0.0216
1822.00,0.0218
1821.00,0.0221
1820.00,0.0222
1819.00,0.0223
1818.00,0.0222
1817.00,0.0222
1816.00,0.0223
1815.00,0.0224
1814.00,0.0224
1813.00,0.0225
1812.00,0.0226
1811.00,0.0226
1810.00,0.0226
1809.00,0.0226
1808.00,0.0225
1807.00,0.0224
1806.00,0.0224
1805.00,0.0224
1804.00,0.0225
1803.00,0.0225
1802.00,0.0223
1801.00,0.0223
1800.00,0.0224
1799.00,0.0225
1798.00,0.0226
1797.00,0.0227
1796.00,0.0227
1795.00,0.0227
1794.00,0.0226
1793.00,0.0225
1792.00,0.0226
1791.00,0.0226
1790.00,0.0226
1789.00,0.0228
1788.00,0.0231
1787.00,0.0233
1786.00,0.0234
1785.00,0.0235
1784.00,0.0235
1783.00,0.0235
1782.00,0.0234
1781.00,0.0235
1780.00,0.0236
1779.00,0.0236
1778.00,0.0234
1777.00,0.0233
1776.00,0.0232
1775.00,0.0230
1774.00,0.0227
1773.00,0.0224
1772.00,0.0222
1771.00,0.0220
1770.00,0.0218
1769.00,0.0217
1768.00,0.0218
1767.00,0.0217
1766.00,0.0215
1765.00,0.0213
1764.00,0.0214
1763.00,0.0215
1762.00,0.0217
1761.00,0.0221
1760.00,0.0226
1759.00,0.0232
1758.00,0.0240
1757.00,0.0250
1756.00,0.0264
1755.00,0.0278
1754.00,0.0292
1753.00,0.0307
1752.00,0.0323
1751.00,0.0337
1750.00,0.0346
1749.00,0.0355
1748.00,0.0363
1747.00,0.0369
1746.00,0.0374
1745.00,0.0377
1744.00,0.0381
1743.00,0.0383
1742.00,0.0384
1741.00,0.0385
1740.00,0.0385
1739.00,0.0383
1738.00,0.0380
1737.00,0.0380
1736.00,0.0382
1735.00,0.0381
1734.00,0.0374
1733.00,0.0366
1732.00,0.0362
1731.00,0.0357
1730.00,0.0351
1729.00,0.0345
1728.00,0.0339
1727.00,0.0333
1726.00,0.0328
1725.00,0.0322
1724.00,0.0316
1723.00,0.0310
1722.00,0.0307
1721.00,0.0307
1720.00,0.0310
1719.00,0.0312
1718.00,0.0310
1717.00,0.0310
1716.00,0.0313
1715.00,0.0316
1714.00,0.0320
1713.00,0.0324
1712.00,0.0328
1711.00,0.0332
1710.00,0.0334
1709.00,0.0337
1708.00,0.0342
1707.00,0.0347
1706.00,0.0352
1705.00,0.0359
1704.00,0.0363
1703.00,0.0365
1702.00,0.0367
1701.00,0.0371
1700.00,0.0375
1699.00,0.0376
1698.00,0.0377
1697.00,0.0380
1696.00,0.0385
1695.00,0.0387
1694.00,0.0386
1693.00,0.0387
1692.00,0.0389
1691.00,0.0390
1690.00,0.0389
1689.00,0.0387
1688.00,0.0387
1687.00,0.0387
1686.00,0.0387
1685.00,0.0386
1684.00,0.0387
1683.00,0.0387
1682.00,0.0387
1681.00,0.0389
1680.00,0.0391
1679.00,0.0393
1678.00,0.0394
1677.00,0.0397
1676.00,0.0400
1675.00,0.0402
1674.00,0.0401
1673.00,0.0401
1672.00,0.0403
1671.00,0.0406
1670.00,0.0408
1669.00,0.0410
1668.00,0.0412
1667.00,0.0414
1666.00,0.0415
1665.00,0.0417
1664.00,0.0420
1663.00,0.0421
1662.00,0.0421
1661.00,0.0421
1660.00,0.0423
1659.00,0.0424
1658.00,0.0425
1657.00,0.0425
1656.00,0.0425
1655.00,0.0423
1654.00,0.0418
1653.00,0.0415
1652.00,0.0416
1651.00,0.0417
1650.00,0.0418
1649.00,0.0420
1648.00,0.0424
1647.00,0.0424
1646.00,0.0423
1645.00,0.0422
1644.00,0.0424
1643.00,0.0425
1642.00,0.0427
1641.00,0.0429
1640.00,0.0431
1639.00,0.0432
1638.00,0.0432
1637.00,0.0436
1636.00,0.0441
1635.00,0.0444
1634.00,0.0445
1633.00,0.0447
1632.00,0.0450
1631.00,0.0453
1630.00,0.0454
1629.00,0.0457
1628.00,0.0461
1627.00,0.0465
1626.00,0.0468
1625.00,0.0471
1624.00,0.0476
1623.00,0.0480
1622.00,0.0484
1621.00,0.0489
1620.00,0.0496
1619.00,0.0502
1618.00,0.0507
1617.00,0.0514
1616.00,0.0522
1615.00,0.0528
1614.00,0.0533
1613.00,0.0540
1612.00,0.0549
1611.00,0.0557
1610.00,0.0563
1609.00,0.0569
1608.00,0.0575
1607.00,0.0579
1606.00,0.0581
1605.00,0.0582
1604.00,0.0583
1603.00,0.0581
1602.00,0.0578
1601.00,0.0575
1600.00,0.0573
1599.00,0.0569
1598.00,0.0563
1597.00,0.0559
1596.00,0.0556
1595.00,0.0554
1594.00,0.0552
1593.00,0.0552
1592.00,0.0555
1591.00,0.0558
1590.00,0.0561
1589.00,0.0565
1588.00,0.0571
1587.00,0.0575
1586.00,0.0577
1585.00,0.0579
1584.00,0.0583
1583.00,0.0585
1582.00,0.0584
1581.00,0.0583
1580.00,0.0584
1579.00,0.0585
1578.00,0.0584
1577.00,0.0583
1576.00,0.0581
1575.00,0.0576
1574.00,0.0572
1573.00,0.0571
1572.00,0.0573
1571.00,0.0574
1570.00,0.0572
1569.00,0.0572
1568.00,0.0575
1567.00,0.0577
1566.00,0.0579
1565.00,0.0581
1564.00,0.0585
1563.00,0.0587
1562.00,0.0588
1561.00,0.0594
1560.00,0.0603
1559.00,0.0608
1558.00,0.0610
1557.00,0.0615
1556.00,0.0623
1555.00,0.0630
1554.00,0.0634
1553.00,0.0639
1552.00,0.0646
1551.00,0.0653
1550.00,0.0660
1549.00,0.0671
1548.00,0.0684
1547.00,0.0696
1546.00,0.0706
1545.00,0.0717
1544.00,0.0732
1543.00,0.0744
1542.00,0.0756
1541.00,0.0775
1540.00,0.0796
1539.00,0.0809
1538.00,0.0812
1537.00,0.0816
1536.00,0.0821
1535.00,0.0824
1534.00,0.0824
1533.00,0.0828
1532.00,0.0838
1531.00,0.0847
1530.00,0.0856
1529.00,0.0868
1528.00,0.0883
1527.00,0.0898
1526.00,0.0912
1525.00,0.0931
1524.00,0.0954
1523.00,0.0975
1522.00,0.0998
1521.00,0.1030
1520.00,0.1066
1519.00,0.1095
1518.00,0.1122
1517.00,0.1155
1516.00,0.1189
1515.00,0.1215
1514.00,0.1235
1513.00,0.1259
1512.00,0.1285
1511.00,0.1307
1510.00,0.1325
1509.00,0.1350
1508.00,0.1387
1507.00,0.1434
1506.00,0.1484
1505.00,0.1535
1504.00,0.1578
1503.00,0.1611
1502.00,0.1642
1501.00,0.1682
1500.00,0.1730
1499.00,0.1779
1498.00,0.1830
1497.00,0.1899
1496.00,0.1983
1495.00,0.2060
1494.00,0.2128
1493.00,0.2203
1492.00,0.2294
1491.00,0.2396
1490.00,0.2516
1489.00,0.2662
1488.00,0.2826
1487.00,0.2994
1486.00,0.3173
1485.00,0.3378
1484.00,0.3609
1483.00,0.3868
1482.00,0.4180
1481.00,0.4567
1480.00,0.5012
1479.00,0.5498
1478.00,0.6067
1477.00,0.6799
1476.00,0.7712
1475.00,0.8776
1474.00,1.0089
1473.00,1.1965
1472.00,1.4639
1471.00,1.7868
1470.00,2.1213
1469.00,2.4809
1468.00,2.8442
1467.00,2.9797
1466.00,3.0542
1465.00,3.0873
1464.00,2.8895
1463.00,2.8374
1462.00,3.0023
1461.00,3.2168
1460.00,3.3626
1459.00,3.6221
1458.00,3.1314
1457.00,3.0595
1456.00,2.9988
1455.00,2.8085
1454.00,2.7981
1453.00,2.8313
1452.00,2.6855
1451.00,2.4409
1450.00,2.2772
1449.00,2.1723
1448.00,2.0450
1447.00,1.9031
1446.00,1.7904
1445.00,1.6998
1444.00,1.6048
1443.00,1.5041
1442.00,1.4119
1441.00,1.3312
1440.00,1.2555
1439.00,1.1801
1438.00,1.0998
1437.00,1.0077
1436.00,0.9121
1435.00,0.8299
1434.00,0.7624
1433.00,0.6996
1432.00,0.6357
1431.00,0.5730
1430.00,0.5160
1429.00,0.4672
1428.00,0.4278
1427.00,0.3976
1426.00,0.3733
1425.00,0.3505
1424.00,0.3287
1423.00,0.3104
1422.00,0.2965
1421.00,0.2843
1420.00,0.2717
1419.00,0.2595
1418.00,0.2495
1417.00,0.2418
1416.00,0.2356
1415.00,0.2309
1414.00,0.2271
1413.00,0.2231
1412.00,0.2191
1411.00,0.2158
1410.00,0.2132
1409.00,0.2107
1408.00,0.2084
1407.00,0.2071
1406.00,0.2066
1405.00,0.2061
1404.00,0.2059
1403.00,0.2070
1402.00,0.2092
1401.00,0.2116
1400.00,0.2145
1399.00,0.2188
1398.00,0.2239
1397.00,0.2291
1396.00,0.2356
1395.00,0.2455
1394.00,0.2590
1393.00,0.2746
1392.00,0.2927
1391.00,0.3154
1390.00,0.3448
1389.00,0.3851
1388.00,0.4435
1387.00,0.5254
1386.00,0.6266
1385.00,0.7380
1384.00,0.8581
1383.00,0.9933
1382.00,1.1492
1381.00,1.3280
1380.00,1.5344
1379.00,1.7605
1378.00,1.9372
1377.00,1.9565
1376.00,1.8298
1375.00,1.6335
1374.00,1.4292
1373.00,1.2600
1372.00,1.1382
1371.00,1.0548
1370.00,0.9996
1369.00,0.9676
1368.00,0.9533
1367.00,0.9445
1366.00,0.9247
1365.00,0.8833
1364.00,0.8208
1363.00,0.7483
1362.00,0.6803
1361.00,0.6262
1360.00,0.5867
1359.00,0.5583
1358.00,0.5374
1357.00,0.5220
1356.00,0.5109
1355.00,0.5032
1354.00,0.4972
1353.00,0.4917
1352.00,0.4858
1351.00,0.4786
1350.00,0.4702
1349.00,0.4609
1348.00,0.4515
1347.00,0.4430
1346.00,0.4358
1345.00,0.4302
1344.00,0.4264
1343.00,0.4239
1342.00,0.4214
1341.00,0.4171
1340.00,0.4095
1339.00,0.3984
1338.00,0.3853
1337.00,0.3715
1336.00,0.3581
1335.00,0.3456
1334.00,0.3339
1333.00,0.3229
1332.00,0.3128
1331.00,0.3038
1330.00,0.2962
1329.00,0.2900
1328.00,0.2850
1327.00,0.2809
1326.00,0.2779
1325.00,0.2756
1324.00,0.2743
1323.00,0.2743
1322.00,0.2756
1321.00,0.2779
1320.00,0.2811
1319.00,0.2852
1318.00,0.2901
1317.00,0.2952
1316.00,0.3004
1315.00,0.3053
1314.00,0.3098
1313.00,0.3138
1312.00,0.3171
1311.00,0.3201
1310.00,0.3231
1309.00,0.3260
1308.00,0.3289
1307.00,0.3315
1306.00,0.3335
1305.00,0.3349
1304.00,0.3354
1303.00,0.3352
1302.00,0.3340
1301.00,0.3316
1300.00,0.3282
1299.00,0.3238
1298.00,0.3189
1297.00,0.3135
1296.00,0.3078
1295.00,0.3019
1294.00,0.2962
1293.00,0.2907
1292.00,0.2856
1291.00,0.2810
1290.00,0.2769
1289.00,0.2729
1288.00,0.2690
1287.00,0.2654
1286.00,0.2620
1285.00,0.2590
1284.00,0.2564
1283.00,0.2544
1282.00,0.2528
1281.00,0.2515
1280.00,0.2502
1279.00,0.2492
1278.00,0.2484
1277.00,0.2479
1276.00,0.2475
1275.00,0.2469
1274.00,0.2460
1273.00,0.2446
1272.00,0.2427
1271.00,0.2406
1270.00,0.2384
1269.00,0.2360
1268.00,0.2334
1267.00,0.2307
1266.00,0.2280
1265.00,0.2250
1264.00,0.2218
1263.00,0.2187
1262.00,0.2158
1261.00,0.2129
1260.00,0.2102
1259.00,0.2077
1258.00,0.2055
1257.00,0.2037
1256.00,0.2023
1255.00,0.2013
1254.00,0.2005
1253.00,0.1996
1252.00,0.1984
1251.00,0.1971
1250.00,0.1959
1249.00,0.1946
1248.00,0.1930
1247.00,0.1912
1246.00,0.1893
1245.00,0.1872
1244.00,0.1849
1243.00,0.1827
1242.00,0.1804
1241.00,0.1782
1240.00,0.1763
1239.00,0.1750
1238.00,0.1744
1237.00,0.1740
1236.00,0.1737
1235.00,0.1737
1234.00,0.1739
1233.00,0.1744
1232.00,0.1749
1231.00,0.1750
1230.00,0.1742
1229.00,0.1721
1228.00,0.1690
1227.00,0.1658
1226.00,0.1631
1225.00,0.1607
1224.00,0.1587
1223.00,0.1571
1222.00,0.1560
1221.00,0.1550
1220.00,0.1538
1219.00,0.1528
1218.00,0.1518
1217.00,0.1509
1216.00,0.1500
1215.00,0.1493
1214.00,0.1490
1213.00,0.1490
1212.00,0.1489
1211.00,0.1488
1210.00,0.1486
1209.00,0.1481
1208.00,0.1475
1207.00,0.1471
1206.00,0.1467
1205.00,0.1463
1204.00,0.1457
1203.00,0.1451
1202.00,0.1444
1201.00,0.1436
1200.00,0.1429
1199.00,0.1423
1198.00,0.1419
1197.00,0.1415
1196.00,0.1412
1195.00,0.1411
1194.00,0.1409
1193.00,0.1407
1192.00,0.1401
1191.00,0.1395
1190.00,0.1390
1189.00,0.1386
1188.00,0.1384
1187.00,0.1386
1186.00,0.1392
1185.00,0.1399
1184.00,0.1406
1183.00,0.1415
1182.00,0.1428
1181.00,0.1444
1180.00,0.1463
1179.00,0.1486
1178.00,0.1514
1177.00,0.1545
1176.00,0.1582
1175.00,0.1626
1174.00,0.1682
1173.00,0.1746
1172.00,0.1812
1171.00,0.1870
1170.00,0.1910
1169.00,0.1926
1168.00,0.1921
1167.00,0.1904
1166.00,0.1887
1165.00,0.1875
1164.00,0.1873
1163.00,0.1883
1162.00,0.1904
1161.00,0.1932
1160.00,0.1963
1159.00,0.1996
1158.00,0.2027
1157.00,0.2054
1156.00,0.2075
1155.00,0.2088
1154.00,0.2093
1153.00,0.2085
1152.00,0.2066
1151.00,0.2040
1150.00,0.2010
1149.00,0.1979
1148.00,0.1948
1147.00,0.1917
1146.00,0.1885
1145.00,0.1851
1144.00,0.1813
1143.00,0.1771
1142.00,0.1723
1141.00,0.1671
1140.00,0.1616
1139.00,0.1565
1138.00,0.1519
1137.00,0.1477
1136.00,0.1437
1135.00,0.1400
1134.00,0.1367
1133.00,0.1337
1132.00,0.1309
1131.00,0.1284
1130.00,0.1262
1129.00,0.1244
1128.00,0.1231
1127.00,0.1224
1126.00,0.1224
1125.00,0.1226
1124.00,0.1230
1123.00,0.1232
1122.00,0.1233
1121.00,0.1230
1120.00,0.1225
1119.00,0.1219
1118.00,0.1213
1117.00,0.1207
1116.00,0.1203
1115.00,0.1202
1114.00,0.1203
1113.00,0.1202
1112.00,0.1198
1111.00,0.1192
1110.00,0.1187
1109.00,0.1182
1108.00,0.1176
1107.00,0.1168
1106.00,0.1161
1105.00,0.1156
1104.00,0.1153
1103.00,0.1152
1102.00,0.1153
1101.00,0.1156
1100.00,0.1159
1099.00,0.1163
1098.00,0.1169
1097.00,0.1176
1096.00,0.1187
1095.00,0.1203
1094.00,0.1221
1093.00,0.1239
1092.00,0.1255
1091.00,0.1266
1090.00,0.1273
1089.00,0.1280
1088.00,0.1288
1087.00,0.1299
1086.00,0.1314
1085.00,0.1330
1084.00,0.1347
1083.00,0.1363
1082.00,0.1379
1081.00,0.1392
1080.00,0.1401
1079.00,0.1406
1078.00,0.1405
1077.00,0.1400
1076.00,0.1391
1075.00,0.1384
1074.00,0.1376
1073.00,0.1365
1072.00,0.1353
1071.00,0.1341
1070.00,0.1332
1069.00,0.1322
1068.00,0.1311
1067.00,0.1302
1066.00,0.1298
1065.00,0.1300
1064.00,0.1302
1063.00,0.1301
1062.00,0.1297
1061.00,0.1292
1060.00,0.1287
1059.00,0.1285
1058.00,0.1283
1057.00,0.1282
1056.00,0.1281
1055.00,0.1282
1054.00,0.1285
1053.00,0.1290
1052.00,0.1297
1051.00,0.1308
1050.00,0.1320
1049.00,0.1330
1048.00,0.1338
1047.00,0.1345
1046.00,0.1354
1045.00,0.1365
1044.00,0.1376
1043.00,0.1389
1042.00,0.1402
1041.00,0.1414
1040.00,0.1425
1039.00,0.1436
1038.00,0.1447
1037.00,0.1458
1036.00,0.1470
1035.00,0.1482
1034.00,0.1494
1033.00,0.1503
1032.00,0.1508
1031.00,0.1510
1030.00,0.1511
1029.00,0.1512
1028.00,0.1513
1027.00,0.1515
1026.00,0.1517
1025.00,0.1521
1024.00,0.1526
1023.00,0.1532
1022.00,0.1539
1021.00,0.1546
1020.00,0.1551
1019.00,0.1558
1018.00,0.1566
1017.00,0.1576
1016.00,0.1587
1015.00,0.1599
1014.00,0.1609
1013.00,0.1618
1012.00,0.1626
1011.00,0.1636
1010.00,0.1645
1009.00,0.1650
1008.00,0.1650
1007.00,0.1644
1006.00,0.1633
1005.00,0.1620
1004.00,0.1606
1003.00,0.1595
1002.00,0.1584
1001.00,0.1574
1000.00,0.1565
999.00,0.1556
998.00,0.1548
997.00,0.1538
996.00,0.1527
995.00,0.1517
994.00,0.1509
993.00,0.1502
992.00,0.1495
991.00,0.1491
990.00,0.1491
989.00,0.1494
988.00,0.1502
987.00,0.1512
986.00,0.1525
985.00,0.1540
984.00,0.1559
983.00,0.1580
982.00,0.1601
981.00,0.1620
980.00,0.1639
979.00,0.1659
978.00,0.1683
977.00,0.1710
976.00,0.1736
975.00,0.1759
974.00,0.1778
973.00,0.1792
972.00,0.1806
971.00,0.1818
970.00,0.1827
969.00,0.1829
968.00,0.1826
967.00,0.1820
966.00,0.1812
965.00,0.1801
964.00,0.1785
963.00,0.1764
962.00,0.1737
961.00,0.1707
960.00,0.1676
959.00,0.1647
958.00,0.1621
957.00,0.1597
956.00,0.1579
955.00,0.1565
954.00,0.1555
953.00,0.1542
952.00,0.1525
951.00,0.1507
950.00,0.1492
949.00,0.1481
948.00,0.1475
947.00,0.1472
946.00,0.1471
945.00,0.1471
944.00,0.1470
943.00,0.1470
942.00,0.1471
941.00,0.1471
940.00,0.1473
939.00,0.1476
938.00,0.1481
937.00,0.1484
936.00,0.1483
935.00,0.1480
934.00,0.1475
933.00,0.1467
932.00,0.1456
931.00,0.1443
930.00,0.1431
929.00,0.1416
928.00,0.1399
927.00,0.1384
926.00,0.1370
925.00,0.1360
924.00,0.1355
923.00,0.1359
922.00,0.1371
921.00,0.1388
920.00,0.1403
919.00,0.1410
918.00,0.1405
917.00,0.1388
916.00,0.1363
915.00,0.1334
914.00,0.1309
913.00,0.1288
912.00,0.1270
911.00,0.1257
910.00,0.1248
909.00,0.1240
908.00,0.1230
907.00,0.1218
906.00,0.1206
905.00,0.1195
904.00,0.1190
903.00,0.1191
902.00,0.1196
901.00,0.1206
900.00,0.1220
899.00,0.1239
898.00,0.1261
897.00,0.1282
896.00,0.1300
895.00,0.1314
894.00,0.1325
893.00,0.1332
892.00,0.1334
891.00,0.1329
890.00,0.1317
889.00,0.1295
888.00,0.1262
887.00,0.1224
886.00,0.1185
885.00,0.1150
884.00,0.1122
883.00,0.1105
882.00,0.1095
881.00,0.1087
880.00,0.1078
879.00,0.1070
878.00,0.1066
877.00,0.1063
876.00,0.1060
875.00,0.1058
874.00,0.1061
873.00,0.1068
872.00,0.1075
871.00,0.1079
870.00,0.1081
869.00,0.1077
868.00,0.1070
867.00,0.1064
866.00,0.1061
865.00,0.1061
864.00,0.1063
863.00,0.1064
862.00,0.1060
861.00,0.1053
860.00,0.1045
859.00,0.1040
858.00,0.1038
857.00,0.1039
856.00,0.1041
855.00,0.1046
854.00,0.1053
853.00,0.1060
852.00,0.1067
851.00,0.1076
850.00,0.1087
849.00,0.1099
848.00,0.1108
847.00,0.1111
846.00,0.1108
845.00,0.1100
844.00,0.1088
843.00,0.1074
842.00,0.1056
841.00,0.1036
840.00,0.1016
839.00,0.0998
838.00,0.0983
837.00,0.0967
836.00,0.0952
835.00,0.0941
834.00,0.0935
833.00,0.0932
832.00,0.0927
831.00,0.0921
830.00,0.0917
829.00,0.0919
828.00,0.0927
827.00,0.0934
826.00,0.0936
825.00,0.0933
824.00,0.0930
823.00,0.0931
822.00,0.0932
821.00,0.0932
820.00,0.0930
819.00,0.0931
818.00,0.0937
817.00,0.0944
816.00,0.0950
815.00,0.0954
814.00,0.0957
813.00,0.0959
812.00,0.0958
811.00,0.0957
810.00,0.0957
809.00,0.0959
808.00,0.0959
807.00,0.0956
806.00,0.0949
805.00,0.0938
804.00,0.0924
803.00,0.0908
802.00,0.0894
801.00,0.0883
800.00,0.0878
799.00,0.0876
798.00,0.0880
797.00,0.0887
796.00,0.0900
795.00,0.0917
794.00,0.0932
793.00,0.0940
792.00,0.0941
791.00,0.0942
790.00,0.0947
789.00,0.0955
788.00,0.0969
787.00,0.0992
786.00,0.1022
785.00,0.1056
784.00,0.1089
783.00,0.1121
782.00,0.1152
781.00,0.1181
780.00,0.1211
779.00,0.1243
778.00,0.1281
777.00,0.1322
776.00,0.1365
775.00,0.1409
774.00,0.1453
773.00,0.1491
772.00,0.1516
771.00,0.1528
770.00,0.1533
769.00,0.1531
768.00,0.1524
767.00,0.1514
766.00,0.1505
765.00,0.1495
764.00,0.1482
763.00,0.1467
762.00,0.1459
761.00,0.1460
760.00,0.1471
759.00,0.1487
758.00,0.1511
757.00,0.1542
756.00,0.1577
755.00,0.1611
754.00,0.1644
753.00,0.1678
752.00,0.1715
751.00,0.1759
750.00,0.1811
749.00,0.1875
748.00,0.1953
747.00,0.2041
746.00,0.2132
745.00,0.2214
744.00,0.2286
743.00,0.2354
742.00,0.2427
741.00,0.2511
740.00,0.2600
739.00,0.2687
738.00,0.2769
737.00,0.2846
736.00,0.2925
735.00,0.3009
734.00,0.3106
733.00,0.3221
732.00,0.3361
731.00,0.3530
730.00,0.3731
729.00,0.3960
728.00,0.4213
727.00,0.4491
726.00,0.4794
725.00,0.5109
724.00,0.5402
723.00,0.5611
722.00,0.5667
721.00,0.5526
720.00,0.5195
719.00,0.4740
718.00,0.4238
717.00,0.3753
716.00,0.3318
715.00,0.2940
714.00,0.2613
713.00,0.2324
712.00,0.2067
711.00,0.1840
710.00,0.1640
709.00,0.1464
708.00,0.1310
707.00,0.1179
706.00,0.1066
705.00,0.0967
704.00,0.0879
703.00,0.0803
702.00,0.0740
701.00,0.0685
700.00,0.0634
699.00,0.0584
698.00,0.0532
697.00,0.0481
696.00,0.0434
695.00,0.0396
694.00,0.0365
693.00,0.0340
692.00,0.0317
691.00,0.0297
690.00,0.0282
689.00,0.0272
688.00,0.0269
687.00,0.0273
686.00,0.0282
685.00,0.0291
684.00,0.0302
683.00,0.0314
682.00,0.0330
681.00,0.0349
680.00,0.0373
679.00,0.0402
678.00,0.0436
677.00,0.0470
676.00,0.0499
675.00,0.0525
674.00,0.0543
673.00,0.0549
672.00,0.0541
671.00,0.0521
670.00,0.0488
669.00,0.0439
668.00,0.0374
667.00,0.0316
666.00,0.0283
665.00,0.0268
664.00,0.0258
663.00,0.0252
662.00,0.0251
661.00,0.0256
660.00,0.0261
659.00,0.0263
658.00,0.0257
657.00,0.0245
656.00,0.0228
655.00,0.0211
654.00,0.0197
653.00,0.0183
652.00,0.0169
651.00,0.0154
650.00,0.0141
649.00,0.0131
648.00,0.0125
647.00,0.0124
646.00,0.0126
645.00,0.0126
644.00,0.0123
643.00,0.0121
642.00,0.0122
641.00,0.0127
640.00,0.0132
639.00,0.0137
638.00,0.0144
637.00,0.0151
636.00,0.0156
635.00,0.0159
634.00,0.0159
633.00,0.0155
632.00,0.0148
631.00,0.0141
630.00,0.0139
629.00,0.0142
628.00,0.0150
627.00,0.0161
626.00,0.0178
625.00,0.0200
624.00,0.0223
623.00,0.0244
622.00,0.0260
621.00,0.0273
620.00,0.0282
619.00,0.0288
618.00,0.0291
617.00,0.0288
616.00,0.0279
615.00,0.0261
614.00,0.0239
613.00,0.0216
612.00,0.0196
611.00,0.0177
610.00,0.0160
609.00,0.0145
608.00,0.0132
607.00,0.0122
606.00,0.0112
605.00,0.0100
604.00,0.0086
603.00,0.0074
602.00,0.0068
601.00,0.0065
600.00,0.0063
599.00,0.0060
598.00,0.0060
597.00,0.0065
596.00,0.0076
595.00,0.0091
594.00,0.0109
593.00,0.0128
592.00,0.0147
591.00,0.0164
590.00,0.0177
589.00,0.0187
588.00,0.0194
587.00,0.0200
586.00,0.0206
585.00,0.0214
584.00,0.0227
583.00,0.0248
582.00,0.0274
581.00,0.0298
580.00,0.0315
579.00,0.0323
578.00,0.0325
577.00,0.0327
576.00,0.0334
575.00,0.0343
574.00,0.0346
573.00,0.0341
572.00,0.0331
571.00,0.0323
570.00,0.0323
569.00,0.0330
568.00,0.0341
567.00,0.0355
566.00,0.0365
565.00,0.0372
564.00,0.0373
563.00,0.0367
562.00,0.0351
561.00,0.0324
560.00,0.0294
559.00,0.0272
558.00,0.0262
557.00,0.0263
556.00,0.0269
555.00,0.0275
554.00,0.0276
553.00,0.0271
552.00,0.0262
551.00,0.0256
550.00,0.0254
