Created as New Dataset,Sample 001 By Laboratory Date 16 10 2025
cm-1,A
4000.00,0.1074
3999.00,0.1074
3998.00,0.1075
3997.00,0.1075
3996.00,0.1075
3995.00,0.1075
3994.00,0.1075
3993.00,0.1074
3992.00,0.1074
3991.00,0.1074
3990.00,0.1074
3989.00,0.1075
3988.00,0.1077
3987.00,0.1078
3986.00,0.1078
3985.00,0.1078
3984.00,0.1077
3983.00,0.1076
3982.00,0.1076
3981.00,0.1076
3980.00,0.1075
3979.00,0.1073
3978.00,0.1070
3977.00,0.1066
3976.00,0.1063
3975.00,0.1060
3974.00,0.1057
3973.00,0.1054
3972.00,0.1051
3971.00,0.1047
3970.00,0.1043
3969.00,0.1039
3968.00,0.1034
3967.00,0.1030
3966.00,0.1025
3965.00,0.1019
3964.00,0.1014
3963.00,0.1009
3962.00,0.1004
3961.00,0.0999
3960.00,0.0993
3959.00,0.0988
3958.00,0.0983
3957.00,0.0978
3956.00,0.0973
3955.00,0.0970
3954.00,0.0967
3953.00,0.0964
3952.00,0.0960
3951.00,0.0955
3950.00,0.0950
3949.00,0.0945
3948.00,0.0943
3947.00,0.0941
3946.00,0.0939
3945.00,0.0937
3944.00,0.0933
3943.00,0.0929
3942.00,0.0926
3941.00,0.0926
3940.00,0.0926
3939.00,0.0925
3938.00,0.0923
3937.00,0.0921
3936.00,0.0919
3935.00,0.0918
3934.00,0.0917
3933.00,0.0914
3932.00,0.0912
3931.00,0.0910
3930.00,0.0908
3929.00,0.0907
3928.00,0.0905
3927.00,0.0903
3926.00,0.0902
3925.00,0.0901
3924.00,0.0900
3923.00,0.0898
3922.00,0.0896
3921.00,0.0894
3920.00,0.0891
3919.00,0.0890
3918.00,0.0889
3917.00,0.0890
3916.00,0.0890
3915.00,0.0889
3914.00,0.0888
3913.00,0.0888
3912.00,0.0889
3911.00,0.0889
3910.00,0.0889
3909.00,0.0888
3908.00,0.0887
3907.00,0.0886
3906.00,0.0884
3905.00,0.0884
3904.00,0.0883
3903.00,0.0882
3902.00,0.0883
3901.00,0.0886
3900.00,0.0890
3899.00,0.0893
3898.00,0.0894
3897.00,0.0896
3896.00,0.0900
3895.00,0.0904
3894.00,0.0908
3893.00,0.0912
3892.00,0.0916
3891.00,0.0919
3890.00,0.0919
3889.00,0.0920
3888.00,0.0922
3887.00,0.0926
3886.00,0.0929
3885.00,0.0931
3884.00,0.0932
3883.00,0.0934
3882.00,0.0936
3881.00,0.0934
3880.00,0.0930
3879.00,0.0927
3878.00,0.0926
3877.00,0.0926
3876.00,0.0922
3875.00,0.0915
3874.00,0.0908
3873.00,0.0904
3872.00,0.0901
3871.00,0.0897
3870.00,0.0889
3869.00,0.0877
3868.00,0.0867
3867.00,0.0862
3866.00,0.0859
3865.00,0.0852
3864.00,0.0844
3863.00,0.0840
3862.00,0.0839
3861.00,0.0838
3860.00,0.0834
3859.00,0.0830
3858.00,0.0827
3857.00,0.0827
3856.00,0.0827
3855.00,0.0828
3854.00,0.0827
3853.00,0.0822
3852.00,0.0815
3851.00,0.0815
3850.00,0.0820
3849.00,0.0821
3848.00,0.0816
3847.00,0.0813
3846.00,0.0813
3845.00,0.0813
3844.00,0.0812
3843.00,0.0811
3842.00,0.0810
3841.00,0.0809
3840.00,0.0807
3839.00,0.0804
3838.00,0.0800
3837.00,0.0797
3836.00,0.0795
3835.00,0.0794
3834.00,0.0793
3833.00,0.0791
3832.00,0.0789
3831.00,0.0788
3830.00,0.0788
3829.00,0.0788
3828.00,0.0788
3827.00,0.0786
3826.00,0.0783
3825.00,0.0782
3824.00,0.0782
3823.00,0.0784
3822.00,0.0785
3821.00,0.0783
3820.00,0.0780
3819.00,0.0780
3818.00,0.0784
3817.00,0.0787
3816.00,0.0787
3815.00,0.0785
3814.00,0.0787
3813.00,0.0793
3812.00,0.0797
3811.00,0.0797
3810.00,0.0795
3809.00,0.0798
3808.00,0.0802
3807.00,0.0801
3806.00,0.0797
3805.00,0.0793
3804.00,0.0793
3803.00,0.0793
3802.00,0.0791
3801.00,0.0789
3800.00,0.0787
3799.00,0.0789
3798.00,0.0792
3797.00,0.0789
3796.00,0.0784
3795.00,0.0781
3794.00,0.0781
3793.00,0.0781
3792.00,0.0777
3791.00,0.0772
3790.00,0.0767
3789.00,0.0763
3788.00,0.0759
3787.00,0.0755
3786.00,0.0750
3785.00,0.0745
3784.00,0.0741
3783.00,0.0736
3782.00,0.0731
3781.00,0.0728
3780.00,0.0724
3779.00,0.0721
3778.00,0.0718
3777.00,0.0716
3776.00,0.0715
3775.00,0.0713
3774.00,0.0711
3773.00,0.0709
3772.00,0.0707
3771.00,0.0706
3770.00,0.0704
3769.00,0.0701
3768.00,0.0699
3767.00,0.0699
3766.00,0.0696
3765.00,0.0693
3764.00,0.0690
3763.00,0.0690
3762.00,0.0690
3761.00,0.0687
3760.00,0.0683
3759.00,0.0679
3758.00,0.0677
3757.00,0.0675
3756.00,0.0672
3755.00,0.0668
3754.00,0.0665
3753.00,0.0664
3752.00,0.0662
3751.00,0.0659
3750.00,0.0655
3749.00,0.0650
3748.00,0.0645
3747.00,0.0643
3746.00,0.0642
3745.00,0.0642
3744.00,0.0641
3743.00,0.0638
3742.00,0.0639
3741.00,0.0645
3740.00,0.0645
3739.00,0.0640
3738.00,0.0639
3737.00,0.0641
3736.00,0.0641
3735.00,0.0638
3734.00,0.0636
3733.00,0.0638
3732.00,0.0641
3731.00,0.0642
3730.00,0.0642
3729.00,0.0643
3728.00,0.0644
3727.00,0.0645
3726.00,0.0644
3725.00,0.0645
3724.00,0.0647
3723.00,0.0648
3722.00,0.0648
3721.00,0.0648
3720.00,0.0650
3719.00,0.0652
3718.00,0.0653
3717.00,0.0653
3716.00,0.0652
3715.00,0.0652
3714.00,0.0653
3713.00,0.0654
3712.00,0.0656
3711.00,0.0658
3710.00,0.0661
3709.00,0.0665
3708.00,0.0670
3707.00,0.0675
3706.00,0.0680
3705.00,0.0687
3704.00,0.0695
3703.00,0.0705
3702.00,0.0717
3701.00,0.0730
3700.00,0.0743
3699.00,0.0757
3698.00,0.0772
3697.00,0.0785
3696.00,0.0798
3695.00,0.0810
3694.00,0.0821
3693.00,0.0830
3692.00,0.0836
3691.00,0.0840
3690.00,0.0843
3689.00,0.0845
3688.00,0.0846
3687.00,0.0846
3686.00,0.0848
3685.00,0.0850
3684.00,0.0851
3683.00,0.0851
3682.00,0.0853
3681.00,0.0856
3680.00,0.0858
3679.00,0.0859
3678.00,0.0862
3677.00,0.0866
3676.00,0.0872
3675.00,0.0875
3674.00,0.0878
3673.00,0.0884
3672.00,0.0893
3671.00,0.0899
3670.00,0.0905
3669.00,0.0913
3668.00,0.0923
3667.00,0.0935
3666.00,0.0945
3665.00,0.0954
3664.00,0.0963
3663.00,0.0973
3662.00,0.0983
3661.00,0.0992
3660.00,0.1001
3659.00,0.1010
3658.00,0.1020
3657.00,0.1030
3656.00,0.1039
3655.00,0.1046
3654.00,0.1052
3653.00,0.1059
3652.00,0.1064
3651.00,0.1071
3650.00,0.1078
3649.00,0.1085
3648.00,0.1090
3647.00,0.1093
3646.00,0.1095
3645.00,0.1098
3644.00,0.1101
3643.00,0.1104
3642.00,0.1105
3641.00,0.1106
3640.00,0.1107
3639.00,0.1108
3638.00,0.1106
3637.00,0.1103
3636.00,0.1100
3635.00,0.1097
3634.00,0.1093
3633.00,0.1088
3632.00,0.1084
3631.00,0.1080
3630.00,0.1076
3629.00,0.1068
3628.00,0.1059
3627.00,0.1052
3626.00,0.1049
3625.00,0.1045
3624.00,0.1039
3623.00,0.1032
3622.00,0.1028
3621.00,0.1026
3620.00,0.1020
3619.00,0.1013
3618.00,0.1007
3617.00,0.1001
3616.00,0.0996
3615.00,0.0991
3614.00,0.0985
3613.00,0.0981
3612.00,0.0978
3611.00,0.0974
3610.00,0.0969
3609.00,0.0964
3608.00,0.0959
3607.00,0.0957
3606.00,0.0956
3605.00,0.0956
3604.00,0.0955
3603.00,0.0954
3602.00,0.0955
3601.00,0.0956
3600.00,0.0959
3599.00,0.0961
3598.00,0.0963
3597.00,0.0965
3596.00,0.0969
3595.00,0.0975
3594.00,0.0981
3593.00,0.0989
3592.00,0.0999
3591.00,0.1009
3590.00,0.1020
3589.00,0.1031
3588.00,0.1044
3587.00,0.1057
3586.00,0.1072
3585.00,0.1087
3584.00,0.1104
3583.00,0.1121
3582.00,0.1139
3581.00,0.1158
3580.00,0.1178
3579.00,0.1198
3578.00,0.1218
3577.00,0.1239
3576.00,0.1261
3575.00,0.1283
3574.00,0.1305
3573.00,0.1327
3572.00,0.1348
3571.00,0.1367
3570.00,0.1386
3569.00,0.1406
3568.00,0.1427
3567.00,0.1448
3566.00,0.1469
3565.00,0.1488
3564.00,0.1505
3563.00,0.1522
3562.00,0.1537
3561.00,0.1552
3560.00,0.1568
3559.00,0.1583
3558.00,0.1596
3557.00,0.1608
3556.00,0.1617
3555.00,0.1625
3554.00,0.1631
3553.00,0.1637
3552.00,0.1642
3551.00,0.1646
3550.00,0.1649
3549.00,0.1651
3548.00,0.1653
3547.00,0.1655
3546.00,0.1655
3545.00,0.1655
3544.00,0.1655
3543.00,0.1655
3542.00,0.1654
3541.00,0.1654
3540.00,0.1653
3539.00,0.1652
3538.00,0.1650
3537.00,0.1646
3536.00,0.1642
3535.00,0.1637
3534.00,0.1633
3533.00,0.1629
3532.00,0.1625
3531.00,0.1621
3530.00,0.1616
3529.00,0.1612
3528.00,0.1608
3527.00,0.1603
3526.00,0.1597
3525.00,0.1591
3524.00,0.1587
3523.00,0.1583
3522.00,0.1580
3521.00,0.1576
3520.00,0.1573
3519.00,0.1569
3518.00,0.1566
3517.00,0.1563
3516.00,0.1560
3515.00,0.1555
3514.00,0.1551
3513.00,0.1546
3512.00,0.1543
3511.00,0.1542
3510.00,0.1542
3509.00,0.1542
3508.00,0.1543
3507.00,0.1543
3506.00,0.1544
3505.00,0.1546
3504.00,0.1550
3503.00,0.1557
3502.00,0.1566
3501.00,0.1574
3500.00,0.1583
3499.00,0.1594
3498.00,0.1608
3497.00,0.1625
3496.00,0.1644
3495.00,0.1665
3494.00,0.1688
3493.00,0.1715
3492.00,0.1745
3491.00,0.1779
3490.00,0.1815
3489.00,0.1854
3488.00,0.1894
3487.00,0.1936
3486.00,0.1982
3485.00,0.2029
3484.00,0.2079
3483.00,0.2130
3482.00,0.2182
3481.00,0.2235
3480.00,0.2287
3479.00,0.2338
3478.00,0.2387
3477.00,0.2433
3476.00,0.2477
3475.00,0.2516
3474.00,0.2549
3473.00,0.2577
3472.00,0.2601
3471.00,0.2620
3470.00,0.2634
3469.00,0.2642
3468.00,0.2642
3467.00,0.2635
3466.00,0.2621
3465.00,0.2601
3464.00,0.2575
3463.00,0.2544
3462.00,0.2508
3461.00,0.2467
3460.00,0.2424
3459.00,0.2377
3458.00,0.2327
3457.00,0.2272
3456.00,0.2215
3455.00,0.2157
3454.00,0.2099
3453.00,0.2040
3452.00,0.1980
3451.00,0.1921
3450.00,0.1863
3449.00,0.1807
3448.00,0.1753
3447.00,0.1698
3446.00,0.1645
3445.00,0.1595
3444.00,0.1548
3443.00,0.1504
3442.00,0.1462
3441.00,0.1421
3440.00,0.1383
3439.00,0.1347
3438.00,0.1315
3437.00,0.1284
3436.00,0.1255
3435.00,0.1227
3434.00,0.1200
3433.00,0.1175
3432.00,0.1151
3431.00,0.1129
3430.00,0.1110
3429.00,0.1093
3428.00,0.1076
3427.00,0.1060
3426.00,0.1046
3425.00,0.1033
3424.00,0.1022
3423.00,0.1011
3422.00,0.1000
3421.00,0.0989
3420.00,0.0979
3419.00,0.0970
3418.00,0.0961
3417.00,0.0953
3416.00,0.0945
3415.00,0.0939
3414.00,0.0932
3413.00,0.0926
3412.00,0.0920
3411.00,0.0914
3410.00,0.0908
3409.00,0.0903
3408.00,0.0898
3407.00,0.0894
3406.00,0.0891
3405.00,0.0889
3404.00,0.0887
3403.00,0.0885
3402.00,0.0882
3401.00,0.0880
3400.00,0.0878
3399.00,0.0877
3398.00,0.0875
3397.00,0.0872
3396.00,0.0870
3395.00,0.0868
3394.00,0.0868
3393.00,0.0867
3392.00,0.0866
3391.00,0.0865
3390.00,0.0865
3389.00,0.0864
3388.00,0.0863
3387.00,0.0862
3386.00,0.0862
3385.00,0.0862
3384.00,0.0863
3383.00,0.0864
3382.00,0.0865
3381.00,0.0867
3380.00,0.0868
3379.00,0.0869
3378.00,0.0869
3377.00,0.0868
3376.00,0.0868
3375.00,0.0869
3374.00,0.0871
3373.00,0.0873
3372.00,0.0874
3371.00,0.0874
3370.00,0.0874
3369.00,0.0874
3368.00,0.0875
3367.00,0.0875
3366.00,0.0874
3365.00,0.0872
3364.00,0.0870
3363.00,0.0868
3362.00,0.0866
3361.00,0.0864
3360.00,0.0860
3359.00,0.0857
3358.00,0.0853
3357.00,0.0850
3356.00,0.0848
3355.00,0.0847
3354.00,0.0845
3353.00,0.0842
3352.00,0.0839
3351.00,0.0836
3350.00,0.0832
3349.00,0.0830
3348.00,0.0828
3347.00,0.0828
3346.00,0.0826
3345.00,0.0825
3344.00,0.0823
3343.00,0.0821
3342.00,0.0820
3341.00,0.0819
3340.00,0.0818
3339.00,0.0818
3338.00,0.0817
3337.00,0.0817
3336.00,0.0818
3335.00,0.0819
3334.00,0.0819
3333.00,0.0820
3332.00,0.0822
3331.00,0.0824
3330.00,0.0827
3329.00,0.0829
3328.00,0.0831
3327.00,0.0833
3326.00,0.0834
3325.00,0.0835
3324.00,0.0836
3323.00,0.0838
3322.00,0.0840
3321.00,0.0842
3320.00,0.0845
3319.00,0.0847
3318.00,0.0848
3317.00,0.0849
3316.00,0.0851
3315.00,0.0852
3314.00,0.0852
3313.00,0.0852
3312.00,0.0851
3311.00,0.0850
3310.00,0.0849
3309.00,0.0848
3308.00,0.0847
3307.00,0.0845
3306.00,0.0844
3305.00,0.0842
3304.00,0.0840
3303.00,0.0838
3302.00,0.0836
3301.00,0.0833
3300.00,0.0831
3299.00,0.0829
3298.00,0.0828
3297.00,0.0827
3296.00,0.0828
3295.00,0.0828
3294.00,0.0829
3293.00,0.0828
3292.00,0.0828
3291.00,0.0828
3290.00,0.0828
3289.00,0.0829
3288.00,0.0832
3287.00,0.0835
3286.00,0.0838
3285.00,0.0841
3284.00,0.0843
3283.00,0.0846
3282.00,0.0849
3281.00,0.0853
3280.00,0.0857
3279.00,0.0861
3278.00,0.0864
3277.00,0.0868
3276.00,0.0871
3275.00,0.0875
3274.00,0.0879
3273.00,0.0882
3272.00,0.0887
3271.00,0.0892
3270.00,0.0897
3269.00,0.0902
3268.00,0.0907
3267.00,0.0912
3266.00,0.0917
3265.00,0.0922
3264.00,0.0929
3263.00,0.0935
3262.00,0.0941
3261.00,0.0946
3260.00,0.0952
3259.00,0.0959
3258.00,0.0966
3257.00,0.0973
3256.00,0.0980
3255.00,0.0985
3254.00,0.0991
3253.00,0.0997
3252.00,0.1004
3251.00,0.1012
3250.00,0.1021
3249.00,0.1028
3248.00,0.1036
3247.00,0.1043
3246.00,0.1051
3245.00,0.1059
3244.00,0.1067
3243.00,0.1075
3242.00,0.1082
3241.00,0.1090
3240.00,0.1097
3239.00,0.1105
3238.00,0.1113
3237.00,0.1119
3236.00,0.1125
3235.00,0.1131
3234.00,0.1137
3233.00,0.1144
3232.00,0.1151
3231.00,0.1159
3230.00,0.1166
3229.00,0.1174
3228.00,0.1182
3227.00,0.1189
3226.00,0.1197
3225.00,0.1205
3224.00,0.1213
3223.00,0.1221
3222.00,0.1229
3221.00,0.1238
3220.00,0.1247
3219.00,0.1255
3218.00,0.1264
3217.00,0.1272
3216.00,0.1280
3215.00,0.1289
3214.00,0.1297
3213.00,0.1305
3212.00,0.1313
3211.00,0.1320
3210.00,0.1328
3209.00,0.1336
3208.00,0.1344
3207.00,0.1352
3206.00,0.1359
3205.00,0.1366
3204.00,0.1373
3203.00,0.1379
3202.00,0.1385
3201.00,0.1389
3200.00,0.1392
3199.00,0.1395
3198.00,0.1398
3197.00,0.1402
3196.00,0.1405
3195.00,0.1408
3194.00,0.1411
3193.00,0.1413
3192.00,0.1415
3191.00,0.1416
3190.00,0.1417
3189.00,0.1418
3188.00,0.1420
3187.00,0.1421
3186.00,0.1420
3185.00,0.1419
3184.00,0.1417
3183.00,0.1417
3182.00,0.1417
3181.00,0.1417
3180.00,0.1417
3179.00,0.1416
3178.00,0.1414
3177.00,0.1411
3176.00,0.1409
3175.00,0.1407
3174.00,0.1405
3173.00,0.1403
3172.00,0.1401
3171.00,0.1399
3170.00,0.1396
3169.00,0.1392
3168.00,0.1390
3167.00,0.1388
3166.00,0.1386
3165.00,0.1383
3164.00,0.1379
3163.00,0.1374
3162.00,0.1370
3161.00,0.1366
3160.00,0.1362
3159.00,0.1357
3158.00,0.1353
3157.00,0.1349
3156.00,0.1345
3155.00,0.1342
3154.00,0.1337
3153.00,0.1333
3152.00,0.1330
3151.00,0.1327
3150.00,0.1326
3149.00,0.1324
3148.00,0.1324
3147.00,0.1323
3146.00,0.1323
3145.00,0.1322
3144.00,0.1322
3143.00,0.1321
3142.00,0.1321
3141.00,0.1322
3140.00,0.1323
3139.00,0.1323
3138.00,0.1323
3137.00,0.1322
3136.00,0.1323
3135.00,0.1324
3134.00,0.1325
3133.00,0.1327
3132.00,0.1328
3131.00,0.1330
3130.00,0.1332
3129.00,0.1332
3128.00,0.1333
3127.00,0.1334
3126.00,0.1334
3125.00,0.1335
3124.00,0.1336
3123.00,0.1337
3122.00,0.1338
3121.00,0.1340
3120.00,0.1342
3119.00,0.1345
3118.00,0.1348
3117.00,0.1352
3116.00,0.1356
3115.00,0.1360
3114.00,0.1363
3113.00,0.1367
3112.00,0.1372
3111.00,0.1378
3110.00,0.1384
3109.00,0.1391
3108.00,0.1399
3107.00,0.1406
3106.00,0.1414
3105.00,0.1422
3104.00,0.1430
3103.00,0.1438
3102.00,0.1445
3101.00,0.1452
3100.00,0.1460
3099.00,0.1470
3098.00,0.1481
3097.00,0.1491
3096.00,0.1500
3095.00,0.1509
3094.00,0.1518
3093.00,0.1527
3092.00,0.1536
3091.00,0.1546
3090.00,0.1556
3089.00,0.1568
3088.00,0.1579
3087.00,0.1590
3086.00,0.1601
3085.00,0.1612
3084.00,0.1624
3083.00,0.1638
3082.00,0.1652
3081.00,0.1668
3080.00,0.1684
3079.00,0.1699
3078.00,0.1715
3077.00,0.1730
3076.00,0.1747
3075.00,0.1764
3074.00,0.1780
3073.00,0.1798
3072.00,0.1815
3071.00,0.1834
3070.00,0.1852
3069.00,0.1870
3068.00,0.1890
3067.00,0.1909
3066.00,0.1928
3065.00,0.1946
3064.00,0.1965
3063.00,0.1984
3062.00,0.2004
3061.00,0.2026
3060.00,0.2050
3059.00,0.2074
3058.00,0.2099
3057.00,0.2122
3056.00,0.2147
3055.00,0.2172
3054.00,0.2200
3053.00,0.2229
3052.00,0.2258
3051.00,0.2289
3050.00,0.2320
3049.00,0.2354
3048.00,0.2390
3047.00,0.2428
3046.00,0.2466
3045.00,0.2506
3044.00,0.2547
3043.00,0.2589
3042.00,0.2633
3041.00,0.2679
3040.00,0.2726
3039.00,0.2775
3038.00,0.2824
3037.00,0.2877
3036.00,0.2933
3035.00,0.2993
3034.00,0.3054
3033.00,0.3118
3032.00,0.3186
3031.00,0.3257
3030.00,0.3331
3029.00,0.3409
3028.00,0.3492
3027.00,0.3581
3026.00,0.3675
3025.00,0.3774
3024.00,0.3879
3023.00,0.3991
3022.00,0.4112
3021.00,0.4243
3020.00,0.4383
3019.00,0.4531
3018.00,0.4688
3017.00,0.4857
3016.00,0.5040
3015.00,0.5237
3014.00,0.5449
3013.00,0.5677
3012.00,0.5924
3011.00,0.6191
3010.00,0.6479
3009.00,0.6789
3008.00,0.7124
3007.00,0.7485
3006.00,0.7872
3005.00,0.8291
3004.00,0.8746
3003.00,0.9238
3002.00,0.9768
3001.00,1.0337
3000.00,1.0948
2999.00,1.1599
2998.00,1.2289
2997.00,1.3020
2996.00,1.3801
2995.00,1.4633
2994.00,1.5510
2993.00,1.6424
2992.00,1.7373
2991.00,1.8354
2990.00,1.9365
2989.00,2.0424
2988.00,2.1546
2987.00,2.2726
2986.00,2.3944
2985.00,2.5222
2984.00,2.6647
2983.00,2.8238
2982.00,2.9922
2981.00,3.1547
2980.00,3.2783
2979.00,3.3378
2978.00,3.3782
2977.00,3.4774
2976.00,3.7131
2975.00,4.3394
2974.00,4.4262
2973.00,3.8731
2972.00,3.6265
2971.00,3.6301
2970.00,3.6959
2969.00,3.6066
2968.00,3.5174
2967.00,3.4727
2966.00,3.5091
2965.00,3.5847
2964.00,3.5831
2963.00,3.4284
2962.00,3.3308
2961.00,3.4169
2960.00,3.6133
2959.00,3.4882
2958.00,3.2906
2957.00,3.2802
2956.00,3.5865
2955.00,4.0245
2954.00,3.9827
2953.00,3.7978
2952.00,3.9233
2951.00,4.1304
2950.00,3.9023
2949.00,3.6333
2948.00,3.4826
2947.00,3.4441
2946.00,3.5101
2945.00,3.6624
2944.00,3.6969
2943.00,3.5074
2942.00,3.3403
2941.00,3.3294
2940.00,3.5429
2939.00,4.1245
2938.00,4.2770
2937.00,3.8533
2936.00,3.7652
2935.00,3.8408
2934.00,3.6013
2933.00,3.3304
2932.00,3.2125
2931.00,3.2154
2930.00,3.2705
2929.00,3.3797
2928.00,3.5378
2927.00,3.7941
2926.00,4.3809
2925.00,4.3137
2924.00,3.9195
2923.00,3.8723
2922.00,4.0900
2921.00,3.8260
2920.00,3.5423
2919.00,3.5453
2918.00,3.9062
2917.00,4.5169
2916.00,4.0063
2915.00,3.5569
2914.00,3.4060
2913.00,3.4403
2912.00,3.5365
2911.00,3.4665
2910.00,3.3243
2909.00,3.2367
2908.00,3.2200
2907.00,3.2331
2906.00,3.2735
2905.00,3.3719
2904.00,3.5328
2903.00,3.8262
2902.00,4.2574
2901.00,3.8780
2900.00,3.5727
2899.00,3.5181
2898.00,3.8657
2897.00,4.4238
2896.00,3.9798
2895.00,3.5805
2894.00,3.4704
2893.00,3.5216
2892.00,3.6187
2891.00,3.6223
2890.00,3.5132
2889.00,3.4308
2888.00,3.3937
2887.00,3.3580
2886.00,3.2967
2885.00,3.2556
2884.00,3.2605
2883.00,3.2876
2882.00,3.3195
2881.00,3.3829
2880.00,3.5196
2879.00,3.7139
2878.00,3.7501
2877.00,3.6111
2876.00,3.5340
2875.00,3.5981
2874.00,3.7613
2873.00,3.8040
2872.00,3.7019
2871.00,3.6242
2870.00,3.6271
2869.00,3.6497
2868.00,3.6691
2867.00,3.6887
2866.00,3.7444
2865.00,3.7600
2864.00,3.6091
2863.00,3.4705
2862.00,3.4394
2861.00,3.5828
2860.00,3.8437
2859.00,3.8133
2858.00,3.5643
2857.00,3.4435
2856.00,3.4738
2855.00,3.4380
2854.00,3.2205
2853.00,2.9979
2852.00,2.8284
2851.00,2.6792
2850.00,2.5258
2849.00,2.3773
2848.00,2.2438
2847.00,2.1228
2846.00,2.0057
2845.00,1.8886
2844.00,1.7737
2843.00,1.6656
2842.00,1.5673
2841.00,1.4789
2840.00,1.3987
2839.00,1.3253
2838.00,1.2582
2837.00,1.1978
2836.00,1.1443
2835.00,1.0974
2834.00,1.0560
2833.00,1.0190
2832.00,0.9847
2831.00,0.9518
2830.00,0.9196
2829.00,0.8879
2828.00,0.8568
2827.00,0.8264
2826.00,0.7969
2825.00,0.7687
2824.00,0.7420
2823.00,0.7166
2822.00,0.6929
2821.00,0.6709
2820.00,0.6508
2819.00,0.6320
2818.00,0.6145
2817.00,0.5981
2816.00,0.5829
2815.00,0.5688
2814.00,0.5553
2813.00,0.5423
2812.00,0.5295
2811.00,0.5168
2810.00,0.5043
2809.00,0.4922
2808.00,0.4803
2807.00,0.4688
2806.00,0.4573
2805.00,0.4458
2804.00,0.4345
2803.00,0.4232
2802.00,0.4120
2801.00,0.4010
2800.00,0.3904
2799.00,0.3801
2798.00,0.3703
2797.00,0.3611
2796.00,0.3525
2795.00,0.3445
2794.00,0.3371
2793.00,0.3303
2792.00,0.3242
2791.00,0.3186
2790.00,0.3133
2789.00,0.3084
2788.00,0.3037
2787.00,0.2993
2786.00,0.2951
2785.00,0.2909
2784.00,0.2867
2783.00,0.2824
2782.00,0.2779
2781.00,0.2734
2780.00,0.2691
2779.00,0.2650
2778.00,0.2611
2777.00,0.2575
2776.00,0.2542
2775.00,0.2511
2774.00,0.2483
2773.00,0.2459
2772.00,0.2439
2771.00,0.2421
2770.00,0.2405
2769.00,0.2392
2768.00,0.2381
2767.00,0.2373
2766.00,0.2367
2765.00,0.2363
2764.00,0.2361
2763.00,0.2362
2762.00,0.2367
2761.00,0.2376
2760.00,0.2387
2759.00,0.2401
2758.00,0.2419
2757.00,0.2442
2756.00,0.2471
2755.00,0.2504
2754.00,0.2541
2753.00,0.2579
2752.00,0.2618
2751.00,0.2656
2750.00,0.2690
2749.00,0.2716
2748.00,0.2733
2747.00,0.2740
2746.00,0.2736
2745.00,0.2724
2744.00,0.2708
2743.00,0.2689
2742.00,0.2670
2741.00,0.2654
2740.00,0.2643
2739.00,0.2637
2738.00,0.2634
2737.00,0.2635
2736.00,0.2636
2735.00,0.2638
2734.00,0.2637
2733.00,0.2633
2732.00,0.2626
2731.00,0.2613
2730.00,0.2596
2729.00,0.2577
2728.00,0.2557
2727.00,0.2538
2726.00,0.2521
2725.00,0.2507
2724.00,0.2497
2723.00,0.2491
2722.00,0.2487
2721.00,0.2483
2720.00,0.2479
2719.00,0.2471
2718.00,0.2458
2717.00,0.2441
2716.00,0.2422
2715.00,0.2401
2714.00,0.2379
2713.00,0.2356
2712.00,0.2331
2711.00,0.2302
2710.00,0.2271
2709.00,0.2237
2708.00,0.2202
2707.00,0.2168
2706.00,0.2136
2705.00,0.2108
2704.00,0.2087
2703.00,0.2070
2702.00,0.2058
2701.00,0.2050
2700.00,0.2044
2699.00,0.2040
2698.00,0.2036
2697.00,0.2032
2696.00,0.2029
2695.00,0.2027
2694.00,0.2025
2693.00,0.2022
2692.00,0.2018
2691.00,0.2013
2690.00,0.2006
2689.00,0.1999
2688.00,0.1994
2687.00,0.1988
2686.00,0.1983
2685.00,0.1978
2684.00,0.1973
2683.00,0.1970
2682.00,0.1967
2681.00,0.1967
2680.00,0.1967
2679.00,0.1968
2678.00,0.1968
2677.00,0.1966
2676.00,0.1965
2675.00,0.1964
2674.00,0.1962
2673.00,0.1959
2672.00,0.1955
2671.00,0.1949
2670.00,0.1941
2669.00,0.1931
2668.00,0.1919
2667.00,0.1905
2666.00,0.1891
2665.00,0.1876
2664.00,0.1861
2663.00,0.1846
2662.00,0.1830
2661.00,0.1815
2660.00,0.1801
2659.00,0.1787
2658.00,0.1772
2657.00,0.1757
2656.00,0.1743
2655.00,0.1728
2654.00,0.1714
2653.00,0.1699
2652.00,0.1684
2651.00,0.1670
2650.00,0.1657
2649.00,0.1644
2648.00,0.1632
2647.00,0.1622
2646.00,0.1613
2645.00,0.1605
2644.00,0.1599
2643.00,0.1594
2642.00,0.1589
2641.00,0.1582
2640.00,0.1574
2639.00,0.1566
2638.00,0.1558
2637.00,0.1549
2636.00,0.1540
2635.00,0.1531
2634.00,0.1520
2633.00,0.1509
2632.00,0.1496
2631.00,0.1485
2630.00,0.1473
2629.00,0.1463
2628.00,0.1453
2627.00,0.1442
2626.00,0.1431
2625.00,0.1420
2624.00,0.1410
2623.00,0.1401
2622.00,0.1393
2621.00,0.1384
2620.00,0.1376
2619.00,0.1367
2618.00,0.1359
2617.00,0.1351
2616.00,0.1344
2615.00,0.1338
2614.00,0.1330
2613.00,0.1323
2612.00,0.1317
2611.00,0.1310
2610.00,0.1302
2609.00,0.1294
2608.00,0.1287
2607.00,0.1280
2606.00,0.1274
2605.00,0.1269
2604.00,0.1264
2603.00,0.1259
2602.00,0.1255
2601.00,0.1250
2600.00,0.1247
2599.00,0.1244
2598.00,0.1242
2597.00,0.1239
2596.00,0.1236
2595.00,0.1233
2594.00,0.1229
2593.00,0.1225
2592.00,0.1220
2591.00,0.1214
2590.00,0.1208
2589.00,0.1203
2588.00,0.1199
2587.00,0.1195
2586.00,0.1190
2585.00,0.1185
2584.00,0.1182
2583.00,0.1179
2582.00,0.1176
2581.00,0.1173
2580.00,0.1172
2579.00,0.1171
2578.00,0.1170
2577.00,0.1169
2576.00,0.1167
2575.00,0.1165
2574.00,0.1163
2573.00,0.1161
2572.00,0.1159
2571.00,0.1158
2570.00,0.1155
2569.00,0.1153
2568.00,0.1150
2567.00,0.1148
2566.00,0.1144
2565.00,0.1140
2564.00,0.1135
2563.00,0.1128
2562.00,0.1121
2561.00,0.1115
2560.00,0.1110
2559.00,0.1105
2558.00,0.1099
2557.00,0.1092
2556.00,0.1087
2555.00,0.1081
2554.00,0.1075
2553.00,0.1069
2552.00,0.1062
2551.00,0.1056
2550.00,0.1049
2549.00,0.1043
2548.00,0.1038
2547.00,0.1032
2546.00,0.1026
2545.00,0.1020
2544.00,0.1015
2543.00,0.1011
2542.00,0.1006
2541.00,0.1003
2540.00,0.1000
2539.00,0.0998
2538.00,0.0996
2537.00,0.0994
2536.00,0.0992
2535.00,0.0989
2534.00,0.0987
2533.00,0.0985
2532.00,0.0984
2531.00,0.0982
2530.00,0.0980
2529.00,0.0977
2528.00,0.0975
2527.00,0.0973
2526.00,0.0971
2525.00,0.0968
2524.00,0.0966
2523.00,0.0964
2522.00,0.0962
2521.00,0.0960
2520.00,0.0957
2519.00,0.0955
2518.00,0.0952
2517.00,0.0950
2516.00,0.0948
2515.00,0.0947
2514.00,0.0946
2513.00,0.0944
2512.00,0.0943
2511.00,0.0943
2510.00,0.0943
2509.00,0.0943
2508.00,0.0944
2507.00,0.0946
2506.00,0.0947
2505.00,0.0949
2504.00,0.0952
2503.00,0.0954
2502.00,0.0955
2501.00,0.0957
2500.00,0.0958
2499.00,0.0960
2498.00,0.0961
2497.00,0.0964
2496.00,0.0967
2495.00,0.0969
2494.00,0.0971
2493.00,0.0973
2492.00,0.0976
2491.00,0.0978
2490.00,0.0979
2489.00,0.0980
2488.00,0.0982
2487.00,0.0984
2486.00,0.0984
2485.00,0.0984
2484.00,0.0984
2483.00,0.0984
2482.00,0.0985
2481.00,0.0985
2480.00,0.0986
2479.00,0.0987
2478.00,0.0987
2477.00,0.0987
2476.00,0.0988
2475.00,0.0989
2474.00,0.0990
2473.00,0.0991
2472.00,0.0992
2471.00,0.0993
2470.00,0.0994
2469.00,0.0996
2468.00,0.0998
2467.00,0.1000
2466.00,0.1002
2465.00,0.1003
2464.00,0.1005
2463.00,0.1008
2462.00,0.1010
2461.00,0.1012
2460.00,0.1015
2459.00,0.1016
2458.00,0.1016
2457.00,0.1016
2456.00,0.1016
2455.00,0.1016
2454.00,0.1014
2453.00,0.1011
2452.00,0.1009
2451.00,0.1009
2450.00,0.1008
2449.00,0.1009
2448.00,0.1009
2447.00,0.1010
2446.00,0.1011
2445.00,0.1012
2444.00,0.1014
2443.00,0.1017
2442.00,0.1018
2441.00,0.1019
2440.00,0.1021
2439.00,0.1022
2438.00,0.1024
2437.00,0.1025
2436.00,0.1027
2435.00,0.1029
2434.00,0.1030
2433.00,0.1032
2432.00,0.1034
2431.00,0.1037
2430.00,0.1040
2429.00,0.1043
2428.00,0.1046
2427.00,0.1049
2426.00,0.1052
2425.00,0.1056
2424.00,0.1061
2423.00,0.1067
2422.00,0.1072
2421.00,0.1076
2420.00,0.1082
2419.00,0.1087
2418.00,0.1094
2417.00,0.1101
2416.00,0.1108
2415.00,0.1114
2414.00,0.1119
2413.00,0.1124
2412.00,0.1129
2411.00,0.1133
2410.00,0.1136
2409.00,0.1138
2408.00,0.1140
2407.00,0.1142
2406.00,0.1143
2405.00,0.1144
2404.00,0.1145
2403.00,0.1147
2402.00,0.1148
2401.00,0.1150
2400.00,0.1151
2399.00,0.1151
2398.00,0.1152
2397.00,0.1153
2396.00,0.1155
2395.00,0.1157
2394.00,0.1159
2393.00,0.1162
2392.00,0.1165
2391.00,0.1169
2390.00,0.1172
2389.00,0.1174
2388.00,0.1177
2387.00,0.1180
2386.00,0.1183
2385.00,0.1187
2384.00,0.1190
2383.00,0.1193
2382.00,0.1196
2381.00,0.1199
2380.00,0.1204
2379.00,0.1209
2378.00,0.1213
2377.00,0.1217
2376.00,0.1222
2375.00,0.1227
2374.00,0.1229
2373.00,0.1231
2372.00,0.1232
2371.00,0.1232
2370.00,0.1232
2369.00,0.1233
2368.00,0.1236
2367.00,0.1239
2366.00,0.1241
2365.00,0.1243
2364.00,0.1245
2363.00,0.1248
2362.00,0.1251
2361.00,0.1253
2360.00,0.1256
2359.00,0.1258
2358.00,0.1258
2357.00,0.1259
2356.00,0.1262
2355.00,0.1265
2354.00,0.1268
2353.00,0.1270
2352.00,0.1273
2351.00,0.1273
2350.00,0.1272
2349.00,0.1272
2348.00,0.1273
2347.00,0.1276
2346.00,0.1278
2345.00,0.1279
2344.00,0.1280
2343.00,0.1281
2342.00,0.1282
2341.00,0.1284
2340.00,0.1287
2339.00,0.1290
2338.00,0.1291
2337.00,0.1291
2336.00,0.1290
2335.00,0.1288
2334.00,0.1286
2333.00,0.1287
2332.00,0.1290
2331.00,0.1292
2330.00,0.1293
2329.00,0.1294
2328.00,0.1294
2327.00,0.1293
2326.00,0.1292
2325.00,0.1292
2324.00,0.1293
2323.00,0.1293
2322.00,0.1292
2321.00,0.1291
2320.00,0.1290
2319.00,0.1289
2318.00,0.1288
2317.00,0.1287
2316.00,0.1286
2315.00,0.1285
2314.00,0.1284
2313.00,0.1283
2312.00,0.1283
2311.00,0.1283
2310.00,0.1281
2309.00,0.1279
2308.00,0.1276
2307.00,0.1273
2306.00,0.1270
2305.00,0.1267
2304.00,0.1267
2303.00,0.1267
2302.00,0.1268
2301.00,0.1270
2300.00,0.1274
2299.00,0.1280
2298.00,0.1286
2297.00,0.1294
2296.00,0.1302
2295.00,0.1308
2294.00,0.1312
2293.00,0.1313
2292.00,0.1312
2291.00,0.1308
2290.00,0.1302
2289.00,0.1295
2288.00,0.1287
2287.00,0.1280
2286.00,0.1273
2285.00,0.1266
2284.00,0.1260
2283.00,0.1253
2282.00,0.1247
2281.00,0.1242
2280.00,0.1237
2279.00,0.1233
2278.00,0.1229
2277.00,0.1225
2276.00,0.1221
2275.00,0.1217
2274.00,0.1213
2273.00,0.1208
2272.00,0.1205
2271.00,0.1202
2270.00,0.1198
2269.00,0.1194
2268.00,0.1190
2267.00,0.1186
2266.00,0.1181
2265.00,0.1177
2264.00,0.1173
2263.00,0.1168
2262.00,0.1163
2261.00,0.1158
2260.00,0.1153
2259.00,0.1147
2258.00,0.1141
2257.00,0.1135
2256.00,0.1129
2255.00,0.1123
2254.00,0.1117
2253.00,0.1111
2252.00,0.1107
2251.00,0.1103
2250.00,0.1100
2249.00,0.1096
2248.00,0.1093
2247.00,0.1090
2246.00,0.1087
2245.00,0.1086
2244.00,0.1086
2243.00,0.1086
2242.00,0.1085
2241.00,0.1083
2240.00,0.1083
2239.00,0.1083
2238.00,0.1084
2237.00,0.1085
2236.00,0.1088
2235.00,0.1089
2234.00,0.1091
2233.00,0.1094
2232.00,0.1097
2231.00,0.1101
2230.00,0.1105
2229.00,0.1108
2228.00,0.1112
2227.00,0.1116
2226.00,0.1118
2225.00,0.1121
2224.00,0.1125
2223.00,0.1128
2222.00,0.1131
2221.00,0.1135
2220.00,0.1138
2219.00,0.1141
2218.00,0.1144
2217.00,0.1146
2216.00,0.1148
2215.00,0.1149
2214.00,0.1150
2213.00,0.1152
2212.00,0.1154
2211.00,0.1156
2210.00,0.1158
2209.00,0.1159
2208.00,0.1161
2207.00,0.1163
2206.00,0.1164
2205.00,0.1166
2204.00,0.1168
2203.00,0.1170
2202.00,0.1172
2201.00,0.1174
2200.00,0.1178
2199.00,0.1181
2198.00,0.1184
2197.00,0.1186
2196.00,0.1189
2195.00,0.1191
2194.00,0.1193
2193.00,0.1196
2192.00,0.1199
2191.00,0.1202
2190.00,0.1204
2189.00,0.1206
2188.00,0.1209
2187.00,0.1211
2186.00,0.1213
2185.00,0.1216
2184.00,0.1219
2183.00,0.1223
2182.00,0.1225
2181.00,0.1227
2180.00,0.1229
2179.00,0.1231
2178.00,0.1234
2177.00,0.1237
2176.00,0.1241
2175.00,0.1245
2174.00,0.1249
2173.00,0.1253
2172.00,0.1258
2171.00,0.1263
2170.00,0.1266
2169.00,0.1270
2168.00,0.1275
2167.00,0.1280
2166.00,0.1284
2165.00,0.1287
2164.00,0.1291
2163.00,0.1294
2162.00,0.1297
2161.00,0.1299
2160.00,0.1303
2159.00,0.1306
2158.00,0.1309
2157.00,0.1313
2156.00,0.1316
2155.00,0.1319
2154.00,0.1322
2153.00,0.1324
2152.00,0.1328
2151.00,0.1331
2150.00,0.1334
2149.00,0.1337
2148.00,0.1340
2147.00,0.1343
2146.00,0.1345
2145.00,0.1347
2144.00,0.1350
2143.00,0.1353
2142.00,0.1355
2141.00,0.1358
2140.00,0.1361
2139.00,0.1363
2138.00,0.1364
2137.00,0.1366
2136.00,0.1368
2135.00,0.1370
2134.00,0.1372
2133.00,0.1374
2132.00,0.1377
2131.00,0.1380
2130.00,0.1383
2129.00,0.1387
2128.00,0.1391
2127.00,0.1395
2126.00,0.1399
2125.00,0.1404
2124.00,0.1410
2123.00,0.1415
2122.00,0.1421
2121.00,0.1427
2120.00,0.1436
2119.00,0.1446
2118.00,0.1455
2117.00,0.1464
2116.00,0.1474
2115.00,0.1485
2114.00,0.1495
2113.00,0.1505
2112.00,0.1515
2111.00,0.1525
2110.00,0.1534
2109.00,0.1542
2108.00,0.1550
2107.00,0.1557
2106.00,0.1562
2105.00,0.1567
2104.00,0.1571
2103.00,0.1574
2102.00,0.1576
2101.00,0.1579
2100.00,0.1581
2099.00,0.1584
2098.00,0.1585
2097.00,0.1587
2096.00,0.1588
2095.00,0.1588
2094.00,0.1587
2093.00,0.1584
2092.00,0.1582
2091.00,0.1579
2090.00,0.1575
2089.00,0.1572
2088.00,0.1570
2087.00,0.1568
2086.00,0.1565
2085.00,0.1561
2084.00,0.1557
2083.00,0.1554
2082.00,0.1551
2081.00,0.1549
2080.00,0.1546
2079.00,0.1542
2078.00,0.1537
2077.00,0.1533
2076.00,0.1531
2075.00,0.1530
2074.00,0.1527
2073.00,0.1525
2072.00,0.1525
2071.00,0.1524
2070.00,0.1524
2069.00,0.1524
2068.00,0.1525
2067.00,0.1526
2066.00,0.1525
2065.00,0.1525
2064.00,0.1527
2063.00,0.1532
2062.00,0.1537
2061.00,0.1542
2060.00,0.1548
2059.00,0.1554
2058.00,0.1559
2057.00,0.1565
2056.00,0.1572
2055.00,0.1578
2054.00,0.1584
2053.00,0.1590
2052.00,0.1596
2051.00,0.1603
2050.00,0.1608
2049.00,0.1614
2048.00,0.1620
2047.00,0.1627
2046.00,0.1632
2045.00,0.1638
2044.00,0.1644
2043.00,0.1649
2042.00,0.1652
2041.00,0.1656
2040.00,0.1661
2039.00,0.1667
2038.00,0.1673
2037.00,0.1679
2036.00,0.1684
2035.00,0.1687
2034.00,0.1689
2033.00,0.1690
2032.00,0.1692
2031.00,0.1693
2030.00,0.1693
2029.00,0.1692
2028.00,0.1691
2027.00,0.1687
2026.00,0.1683
2025.00,0.1678
2024.00,0.1675
2023.00,0.1670
2022.00,0.1665
2021.00,0.1659
2020.00,0.1652
2019.00,0.1643
2018.00,0.1633
2017.00,0.1623
2016.00,0.1617
2015.00,0.1614
2014.00,0.1611
2013.00,0.1609
2012.00,0.1605
2011.00,0.1600
2010.00,0.1594
2009.00,0.1588
2008.00,0.1583
2007.00,0.1578
2006.00,0.1572
2005.00,0.1567
2004.00,0.1563
2003.00,0.1560
2002.00,0.1557
2001.00,0.1553
2000.00,0.1550
1999.00,0.1546
1998.00,0.1542
1997.00,0.1537
1996.00,0.1534
1995.00,0.1530
1994.00,0.1521
1993.00,0.1510
1992.00,0.1499
1991.00,0.1490
1990.00,0.1485
1989.00,0.1483
1988.00,0.1482
1987.00,0.1480
1986.00,0.1477
1985.00,0.1475
1984.00,0.1474
1983.00,0.1471
1982.00,0.1466
1981.00,0.1461
1980.00,0.1458
1979.00,0.1455
1978.00,0.1451
1977.00,0.1448
1976.00,0.1446
1975.00,0.1444
1974.00,0.1441
1973.00,0.1437
1972.00,0.1434
1971.00,0.1431
1970.00,0.1426
1969.00,0.1421
1968.00,0.1413
1967.00,0.1405
1966.00,0.1399
1965.00,0.1399
1964.00,0.1403
1963.00,0.1406
1962.00,0.1405
1961.00,0.1402
1960.00,0.1399
1959.00,0.1396
1958.00,0.1391
1957.00,0.1386
1956.00,0.1382
1955.00,0.1379
1954.00,0.1376
1953.00,0.1373
1952.00,0.1372
1951.00,0.1370
1950.00,0.1366
1949.00,0.1362
1948.00,0.1358
1947.00,0.1353
1946.00,0.1346
1945.00,0.1337
1944.00,0.1328
1943.00,0.1312
1942.00,0.1307
1941.00,0.1320
1940.00,0.1297
1939.00,0.1305
1938.00,0.1303
1937.00,0.1301
1936.00,0.1297
1935.00,0.1292
1934.00,0.1286
1933.00,0.1281
1932.00,0.1276
1931.00,0.1273
1930.00,0.1269
1929.00,0.1267
1928.00,0.1265
1927.00,0.1261
1926.00,0.1256
1925.00,0.1250
1924.00,0.1242
1923.00,0.1233
1922.00,0.1224
1921.00,0.1221
1920.00,0.1224
1919.00,0.1227
1918.00,0.1226
1917.00,0.1225
1916.00,0.1228
1915.00,0.1234
1914.00,0.1239
1913.00,0.1241
1912.00,0.1241
1911.00,0.1237
1910.00,0.1231
1909.00,0.1228
1908.00,0.1228
1907.00,0.1232
1906.00,0.1236
1905.00,0.1242
1904.00,0.1247
1903.00,0.1251
1902.00,0.1252
1901.00,0.1254
1900.00,0.1258
1899.00,0.1262
1898.00,0.1265
1897.00,0.1269
1896.00,0.1273
1895.00,0.1276
1894.00,0.1280
1893.00,0.1287
1892.00,0.1295
1891.00,0.1300
1890.00,0.1301
1889.00,0.1304
1888.00,0.1312
1887.00,0.1325
1886.00,0.1338
1885.00,0.1350
1884.00,0.1360
1883.00,0.1370
1882.00,0.1378
1881.00,0.1386
1880.00,0.1396
1879.00,0.1404
1878.00,0.1413
1877.00,0.1424
1876.00,0.1436
1875.00,0.1448
1874.00,0.1458
1873.00,0.1466
1872.00,0.1473
1871.00,0.1477
1870.00,0.1479
1869.00,0.1483
1868.00,0.1494
1867.00,0.1510
1866.00,0.1531
1865.00,0.1556
1864.00,0.1580
1863.00,0.1600
1862.00,0.1615
1861.00,0.1630
1860.00,0.1646
1859.00,0.1665
1858.00,0.1684
1857.00,0.1705
1856.00,0.1729
1855.00,0.1751
1854.00,0.1772
1853.00,0.1793
1852.00,0.1816
1851.00,0.1837
1850.00,0.1856
1849.00,0.1872
1848.00,0.1889
1847.00,0.1906
1846.00,0.1926
1845.00,0.1953
1844.00,0.1986
1843.00,0.2019
1842.00,0.2051
1841.00,0.2088
1840.00,0.2130
1839.00,0.2170
1838.00,0.2206
1837.00,0.2241
1836.00,0.2280
1835.00,0.2323
1834.00,0.2365
1833.00,0.2406
1832.00,0.2450
1831.00,0.2495
1830.00,0.2542
1829.00,0.2592
1828.00,0.2644
1827.00,0.2693
1826.00,0.2740
1825.00,0.2791
1824.00,0.2850
1823.00,0.2914
1822.00,0.2981
1821.00,0.3051
1820.00,0.3122
1819.00,0.3187
1818.00,0.3249
1817.00,0.3314
1816.00,0.3388
1815.00,0.3464
1814.00,0.3538
1813.00,0.3612
1812.00,0.3689
1811.00,0.3770
1810.00,0.3855
1809.00,0.3946
1808.00,0.4041
1807.00,0.4136
1806.00,0.4233
1805.00,0.4334
1804.00,0.4436
1803.00,0.4533
1802.00,0.4633
1801.00,0.4750
1800.00,0.4887
1799.00,0.5034
1798.00,0.5181
1797.00,0.5325
1796.00,0.5471
1795.00,0.5621
1794.00,0.5782
1793.00,0.5966
1792.00,0.6170
1791.00,0.6380
1790.00,0.6592
1789.00,0.6817
1788.00,0.7055
1787.00,0.7302
1786.00,0.7562
1785.00,0.7847
1784.00,0.8156
1783.00,0.8480
1782.00,0.8826
1781.00,0.9207
1780.00,0.9625
1779.00,1.0068
1778.00,1.0538
1777.00,1.1048
1776.00,1.1595
1775.00,1.2178
1774.00,1.2843
1773.00,1.3671
1772.00,1.4667
1771.00,1.5722
1770.00,1.6781
1769.00,1.7945
1768.00,1.9335
1767.00,2.0961
1766.00,2.2784
1765.00,2.4765
1764.00,2.6740
1763.00,2.8532
1762.00,3.0424
1761.00,3.2552
1760.00,3.3747
1759.00,3.3970
1758.00,3.4643
1757.00,3.5765
1756.00,3.5805
1755.00,3.5805
1754.00,3.7366
1753.00,3.5979
1752.00,3.3877
1751.00,3.3472
1750.00,3.4407
1749.00,3.8199
1748.00,4.0475
1747.00,3.8183
1746.00,3.8097
1745.00,3.7540
1744.00,3.9568
1743.00,4.4189
1742.00,4.2510
1741.00,4.3824
1740.00,3.9289
1739.00,3.6053
1738.00,3.7856
1737.00,7.7546
1736.00,4.4579
1735.00,3.7657
1734.00,3.4544
1733.00,3.3134
1732.00,3.4105
1731.00,3.4570
1730.00,3.5652
1729.00,4.3146
1728.00,3.9170
1727.00,3.5035
1726.00,3.4895
1725.00,3.5065
1724.00,3.4030
1723.00,3.1655
1722.00,3.0383
1721.00,2.9185
1720.00,2.6916
1719.00,2.4876
1718.00,2.3226
1717.00,2.1504
1716.00,1.9825
1715.00,1.8538
1714.00,1.7612
1713.00,1.6819
1712.00,1.6058
1711.00,1.5375
1710.00,1.4801
1709.00,1.4300
1708.00,1.3845
1707.00,1.3448
1706.00,1.3097
1705.00,1.2748
1704.00,1.2406
1703.00,1.2104
1702.00,1.1806
1701.00,1.1385
1700.00,1.0841
1699.00,1.0358
1698.00,0.9988
1697.00,0.9601
1696.00,0.9113
1695.00,0.8607
1694.00,0.8193
1693.00,0.7855
1692.00,0.7530
1691.00,0.7193
1690.00,0.6852
1689.00,0.6529
1688.00,0.6248
1687.00,0.6017
1686.00,0.5811
1685.00,0.5576
1684.00,0.5302
1683.00,0.5064
1682.00,0.4897
1681.00,0.4764
1680.00,0.4639
1679.00,0.4524
1678.00,0.4427
1677.00,0.4338
1676.00,0.4235
1675.00,0.4123
1674.00,0.4020
1673.00,0.3934
1672.00,0.3857
1671.00,0.3781
1670.00,0.3702
1669.00,0.3617
1668.00,0.3534
1667.00,0.3465
1666.00,0.3412
1665.00,0.3364
1664.00,0.3312
1663.00,0.3254
1662.00,0.3194
1661.00,0.3136
1660.00,0.3082
1659.00,0.3035
1658.00,0.2994
1657.00,0.2955
1656.00,0.2914
1655.00,0.2875
1654.00,0.2836
1653.00,0.2794
1652.00,0.2753
1651.00,0.2717
1650.00,0.2691
1649.00,0.2674
1648.00,0.2653
1647.00,0.2624
1646.00,0.2596
1645.00,0.2576
1644.00,0.2558
1643.00,0.2543
1642.00,0.2532
1641.00,0.2521
1640.00,0.2509
1639.00,0.2498
1638.00,0.2490
1637.00,0.2486
1636.00,0.2481
1635.00,0.2476
1634.00,0.2467
1633.00,0.2454
1632.00,0.2439
1631.00,0.2428
1630.00,0.2420
1629.00,0.2412
1628.00,0.2402
1627.00,0.2391
1626.00,0.2380
1625.00,0.2371
1624.00,0.2362
1623.00,0.2349
1622.00,0.2332
1621.00,0.2314
1620.00,0.2299
1619.00,0.2290
1618.00,0.2285
1617.00,0.2278
1616.00,0.2262
1615.00,0.2238
1614.00,0.2213
1613.00,0.2193
1612.00,0.2174
1611.00,0.2154
1610.00,0.2133
1609.00,0.2112
1608.00,0.2091
1607.00,0.2072
1606.00,0.2057
1605.00,0.2044
1604.00,0.2030
1603.00,0.2016
1602.00,0.2004
1601.00,0.1995
1600.00,0.1987
1599.00,0.1979
1598.00,0.1971
1597.00,0.1962
1596.00,0.1954
1595.00,0.1947
1594.00,0.1942
1593.00,0.1941
1592.00,0.1939
1591.00,0.1936
1590.00,0.1933
1589.00,0.1932
1588.00,0.1932
1587.00,0.1933
1586.00,0.1935
1585.00,0.1938
1584.00,0.1939
1583.00,0.1940
1582.00,0.1942
1581.00,0.1944
1580.00,0.1944
1579.00,0.1941
1578.00,0.1937
1577.00,0.1935
1576.00,0.1932
1575.00,0.1927
1574.00,0.1920
1573.00,0.1917
1572.00,0.1920
1571.00,0.1925
1570.00,0.1929
1569.00,0.1931
1568.00,0.1930
1567.00,0.1928
1566.00,0.1930
1565.00,0.1937
1564.00,0.1943
1563.00,0.1944
1562.00,0.1942
1561.00,0.1940
1560.00,0.1941
1559.00,0.1939
1558.00,0.1940
1557.00,0.1943
1556.00,0.1941
1555.00,0.1936
1554.00,0.1937
1553.00,0.1941
1552.00,0.1948
1551.00,0.1944
1550.00,0.1948
1549.00,0.1947
1548.00,0.2005
1547.00,0.2056
1546.00,0.2060
1545.00,0.2084
1544.00,0.2101
1543.00,0.2122
1542.00,0.2142
1541.00,0.2165
1540.00,0.2186
1539.00,0.2201
1538.00,0.2215
1537.00,0.2225
1536.00,0.2226
1535.00,0.2229
1534.00,0.2231
1533.00,0.2235
1532.00,0.2245
1531.00,0.2261
1530.00,0.2282
1529.00,0.2304
1528.00,0.2321
1527.00,0.2332
1526.00,0.2348
1525.00,0.2376
1524.00,0.2413
1523.00,0.2448
1522.00,0.2478
1521.00,0.2506
1520.00,0.2536
1519.00,0.2572
1518.00,0.2614
1517.00,0.2659
1516.00,0.2703
1515.00,0.2749
1514.00,0.2802
1513.00,0.2859
1512.00,0.2912
1511.00,0.2953
1510.00,0.2985
1509.00,0.3021
1508.00,0.3079
1507.00,0.3177
1506.00,0.3325
1505.00,0.3488
1504.00,0.3618
1503.00,0.3722
1502.00,0.3828
1501.00,0.3951
1500.00,0.4094
1499.00,0.4254
1498.00,0.4438
1497.00,0.4668
1496.00,0.4944
1495.00,0.5248
1494.00,0.5571
1493.00,0.5932
1492.00,0.6364
1491.00,0.6912
1490.00,0.7618
1489.00,0.8494
1488.00,0.9513
1487.00,1.0665
1486.00,1.1981
1485.00,1.3476
1484.00,1.5135
1483.00,1.6986
1482.00,1.9194
1481.00,2.1919
1480.00,2.4906
1479.00,2.7631
1478.00,3.0689
1477.00,3.7574
1476.00,7.7610
1475.00,3.8603
1474.00,3.8735
1473.00,3.7526
1472.00,3.6467
1471.00,3.6251
1470.00,3.4973
1469.00,3.6917
1468.00,3.5463
1467.00,3.2627
1466.00,3.2676
1465.00,3.4748
1464.00,3.5001
1463.00,3.2981
1462.00,3.2392
1461.00,3.3342
1460.00,3.3195
1459.00,3.1153
1458.00,3.0082
1457.00,3.0054
1456.00,2.8989
1455.00,2.7274
1454.00,2.6264
1453.00,2.5414
1452.00,2.4162
1451.00,2.2797
1450.00,2.1677
1449.00,2.0724
1448.00,1.9746
1447.00,1.8818
1446.00,1.8084
1445.00,1.7516
1444.00,1.7019
1443.00,1.6583
1442.00,1.6250
1441.00,1.6015
1440.00,1.5822
1439.00,1.5642
1438.00,1.5469
1437.00,1.5280
1436.00,1.5059
1435.00,1.4857
1434.00,1.4714
1433.00,1.4607
1432.00,1.4500
1431.00,1.4406
1430.00,1.4368
1429.00,1.4410
1428.00,1.4526
1427.00,1.4729
1426.00,1.5054
1425.00,1.5531
1424.00,1.6136
1423.00,1.6799
1422.00,1.7455
1421.00,1.8067
1420.00,1.8567
1419.00,1.8859
1418.00,1.8893
1417.00,1.8639
1416.00,1.8087
1415.00,1.7344
1414.00,1.6553
1413.00,1.5773
1412.00,1.5015
1411.00,1.4338
1410.00,1.3812
1409.00,1.3458
1408.00,1.3251
1407.00,1.3180
1406.00,1.3257
1405.00,1.3488
1404.00,1.3869
1403.00,1.4398
1402.00,1.5095
1401.00,1.6004
1400.00,1.7178
1399.00,1.8667
1398.00,2.0526
1397.00,2.2804
1396.00,2.5359
1395.00,2.7562
1394.00,2.8980
1393.00,3.0090
1392.00,3.0889
1391.00,3.1425
1390.00,3.2689
1389.00,3.5360
1388.00,3.6195
1387.00,3.2852
1386.00,3.0802
1385.00,3.0257
1384.00,3.0211
1383.00,3.0125
1382.00,3.0251
1381.00,3.0507
1380.00,2.9953
1379.00,2.8650
1378.00,2.7533
1377.00,2.6678
1376.00,2.5658
1375.00,2.4524
1374.00,2.3748
1373.00,2.3578
1372.00,2.3927
1371.00,2.4685
1370.00,2.5980
1369.00,2.8008
1368.00,3.0551
1367.00,3.2730
1366.00,3.4794
1365.00,3.8066
1364.00,4.0160
1363.00,3.6887
1362.00,3.3967
1361.00,3.2296
1360.00,3.0321
1359.00,2.8383
1358.00,2.7170
1357.00,2.6556
1356.00,2.6030
1355.00,2.5319
1354.00,2.4606
1353.00,2.3995
1352.00,2.3370
1351.00,2.2736
1350.00,2.2256
1349.00,2.1989
1348.00,2.1841
1347.00,2.1734
1346.00,2.1683
1345.00,2.1639
1344.00,2.1458
1343.00,2.1122
1342.00,2.0791
1341.00,2.0570
1340.00,2.0429
1339.00,2.0340
1338.00,2.0347
1337.00,2.0437
1336.00,2.0503
1335.00,2.0501
1334.00,2.0523
1333.00,2.0607
1332.00,2.0657
1331.00,2.0600
1330.00,2.0522
1329.00,2.0538
1328.00,2.0651
1327.00,2.0831
1326.00,2.1112
1325.00,2.1507
1324.00,2.1909
1323.00,2.2188
1322.00,2.2341
1321.00,2.2405
1320.00,2.2339
1319.00,2.2162
1318.00,2.1994
1317.00,2.1865
1316.00,2.1667
1315.00,2.1358
1314.00,2.1066
1313.00,2.0902
1312.00,2.0852
1311.00,2.0871
1310.00,2.0961
1309.00,2.1114
1308.00,2.1262
1307.00,2.1373
1306.00,2.1512
1305.00,2.1742
1304.00,2.2051
1303.00,2.2454
1302.00,2.3030
1301.00,2.3799
1300.00,2.4591
1299.00,2.5231
1298.00,2.5799
1297.00,2.6393
1296.00,2.6809
1295.00,2.6888
1294.00,2.6817
1293.00,2.6725
1292.00,2.6520
1291.00,2.6262
1290.00,2.6255
1289.00,2.6595
1288.00,2.6958
1287.00,2.7176
1286.00,2.7675
1285.00,2.8833
1284.00,3.0528
1283.00,3.2226
1282.00,3.4006
1281.00,3.6421
1280.00,3.7682
1279.00,3.6732
1278.00,3.5473
1277.00,3.4333
1276.00,3.3615
1275.00,3.3507
1274.00,3.4309
1273.00,3.8757
1272.00,4.1423
1271.00,3.4808
1270.00,3.4109
1269.00,3.4389
1268.00,3.5219
1267.00,3.5122
1266.00,3.5747
1265.00,4.0467
1264.00,4.0784
1263.00,3.7065
1262.00,3.6480
1261.00,3.5748
1260.00,3.7397
1259.00,4.0246
1258.00,3.7273
1257.00,3.7323
1256.00,3.4984
1255.00,3.2889
1254.00,3.1921
1253.00,3.1494
1252.00,3.1511
1251.00,3.2671
1250.00,3.5120
1249.00,3.5965
1248.00,3.3887
1247.00,3.2189
1246.00,3.1190
1245.00,3.0639
1244.00,3.1236
1243.00,3.3916
1242.00,3.5252
1241.00,3.4603
1240.00,3.7204
1239.00,3.3880
1238.00,3.1598
1237.00,3.1115
1236.00,3.1396
1235.00,3.2291
1234.00,3.3555
1233.00,3.5606
1232.00,4.1805
1231.00,3.6442
1230.00,3.2075
1229.00,3.1135
1228.00,3.1030
1227.00,3.1796
1226.00,3.3999
1225.00,3.5494
1224.00,3.4359
1223.00,3.4873
1222.00,3.4027
1221.00,3.2633
1220.00,3.2473
1219.00,3.4221
1218.00,3.7247
1217.00,3.7268
1216.00,3.7445
1215.00,3.8256
1214.00,3.8220
1213.00,4.1388
1212.00,4.0784
1211.00,4.2759
1210.00,3.6220
1209.00,3.7170
1208.00,4.0191
1207.00,3.7193
1206.00,3.3783
1205.00,3.1805
1204.00,3.1694
1203.00,3.2633
1202.00,3.2450
1201.00,3.2240
1200.00,3.2897
1199.00,3.3685
1198.00,3.3497
1197.00,3.2319
1196.00,3.1083
1195.00,3.0506
1194.00,3.0467
1193.00,3.0777
1192.00,3.1715
1191.00,3.3045
1190.00,3.4104
1189.00,3.6620
1188.00,3.9487
1187.00,4.0051
1186.00,3.7879
1185.00,3.3968
1184.00,3.2116
1183.00,3.2134
1182.00,3.2968
1181.00,3.2699
1180.00,3.2112
1179.00,3.3063
1178.00,3.5814
1177.00,3.7440
1176.00,3.5678
1175.00,3.5601
1174.00,3.6621
1173.00,3.6713
1172.00,3.6152
1171.00,3.5971
1170.00,3.4857
1169.00,3.2670
1168.00,3.1453
1167.00,3.1302
1166.00,3.1183
1165.00,3.0967
1164.00,3.1337
1163.00,3.3930
1162.00,7.7676
1161.00,3.3133
1160.00,3.2962
1159.00,3.2665
1158.00,3.3406
1157.00,3.4229
1156.00,3.4656
1155.00,3.4145
1154.00,3.3681
1153.00,3.4174
1152.00,3.5106
1151.00,3.6081
1150.00,3.6107
1149.00,3.3973
1148.00,3.3018
1147.00,3.3648
1146.00,3.4742
1145.00,3.5186
1144.00,3.5411
1143.00,3.4234
1142.00,3.2842
1141.00,3.1706
1140.00,3.1661
1139.00,3.3837
1138.00,4.2006
1137.00,3.5343
1136.00,3.4464
1135.00,3.6261
1134.00,3.6872
1133.00,3.8571
1132.00,3.6793
1131.00,3.4952
1130.00,3.5365
1129.00,3.6145
1128.00,3.6187
1127.00,3.5931
1126.00,3.6112
1125.00,3.6580
1124.00,3.5293
1123.00,3.3350
1122.00,3.2278
1121.00,3.1931
1120.00,3.2476
1119.00,3.4963
1118.00,3.8212
1117.00,3.6726
1116.00,3.5733
1115.00,3.3616
1114.00,3.2855
1113.00,3.3486
1112.00,3.4248
1111.00,3.3928
1110.00,3.2419
1109.00,3.1113
1108.00,3.1191
1107.00,3.2886
1106.00,3.4319
1105.00,3.3950
1104.00,3.3698
1103.00,3.3400
1102.00,3.2269
1101.00,3.1453
1100.00,3.1899
1099.00,3.3586
1098.00,3.7937
1097.00,3.5812
1096.00,3.1187
1095.00,3.0699
1094.00,3.1395
1093.00,3.2467
1092.00,3.4046
1091.00,3.5006
1090.00,3.4504
1089.00,3.3110
1088.00,3.1437
1087.00,2.9913
1086.00,2.9009
1085.00,2.8588
1084.00,2.8437
1083.00,2.8597
1082.00,2.9047
1081.00,2.9542
1080.00,2.9755
1079.00,2.9539
1078.00,2.8817
1077.00,2.8089
1076.00,2.6932
1075.00,2.5358
1074.00,2.3982
1073.00,2.2702
1072.00,2.1313
1071.00,1.9892
1070.00,1.8629
1069.00,1.7606
1068.00,1.6821
1067.00,1.6246
1066.00,1.5836
1065.00,1.5526
1064.00,1.5260
1063.00,1.5027
1062.00,1.4844
1061.00,1.4713
1060.00,1.4615
1059.00,1.4541
1058.00,1.4485
1057.00,1.4423
1056.00,1.4319
1055.00,1.4158
1054.00,1.3936
1053.00,1.3643
1052.00,1.3278
1051.00,1.2893
1050.00,1.2565
1049.00,1.2343
1048.00,1.2232
1047.00,1.2237
1046.00,1.2374
1045.00,1.2658
1044.00,1.3087
1043.00,1.3653
1042.00,1.4348
1041.00,1.5160
1040.00,1.6067
1039.00,1.7051
1038.00,1.8125
1037.00,1.9290
1036.00,2.0479
1035.00,2.1630
1034.00,2.2807
1033.00,2.4130
1032.00,2.5617
1031.00,2.7166
1030.00,2.8823
1029.00,3.0548
1028.00,3.1450
1027.00,3.0794
1026.00,2.9911
1025.00,2.9147
1024.00,2.8462
1023.00,2.8625
1022.00,2.9827
1021.00,3.1271
1020.00,3.1316
1019.00,3.0432
1018.00,2.9708
1017.00,2.8883
1016.00,2.8013
1015.00,2.7566
1014.00,2.7630
1013.00,2.8182
1012.00,2.8835
1011.00,2.8947
1010.00,2.8417
1009.00,2.7610
1008.00,2.6876
1007.00,2.6346
1006.00,2.5974
1005.00,2.5491
1004.00,2.4681
1003.00,2.3669
1002.00,2.2690
1001.00,2.1831
1000.00,2.1077
999.00,2.0425
998.00,1.9850
997.00,1.9263
996.00,1.8580
995.00,1.7833
994.00,1.7121
993.00,1.6493
992.00,1.5942
991.00,1.5447
990.00,1.4991
989.00,1.4542
988.00,1.4065
987.00,1.3555
986.00,1.3036
985.00,1.2524
984.00,1.2024
983.00,1.1542
982.00,1.1090
981.00,1.0682
980.00,1.0326
979.00,1.0027
978.00,0.9792
977.00,0.9615
976.00,0.9484
975.00,0.9389
974.00,0.9323
973.00,0.9274
972.00,0.9227
971.00,0.9168
970.00,0.9085
969.00,0.8963
968.00,0.8790
967.00,0.8567
966.00,0.8308
965.00,0.8030
964.00,0.7747
963.00,0.7475
962.00,0.7233
961.00,0.7035
960.00,0.6892
959.00,0.6805
958.00,0.6772
957.00,0.6788
956.00,0.6850
955.00,0.6957
954.00,0.7104
953.00,0.7277
952.00,0.7459
951.00,0.7639
950.00,0.7814
949.00,0.7986
948.00,0.8156
947.00,0.8323
946.00,0.8485
945.00,0.8637
944.00,0.8777
943.00,0.8912
942.00,0.9044
941.00,0.9169
940.00,0.9276
939.00,0.9361
938.00,0.9424
937.00,0.9463
936.00,0.9475
935.00,0.9470
934.00,0.9463
933.00,0.9465
932.00,0.9474
931.00,0.9486
930.00,0.9492
929.00,0.9481
928.00,0.9444
927.00,0.9384
926.00,0.9307
925.00,0.9215
924.00,0.9105
923.00,0.8974
922.00,0.8826
921.00,0.8671
920.00,0.8519
919.00,0.8383
918.00,0.8270
917.00,0.8176
916.00,0.8096
915.00,0.8026
914.00,0.7968
913.00,0.7917
912.00,0.7871
911.00,0.7827
910.00,0.7790
909.00,0.7757
908.00,0.7723
907.00,0.7687
906.00,0.7649
905.00,0.7608
904.00,0.7562
903.00,0.7517
902.00,0.7480
901.00,0.7453
900.00,0.7432
899.00,0.7420
898.00,0.7422
897.00,0.7442
896.00,0.7484
895.00,0.7547
894.00,0.7625
893.00,0.7707
892.00,0.7778
891.00,0.7832
890.00,0.7865
889.00,0.7872
888.00,0.7841
887.00,0.7768
886.00,0.7655
885.00,0.7511
884.00,0.7345
883.00,0.7169
882.00,0.6998
881.00,0.6841
880.00,0.6703
879.00,0.6586
878.00,0.6494
877.00,0.6421
876.00,0.6366
875.00,0.6328
874.00,0.6311
873.00,0.6310
872.00,0.6321
871.00,0.6341
870.00,0.6372
869.00,0.6406
868.00,0.6426
867.00,0.6418
866.00,0.6367
865.00,0.6270
864.00,0.6126
863.00,0.5948
862.00,0.5752
861.00,0.5554
860.00,0.5361
859.00,0.5180
858.00,0.5014
857.00,0.4864
856.00,0.4727
855.00,0.4607
854.00,0.4505
853.00,0.4416
852.00,0.4339
851.00,0.4270
850.00,0.4208
849.00,0.4153
848.00,0.4106
847.00,0.4068
846.00,0.4039
845.00,0.4010
844.00,0.3975
843.00,0.3935
842.00,0.3891
841.00,0.3844
840.00,0.3792
839.00,0.3736
838.00,0.3679
837.00,0.3623
836.00,0.3569
835.00,0.3520
834.00,0.3478
833.00,0.3436
832.00,0.3383
831.00,0.3310
830.00,0.3220
829.00,0.3121
828.00,0.3022
827.00,0.2931
826.00,0.2852
825.00,0.2785
824.00,0.2728
823.00,0.2681
822.00,0.2643
821.00,0.2606
820.00,0.2566
819.00,0.2518
818.00,0.2464
817.00,0.2408
816.00,0.2351
815.00,0.2299
814.00,0.2254
813.00,0.2213
812.00,0.2175
811.00,0.2141
810.00,0.2116
809.00,0.2100
808.00,0.2094
807.00,0.2100
806.00,0.2115
805.00,0.2139
804.00,0.2167
803.00,0.2198
802.00,0.2227
801.00,0.2245
800.00,0.2248
799.00,0.2233
798.00,0.2206
797.00,0.2173
796.00,0.2139
795.00,0.2110
794.00,0.2086
793.00,0.2063
792.00,0.2039
791.00,0.2008
790.00,0.1972
789.00,0.1930
788.00,0.1887
787.00,0.1848
786.00,0.1817
785.00,0.1794
784.00,0.1777
783.00,0.1770
782.00,0.1775
781.00,0.1792
780.00,0.1822
779.00,0.1863
778.00,0.1912
777.00,0.1967
776.00,0.2027
775.00,0.2093
774.00,0.2167
773.00,0.2248
772.00,0.2333
771.00,0.2426
770.00,0.2529
769.00,0.2641
768.00,0.2764
767.00,0.2900
766.00,0.3048
765.00,0.3207
764.00,0.3372
763.00,0.3542
762.00,0.3714
761.00,0.3884
760.00,0.4044
759.00,0.4187
758.00,0.4307
757.00,0.4400
756.00,0.4465
755.00,0.4498
754.00,0.4495
753.00,0.4451
752.00,0.4373
751.00,0.4273
750.00,0.4169
749.00,0.4067
748.00,0.3974
747.00,0.3892
746.00,0.3822
745.00,0.3759
744.00,0.3704
743.00,0.3668
742.00,0.3667
741.00,0.3709
740.00,0.3800
739.00,0.3939
738.00,0.4119
737.00,0.4325
736.00,0.4539
735.00,0.4745
734.00,0.4934
733.00,0.5095
732.00,0.5217
731.00,0.5293
730.00,0.5320
729.00,0.5294
728.00,0.5213
727.00,0.5079
726.00,0.4897
725.00,0.4672
724.00,0.4417
723.00,0.4153
722.00,0.3903
721.00,0.3678
720.00,0.3484
719.00,0.3322
718.00,0.3191
717.00,0.3082
716.00,0.2989
715.00,0.2911
714.00,0.2847
713.00,0.2790
712.00,0.2738
711.00,0.2691
710.00,0.2651
709.00,0.2615
708.00,0.2576
707.00,0.2532
706.00,0.2486
705.00,0.2436
704.00,0.2384
703.00,0.2332
702.00,0.2282
701.00,0.2231
700.00,0.2179
699.00,0.2131
698.00,0.2086
697.00,0.2040
696.00,0.1989
695.00,0.1935
694.00,0.1881
693.00,0.1829
692.00,0.1777
691.00,0.1729
690.00,0.1686
689.00,0.1647
688.00,0.1611
687.00,0.1581
686.00,0.1557
685.00,0.1537
684.00,0.1519
683.00,0.1502
682.00,0.1486
681.00,0.1471
680.00,0.1457
679.00,0.1447
678.00,0.1441
677.00,0.1439
676.00,0.1438
675.00,0.1439
674.00,0.1442
673.00,0.1450
672.00,0.1461
671.00,0.1476
670.00,0.1497
669.00,0.1527
668.00,0.1563
667.00,0.1591
666.00,0.1611
665.00,0.1634
664.00,0.1665
663.00,0.1703
662.00,0.1745
661.00,0.1793
660.00,0.1848
659.00,0.1911
658.00,0.1980
657.00,0.2053
656.00,0.2129
655.00,0.2206
654.00,0.2280
653.00,0.2352
652.00,0.2426
651.00,0.2505
650.00,0.2587
649.00,0.2668
648.00,0.2741
647.00,0.2802
646.00,0.2852
645.00,0.2896
644.00,0.2940
643.00,0.2978
642.00,0.3005
641.00,0.3019
640.00,0.3024
639.00,0.3024
638.00,0.3020
637.00,0.3015
636.00,0.3009
635.00,0.3001
634.00,0.2993
633.00,0.2989
632.00,0.2989
631.00,0.2991
630.00,0.2992
629.00,0.2994
628.00,0.3001
627.00,0.3015
626.00,0.3041
625.00,0.3080
624.00,0.3128
623.00,0.3174
622.00,0.3210
621.00,0.3238
620.00,0.3266
619.00,0.3298
618.00,0.3330
617.00,0.3357
616.00,0.3377
615.00,0.3390
614.00,0.3397
613.00,0.3396
612.00,0.3382
611.00,0.3356
610.00,0.3324
609.00,0.3291
608.00,0.3258
607.00,0.3220
606.00,0.3178
605.00,0.3136
604.00,0.3102
603.00,0.3075
602.00,0.3051
601.00,0.3025
600.00,0.2997
599.00,0.2975
598.00,0.2963
597.00,0.2963
596.00,0.2971
595.00,0.2982
594.00,0.2992
593.00,0.3001
592.00,0.3014
591.00,0.3032
590.00,0.3053
589.00,0.3071
588.00,0.3080
587.00,0.3081
586.00,0.3080
585.00,0.3082
584.00,0.3085
583.00,0.3080
582.00,0.3064
581.00,0.3037
580.00,0.3005
579.00,0.2969
578.00,0.2926
577.00,0.2872
576.00,0.2809
575.00,0.2740
574.00,0.2671
573.00,0.2603
572.00,0.2538
571.00,0.2475
570.00,0.2413
569.00,0.2350
568.00,0.2286
567.00,0.2229
566.00,0.2182
565.00,0.2144
564.00,0.2106
563.00,0.2063
562.00,0.2014
561.00,0.1963
560.00,0.1910
559.00,0.1863
558.00,0.1828
557.00,0.1805
556.00,0.1790
555.00,0.1781
554.00,0.1776
553.00,0.1774
552.00,0.1768
551.00,0.1756
550.00,0.1745
