Created as New Dataset,
cm-1,A
4000.00,0.2975
3999.00,0.2972
3998.00,0.2969
3997.00,0.2967
3996.00,0.2964
3995.00,0.2962
3994.00,0.2959
3993.00,0.2955
3992.00,0.2951
3991.00,0.2947
3990.00,0.2943
3989.00,0.2939
3988.00,0.2936
3987.00,0.2932
3986.00,0.2929
3985.00,0.2926
3984.00,0.2922
3983.00,0.2918
3982.00,0.2914
3981.00,0.2910
3980.00,0.2906
3979.00,0.2903
3978.00,0.2900
3977.00,0.2896
3976.00,0.2892
3975.00,0.2889
3974.00,0.2886
3973.00,0.2882
3972.00,0.2880
3971.00,0.2877
3970.00,0.2873
3969.00,0.2870
3968.00,0.2867
3967.00,0.2865
3966.00,0.2862
3965.00,0.2860
3964.00,0.2857
3963.00,0.2855
3962.00,0.2853
3961.00,0.2851
3960.00,0.2850
3959.00,0.2849
3958.00,0.2848
3957.00,0.2846
3956.00,0.2845
3955.00,0.2844
3954.00,0.2842
3953.00,0.2841
3952.00,0.2840
3951.00,0.2838
3950.00,0.2837
3949.00,0.2836
3948.00,0.2835
3947.00,0.2834
3946.00,0.2833
3945.00,0.2832
3944.00,0.2831
3943.00,0.2829
3942.00,0.2828
3941.00,0.2827
3940.00,0.2828
3939.00,0.2827
3938.00,0.2827
3937.00,0.2826
3936.00,0.2826
3935.00,0.2826
3934.00,0.2825
3933.00,0.2824
3932.00,0.2824
3931.00,0.2823
3930.00,0.2823
3929.00,0.2822
3928.00,0.2822
3927.00,0.2822
3926.00,0.2822
3925.00,0.2822
3924.00,0.2822
3923.00,0.2822
3922.00,0.2822
3921.00,0.2822
3920.00,0.2822
3919.00,0.2822
3918.00,0.2822
3917.00,0.2822
3916.00,0.2822
3915.00,0.2821
3914.00,0.2821
3913.00,0.2821
3912.00,0.2820
3911.00,0.2818
3910.00,0.2817
3909.00,0.2816
3908.00,0.2815
3907.00,0.2814
3906.00,0.2813
3905.00,0.2812
3904.00,0.2811
3903.00,0.2811
3902.00,0.2811
3901.00,0.2811
3900.00,0.2809
3899.00,0.2807
3898.00,0.2806
3897.00,0.2805
3896.00,0.2805
3895.00,0.2803
3894.00,0.2802
3893.00,0.2802
3892.00,0.2802
3891.00,0.2800
3890.00,0.2798
3889.00,0.2798
3888.00,0.2799
3887.00,0.2798
3886.00,0.2795
3885.00,0.2792
3884.00,0.2792
3883.00,0.2793
3882.00,0.2794
3881.00,0.2791
3880.00,0.2789
3879.00,0.2788
3878.00,0.2790
3877.00,0.2791
3876.00,0.2789
3875.00,0.2786
3874.00,0.2782
3873.00,0.2782
3872.00,0.2783
3871.00,0.2782
3870.00,0.2778
3869.00,0.2773
3868.00,0.2771
3867.00,0.2772
3866.00,0.2770
3865.00,0.2765
3864.00,0.2762
3863.00,0.2762
3862.00,0.2763
3861.00,0.2763
3860.00,0.2761
3859.00,0.2759
3858.00,0.2757
3857.00,0.2757
3856.00,0.2760
3855.00,0.2763
3854.00,0.2762
3853.00,0.2755
3852.00,0.2751
3851.00,0.2755
3850.00,0.2758
3849.00,0.2755
3848.00,0.2751
3847.00,0.2750
3846.00,0.2752
3845.00,0.2753
3844.00,0.2754
3843.00,0.2754
3842.00,0.2753
3841.00,0.2752
3840.00,0.2751
3839.00,0.2750
3838.00,0.2747
3837.00,0.2745
3836.00,0.2744
3835.00,0.2743
3834.00,0.2742
3833.00,0.2741
3832.00,0.2739
3831.00,0.2738
3830.00,0.2739
3829.00,0.2739
3828.00,0.2739
3827.00,0.2737
3826.00,0.2734
3825.00,0.2734
3824.00,0.2735
3823.00,0.2735
3822.00,0.2734
3821.00,0.2729
3820.00,0.2725
3819.00,0.2726
3818.00,0.2727
3817.00,0.2724
3816.00,0.2720
3815.00,0.2717
3814.00,0.2720
3813.00,0.2722
3812.00,0.2721
3811.00,0.2717
3810.00,0.2714
3809.00,0.2715
3808.00,0.2714
3807.00,0.2710
3806.00,0.2704
3805.00,0.2703
3804.00,0.2703
3803.00,0.2702
3802.00,0.2697
3801.00,0.2692
3800.00,0.2690
3799.00,0.2691
3798.00,0.2691
3797.00,0.2687
3796.00,0.2684
3795.00,0.2684
3794.00,0.2685
3793.00,0.2685
3792.00,0.2682
3791.00,0.2679
3790.00,0.2677
3789.00,0.2676
3788.00,0.2675
3787.00,0.2673
3786.00,0.2672
3785.00,0.2670
3784.00,0.2668
3783.00,0.2666
3782.00,0.2666
3781.00,0.2665
3780.00,0.2663
3779.00,0.2660
3778.00,0.2658
3777.00,0.2657
3776.00,0.2656
3775.00,0.2654
3774.00,0.2652
3773.00,0.2651
3772.00,0.2650
3771.00,0.2648
3770.00,0.2646
3769.00,0.2643
3768.00,0.2642
3767.00,0.2642
3766.00,0.2639
3765.00,0.2636
3764.00,0.2633
3763.00,0.2633
3762.00,0.2632
3761.00,0.2629
3760.00,0.2626
3759.00,0.2624
3758.00,0.2623
3757.00,0.2621
3756.00,0.2618
3755.00,0.2616
3754.00,0.2615
3753.00,0.2614
3752.00,0.2612
3751.00,0.2610
3750.00,0.2605
3749.00,0.2600
3748.00,0.2599
3747.00,0.2599
3746.00,0.2600
3745.00,0.2600
3744.00,0.2597
3743.00,0.2596
3742.00,0.2600
3741.00,0.2602
3740.00,0.2598
3739.00,0.2594
3738.00,0.2595
3737.00,0.2598
3736.00,0.2598
3735.00,0.2596
3734.00,0.2596
3733.00,0.2596
3732.00,0.2595
3731.00,0.2593
3730.00,0.2592
3729.00,0.2592
3728.00,0.2591
3727.00,0.2589
3726.00,0.2588
3725.00,0.2587
3724.00,0.2587
3723.00,0.2586
3722.00,0.2585
3721.00,0.2584
3720.00,0.2583
3719.00,0.2582
3718.00,0.2581
3717.00,0.2578
3716.00,0.2577
3715.00,0.2576
3714.00,0.2576
3713.00,0.2576
3712.00,0.2575
3711.00,0.2574
3710.00,0.2574
3709.00,0.2575
3708.00,0.2576
3707.00,0.2576
3706.00,0.2576
3705.00,0.2577
3704.00,0.2578
3703.00,0.2579
3702.00,0.2580
3701.00,0.2579
3700.00,0.2579
3699.00,0.2580
3698.00,0.2579
3697.00,0.2578
3696.00,0.2577
3695.00,0.2577
3694.00,0.2577
3693.00,0.2576
3692.00,0.2575
3691.00,0.2575
3690.00,0.2575
3689.00,0.2574
3688.00,0.2572
3687.00,0.2571
3686.00,0.2572
3685.00,0.2572
3684.00,0.2571
3683.00,0.2570
3682.00,0.2570
3681.00,0.2571
3680.00,0.2570
3679.00,0.2570
3678.00,0.2571
3677.00,0.2572
3676.00,0.2571
3675.00,0.2565
3674.00,0.2563
3673.00,0.2565
3672.00,0.2567
3671.00,0.2566
3670.00,0.2565
3669.00,0.2566
3668.00,0.2570
3667.00,0.2574
3666.00,0.2575
3665.00,0.2575
3664.00,0.2575
3663.00,0.2578
3662.00,0.2580
3661.00,0.2582
3660.00,0.2583
3659.00,0.2585
3658.00,0.2588
3657.00,0.2589
3656.00,0.2589
3655.00,0.2590
3654.00,0.2591
3653.00,0.2593
3652.00,0.2594
3651.00,0.2595
3650.00,0.2597
3649.00,0.2599
3648.00,0.2601
3647.00,0.2603
3646.00,0.2606
3645.00,0.2609
3644.00,0.2612
3643.00,0.2615
3642.00,0.2619
3641.00,0.2624
3640.00,0.2629
3639.00,0.2635
3638.00,0.2640
3637.00,0.2645
3636.00,0.2651
3635.00,0.2657
3634.00,0.2662
3633.00,0.2668
3632.00,0.2677
3631.00,0.2691
3630.00,0.2708
3629.00,0.2726
3628.00,0.2745
3627.00,0.2765
3626.00,0.2782
3625.00,0.2790
3624.00,0.2789
3623.00,0.2785
3622.00,0.2777
3621.00,0.2765
3620.00,0.2748
3619.00,0.2728
3618.00,0.2710
3617.00,0.2696
3616.00,0.2685
3615.00,0.2676
3614.00,0.2669
3613.00,0.2664
3612.00,0.2662
3611.00,0.2661
3610.00,0.2660
3609.00,0.2659
3608.00,0.2658
3607.00,0.2659
3606.00,0.2660
3605.00,0.2660
3604.00,0.2659
3603.00,0.2657
3602.00,0.2654
3601.00,0.2648
3600.00,0.2642
3599.00,0.2634
3598.00,0.2625
3597.00,0.2616
3596.00,0.2607
3595.00,0.2598
3594.00,0.2590
3593.00,0.2583
3592.00,0.2577
3591.00,0.2571
3590.00,0.2566
3589.00,0.2560
3588.00,0.2555
3587.00,0.2549
3586.00,0.2545
3585.00,0.2542
3584.00,0.2539
3583.00,0.2535
3582.00,0.2531
3581.00,0.2527
3580.00,0.2524
3579.00,0.2521
3578.00,0.2519
3577.00,0.2516
3576.00,0.2514
3575.00,0.2513
3574.00,0.2512
3573.00,0.2511
3572.00,0.2510
3571.00,0.2509
3570.00,0.2508
3569.00,0.2508
3568.00,0.2508
3567.00,0.2508
3566.00,0.2508
3565.00,0.2509
3564.00,0.2511
3563.00,0.2513
3562.00,0.2514
3561.00,0.2516
3560.00,0.2518
3559.00,0.2520
3558.00,0.2522
3557.00,0.2524
3556.00,0.2525
3555.00,0.2527
3554.00,0.2529
3553.00,0.2531
3552.00,0.2534
3551.00,0.2537
3550.00,0.2539
3549.00,0.2542
3548.00,0.2544
3547.00,0.2546
3546.00,0.2549
3545.00,0.2551
3544.00,0.2554
3543.00,0.2556
3542.00,0.2559
3541.00,0.2562
3540.00,0.2565
3539.00,0.2568
3538.00,0.2571
3537.00,0.2574
3536.00,0.2576
3535.00,0.2579
3534.00,0.2581
3533.00,0.2584
3532.00,0.2586
3531.00,0.2590
3530.00,0.2593
3529.00,0.2596
3528.00,0.2600
3527.00,0.2604
3526.00,0.2607
3525.00,0.2610
3524.00,0.2613
3523.00,0.2616
3522.00,0.2619
3521.00,0.2623
3520.00,0.2628
3519.00,0.2632
3518.00,0.2637
3517.00,0.2641
3516.00,0.2645
3515.00,0.2649
3514.00,0.2654
3513.00,0.2658
3512.00,0.2663
3511.00,0.2668
3510.00,0.2673
3509.00,0.2678
3508.00,0.2683
3507.00,0.2689
3506.00,0.2695
3505.00,0.2701
3504.00,0.2707
3503.00,0.2712
3502.00,0.2718
3501.00,0.2724
3500.00,0.2731
3499.00,0.2738
3498.00,0.2746
3497.00,0.2754
3496.00,0.2762
3495.00,0.2770
3494.00,0.2779
3493.00,0.2787
3492.00,0.2796
3491.00,0.2805
3490.00,0.2815
3489.00,0.2824
3488.00,0.2833
3487.00,0.2841
3486.00,0.2850
3485.00,0.2858
3484.00,0.2865
3483.00,0.2872
3482.00,0.2879
3481.00,0.2886
3480.00,0.2892
3479.00,0.2898
3478.00,0.2903
3477.00,0.2908
3476.00,0.2914
3475.00,0.2920
3474.00,0.2927
3473.00,0.2933
3472.00,0.2939
3471.00,0.2946
3470.00,0.2952
3469.00,0.2960
3468.00,0.2967
3467.00,0.2974
3466.00,0.2981
3465.00,0.2989
3464.00,0.2996
3463.00,0.3004
3462.00,0.3013
3461.00,0.3022
3460.00,0.3032
3459.00,0.3041
3458.00,0.3050
3457.00,0.3059
3456.00,0.3068
3455.00,0.3078
3454.00,0.3088
3453.00,0.3099
3452.00,0.3110
3451.00,0.3122
3450.00,0.3134
3449.00,0.3146
3448.00,0.3159
3447.00,0.3172
3446.00,0.3185
3445.00,0.3200
3444.00,0.3215
3443.00,0.3231
3442.00,0.3247
3441.00,0.3263
3440.00,0.3279
3439.00,0.3294
3438.00,0.3308
3437.00,0.3322
3436.00,0.3335
3435.00,0.3347
3434.00,0.3358
3433.00,0.3368
3432.00,0.3377
3431.00,0.3386
3430.00,0.3394
3429.00,0.3402
3428.00,0.3411
3427.00,0.3419
3426.00,0.3428
3425.00,0.3436
3424.00,0.3444
3423.00,0.3452
3422.00,0.3460
3421.00,0.3468
3420.00,0.3476
3419.00,0.3485
3418.00,0.3494
3417.00,0.3503
3416.00,0.3513
3415.00,0.3522
3414.00,0.3533
3413.00,0.3543
3412.00,0.3553
3411.00,0.3563
3410.00,0.3572
3409.00,0.3582
3408.00,0.3591
3407.00,0.3600
3406.00,0.3609
3405.00,0.3619
3404.00,0.3629
3403.00,0.3639
3402.00,0.3648
3401.00,0.3657
3400.00,0.3665
3399.00,0.3673
3398.00,0.3681
3397.00,0.3688
3396.00,0.3696
3395.00,0.3704
3394.00,0.3711
3393.00,0.3718
3392.00,0.3725
3391.00,0.3731
3390.00,0.3737
3389.00,0.3744
3388.00,0.3750
3387.00,0.3756
3386.00,0.3763
3385.00,0.3769
3384.00,0.3774
3383.00,0.3779
3382.00,0.3784
3381.00,0.3789
3380.00,0.3795
3379.00,0.3800
3378.00,0.3806
3377.00,0.3812
3376.00,0.3818
3375.00,0.3823
3374.00,0.3829
3373.00,0.3835
3372.00,0.3841
3371.00,0.3847
3370.00,0.3854
3369.00,0.3860
3368.00,0.3867
3367.00,0.3874
3366.00,0.3880
3365.00,0.3887
3364.00,0.3894
3363.00,0.3901
3362.00,0.3908
3361.00,0.3915
3360.00,0.3922
3359.00,0.3929
3358.00,0.3936
3357.00,0.3944
3356.00,0.3951
3355.00,0.3958
3354.00,0.3965
3353.00,0.3972
3352.00,0.3978
3351.00,0.3984
3350.00,0.3990
3349.00,0.3996
3348.00,0.4002
3347.00,0.4008
3346.00,0.4014
3345.00,0.4019
3344.00,0.4024
3343.00,0.4028
3342.00,0.4032
3341.00,0.4036
3340.00,0.4039
3339.00,0.4043
3338.00,0.4045
3337.00,0.4048
3336.00,0.4049
3335.00,0.4051
3334.00,0.4052
3333.00,0.4052
3332.00,0.4053
3331.00,0.4052
3330.00,0.4051
3329.00,0.4050
3328.00,0.4048
3327.00,0.4046
3326.00,0.4044
3325.00,0.4041
3324.00,0.4039
3323.00,0.4036
3322.00,0.4033
3321.00,0.4029
3320.00,0.4026
3319.00,0.4023
3318.00,0.4020
3317.00,0.4016
3316.00,0.4013
3315.00,0.4010
3314.00,0.4006
3313.00,0.4002
3312.00,0.3999
3311.00,0.3995
3310.00,0.3992
3309.00,0.3988
3308.00,0.3984
3307.00,0.3980
3306.00,0.3976
3305.00,0.3973
3304.00,0.3969
3303.00,0.3966
3302.00,0.3964
3301.00,0.3961
3300.00,0.3959
3299.00,0.3956
3298.00,0.3954
3297.00,0.3953
3296.00,0.3952
3295.00,0.3951
3294.00,0.3950
3293.00,0.3949
3292.00,0.3948
3291.00,0.3948
3290.00,0.3947
3289.00,0.3948
3288.00,0.3948
3287.00,0.3949
3286.00,0.3951
3285.00,0.3952
3284.00,0.3954
3283.00,0.3956
3282.00,0.3957
3281.00,0.3959
3280.00,0.3961
3279.00,0.3963
3278.00,0.3965
3277.00,0.3967
3276.00,0.3969
3275.00,0.3971
3274.00,0.3974
3273.00,0.3977
3272.00,0.3980
3271.00,0.3983
3270.00,0.3985
3269.00,0.3987
3268.00,0.3989
3267.00,0.3990
3266.00,0.3992
3265.00,0.3994
3264.00,0.3996
3263.00,0.3999
3262.00,0.4001
3261.00,0.4002
3260.00,0.4003
3259.00,0.4004
3258.00,0.4005
3257.00,0.4007
3256.00,0.4009
3255.00,0.4010
3254.00,0.4011
3253.00,0.4011
3252.00,0.4012
3251.00,0.4011
3250.00,0.4010
3249.00,0.4009
3248.00,0.4009
3247.00,0.4008
3246.00,0.4007
3245.00,0.4005
3244.00,0.4002
3243.00,0.4000
3242.00,0.3998
3241.00,0.3996
3240.00,0.3994
3239.00,0.3991
3238.00,0.3988
3237.00,0.3985
3236.00,0.3981
3235.00,0.3976
3234.00,0.3972
3233.00,0.3968
3232.00,0.3965
3231.00,0.3961
3230.00,0.3958
3229.00,0.3954
3228.00,0.3950
3227.00,0.3946
3226.00,0.3941
3225.00,0.3937
3224.00,0.3932
3223.00,0.3928
3222.00,0.3923
3221.00,0.3919
3220.00,0.3914
3219.00,0.3910
3218.00,0.3906
3217.00,0.3902
3216.00,0.3898
3215.00,0.3895
3214.00,0.3891
3213.00,0.3887
3212.00,0.3883
3211.00,0.3879
3210.00,0.3876
3209.00,0.3873
3208.00,0.3870
3207.00,0.3867
3206.00,0.3863
3205.00,0.3860
3204.00,0.3857
3203.00,0.3854
3202.00,0.3851
3201.00,0.3848
3200.00,0.3844
3199.00,0.3841
3198.00,0.3837
3197.00,0.3834
3196.00,0.3831
3195.00,0.3827
3194.00,0.3823
3193.00,0.3819
3192.00,0.3814
3191.00,0.3810
3190.00,0.3805
3189.00,0.3801
3188.00,0.3797
3187.00,0.3793
3186.00,0.3789
3185.00,0.3784
3184.00,0.3779
3183.00,0.3774
3182.00,0.3769
3181.00,0.3763
3180.00,0.3757
3179.00,0.3751
3178.00,0.3744
3177.00,0.3738
3176.00,0.3732
3175.00,0.3726
3174.00,0.3720
3173.00,0.3714
3172.00,0.3707
3171.00,0.3700
3170.00,0.3693
3169.00,0.3686
3168.00,0.3679
3167.00,0.3673
3166.00,0.3666
3165.00,0.3659
3164.00,0.3653
3163.00,0.3646
3162.00,0.3639
3161.00,0.3632
3160.00,0.3626
3159.00,0.3619
3158.00,0.3613
3157.00,0.3606
3156.00,0.3599
3155.00,0.3592
3154.00,0.3586
3153.00,0.3580
3152.00,0.3574
3151.00,0.3568
3150.00,0.3563
3149.00,0.3557
3148.00,0.3552
3147.00,0.3547
3146.00,0.3542
3145.00,0.3538
3144.00,0.3533
3143.00,0.3529
3142.00,0.3525
3141.00,0.3521
3140.00,0.3518
3139.00,0.3514
3138.00,0.3511
3137.00,0.3509
3136.00,0.3506
3135.00,0.3504
3134.00,0.3501
3133.00,0.3499
3132.00,0.3498
3131.00,0.3497
3130.00,0.3496
3129.00,0.3495
3128.00,0.3495
3127.00,0.3495
3126.00,0.3496
3125.00,0.3497
3124.00,0.3499
3123.00,0.3501
3122.00,0.3503
3121.00,0.3506
3120.00,0.3509
3119.00,0.3512
3118.00,0.3516
3117.00,0.3521
3116.00,0.3526
3115.00,0.3531
3114.00,0.3537
3113.00,0.3544
3112.00,0.3552
3111.00,0.3560
3110.00,0.3570
3109.00,0.3579
3108.00,0.3590
3107.00,0.3601
3106.00,0.3612
3105.00,0.3624
3104.00,0.3636
3103.00,0.3646
3102.00,0.3657
3101.00,0.3667
3100.00,0.3677
3099.00,0.3688
3098.00,0.3700
3097.00,0.3712
3096.00,0.3725
3095.00,0.3739
3094.00,0.3755
3093.00,0.3773
3092.00,0.3793
3091.00,0.3815
3090.00,0.3840
3089.00,0.3867
3088.00,0.3896
3087.00,0.3927
3086.00,0.3958
3085.00,0.3990
3084.00,0.4021
3083.00,0.4051
3082.00,0.4079
3081.00,0.4104
3080.00,0.4128
3079.00,0.4152
3078.00,0.4177
3077.00,0.4204
3076.00,0.4233
3075.00,0.4265
3074.00,0.4299
3073.00,0.4335
3072.00,0.4373
3071.00,0.4413
3070.00,0.4454
3069.00,0.4497
3068.00,0.4542
3067.00,0.4589
3066.00,0.4637
3065.00,0.4686
3064.00,0.4735
3063.00,0.4781
3062.00,0.4825
3061.00,0.4865
3060.00,0.4901
3059.00,0.4932
3058.00,0.4959
3057.00,0.4983
3056.00,0.5004
3055.00,0.5025
3054.00,0.5046
3053.00,0.5068
3052.00,0.5091
3051.00,0.5115
3050.00,0.5140
3049.00,0.5167
3048.00,0.5195
3047.00,0.5226
3046.00,0.5259
3045.00,0.5295
3044.00,0.5332
3043.00,0.5372
3042.00,0.5414
3041.00,0.5458
3040.00,0.5505
3039.00,0.5555
3038.00,0.5609
3037.00,0.5667
3036.00,0.5731
3035.00,0.5801
3034.00,0.5876
3033.00,0.5958
3032.00,0.6045
3031.00,0.6137
3030.00,0.6231
3029.00,0.6324
3028.00,0.6414
3027.00,0.6499
3026.00,0.6578
3025.00,0.6650
3024.00,0.6715
3023.00,0.6776
3022.00,0.6834
3021.00,0.6893
3020.00,0.6954
3019.00,0.7021
3018.00,0.7095
3017.00,0.7176
3016.00,0.7264
3015.00,0.7358
3014.00,0.7456
3013.00,0.7559
3012.00,0.7668
3011.00,0.7782
3010.00,0.7904
3009.00,0.8034
3008.00,0.8170
3007.00,0.8312
3006.00,0.8462
3005.00,0.8620
3004.00,0.8786
3003.00,0.8959
3002.00,0.9140
3001.00,0.9331
3000.00,0.9532
2999.00,0.9747
2998.00,0.9977
2997.00,1.0226
2996.00,1.0496
2995.00,1.0792
2994.00,1.1118
2993.00,1.1477
2992.00,1.1871
2991.00,1.2302
2990.00,1.2779
2989.00,1.3307
2988.00,1.3893
2987.00,1.4541
2986.00,1.5259
2985.00,1.6054
2984.00,1.6937
2983.00,1.7918
2982.00,1.8999
2981.00,2.0177
2980.00,2.1450
2979.00,2.2830
2978.00,2.4349
2977.00,2.6025
2976.00,2.7858
2975.00,2.9855
2974.00,3.2030
2973.00,3.4288
2972.00,3.6371
2971.00,3.8226
2970.00,3.9682
2969.00,3.9837
2968.00,3.8635
2967.00,3.7541
2966.00,3.7084
2965.00,3.7073
2964.00,3.7390
2963.00,3.8203
2962.00,3.9402
2961.00,4.0260
2960.00,4.0964
2959.00,4.2450
2958.00,4.4946
2957.00,4.4386
2956.00,4.1809
2955.00,4.0715
2954.00,4.1009
2953.00,4.1349
2952.00,4.0985
2951.00,4.0424
2950.00,4.0462
2949.00,4.1118
2948.00,4.3104
2947.00,4.6235
2946.00,4.2546
2945.00,4.0459
2944.00,4.0133
2943.00,4.2287
2942.00,4.4257
2941.00,4.4235
2940.00,4.4863
2939.00,4.6156
2938.00,4.5908
2937.00,4.4238
2936.00,4.2095
2935.00,4.0350
2934.00,3.8769
2933.00,3.8103
2932.00,3.8685
2931.00,4.0226
2930.00,4.1435
2929.00,4.0971
2928.00,4.0186
2927.00,3.9675
2926.00,3.9847
2925.00,4.0946
2924.00,4.1853
2923.00,4.1463
2922.00,4.0471
2921.00,3.9937
2920.00,4.0213
2919.00,4.1354
2918.00,4.4011
2917.00,4.7007
2916.00,4.7991
2915.00,4.6339
2914.00,4.3513
2913.00,4.1613
2912.00,4.1667
2911.00,4.4022
2910.00,4.3628
2909.00,4.1051
2908.00,3.9314
2907.00,3.9108
2906.00,3.9496
2905.00,4.0025
2904.00,4.0985
2903.00,4.2626
2902.00,4.3468
2901.00,4.1706
2900.00,4.0785
2899.00,4.1361
2898.00,4.1925
2897.00,4.0850
2896.00,3.9793
2895.00,3.9920
2894.00,4.1033
2893.00,4.3050
2892.00,4.3639
2891.00,4.2770
2890.00,4.1907
2889.00,4.2893
2888.00,4.6123
2887.00,4.6484
2886.00,4.3295
2885.00,4.0368
2884.00,3.9100
2883.00,3.8771
2882.00,3.8795
2881.00,3.9578
2880.00,4.1245
2879.00,4.4273
2878.00,4.7309
2877.00,4.4273
2876.00,4.1874
2875.00,4.1724
2874.00,4.3909
2873.00,4.6390
2872.00,4.4910
2871.00,4.3163
2870.00,4.3044
2869.00,4.4660
2868.00,4.6294
2867.00,4.7997
2866.00,4.6063
2865.00,4.1917
2864.00,4.0431
2863.00,4.1126
2862.00,4.4219
2861.00,4.6722
2860.00,4.6496
2859.00,4.5481
2858.00,4.2746
2857.00,3.9673
2856.00,3.7488
2855.00,3.6436
2854.00,3.6290
2853.00,3.6680
2852.00,3.7242
2851.00,3.7923
2850.00,3.8714
2849.00,4.0053
2848.00,4.0851
2847.00,3.9035
2846.00,3.7251
2845.00,3.6793
2844.00,3.7991
2843.00,4.0585
2842.00,4.3939
2841.00,4.2778
2840.00,3.8650
2839.00,3.5603
2838.00,3.3099
2837.00,3.0701
2836.00,2.8428
2835.00,2.6383
2834.00,2.4566
2833.00,2.2944
2832.00,2.1493
2831.00,2.0198
2830.00,1.9043
2829.00,1.8009
2828.00,1.7087
2827.00,1.6266
2826.00,1.5536
2825.00,1.4882
2824.00,1.4293
2823.00,1.3758
2822.00,1.3268
2821.00,1.2815
2820.00,1.2395
2819.00,1.2005
2818.00,1.1642
2817.00,1.1302
2816.00,1.0983
2815.00,1.0683
2814.00,1.0403
2813.00,1.0141
2812.00,0.9892
2811.00,0.9655
2810.00,0.9427
2809.00,0.9208
2808.00,0.9000
2807.00,0.8800
2806.00,0.8611
2805.00,0.8429
2804.00,0.8255
2803.00,0.8089
2802.00,0.7931
2801.00,0.7779
2800.00,0.7633
2799.00,0.7494
2798.00,0.7361
2797.00,0.7234
2796.00,0.7113
2795.00,0.6995
2794.00,0.6881
2793.00,0.6770
2792.00,0.6662
2791.00,0.6558
2790.00,0.6456
2789.00,0.6356
2788.00,0.6259
2787.00,0.6163
2786.00,0.6069
2785.00,0.5978
2784.00,0.5889
2783.00,0.5804
2782.00,0.5721
2781.00,0.5641
2780.00,0.5565
2779.00,0.5492
2778.00,0.5423
2777.00,0.5358
2776.00,0.5296
2775.00,0.5237
2774.00,0.5182
2773.00,0.5130
2772.00,0.5082
2771.00,0.5037
2770.00,0.4996
2769.00,0.4959
2768.00,0.4925
2767.00,0.4894
2766.00,0.4866
2765.00,0.4842
2764.00,0.4821
2763.00,0.4802
2762.00,0.4785
2761.00,0.4770
2760.00,0.4755
2759.00,0.4742
2758.00,0.4729
2757.00,0.4718
2756.00,0.4708
2755.00,0.4700
2754.00,0.4693
2753.00,0.4688
2752.00,0.4684
2751.00,0.4682
2750.00,0.4682
2749.00,0.4683
2748.00,0.4687
2747.00,0.4693
2746.00,0.4702
2745.00,0.4713
2744.00,0.4726
2743.00,0.4741
2742.00,0.4759
2741.00,0.4779
2740.00,0.4802
2739.00,0.4828
2738.00,0.4859
2737.00,0.4894
2736.00,0.4934
2735.00,0.4976
2734.00,0.5020
2733.00,0.5062
2732.00,0.5101
2731.00,0.5134
2730.00,0.5159
2729.00,0.5175
2728.00,0.5182
2727.00,0.5180
2726.00,0.5170
2725.00,0.5156
2724.00,0.5137
2723.00,0.5116
2722.00,0.5092
2721.00,0.5065
2720.00,0.5036
2719.00,0.5004
2718.00,0.4970
2717.00,0.4934
2716.00,0.4895
2715.00,0.4854
2714.00,0.4812
2713.00,0.4773
2712.00,0.4735
2711.00,0.4701
2710.00,0.4671
2709.00,0.4644
2708.00,0.4620
2707.00,0.4599
2706.00,0.4581
2705.00,0.4566
2704.00,0.4555
2703.00,0.4547
2702.00,0.4542
2701.00,0.4539
2700.00,0.4538
2699.00,0.4540
2698.00,0.4545
2697.00,0.4551
2696.00,0.4561
2695.00,0.4571
2694.00,0.4583
2693.00,0.4595
2692.00,0.4608
2691.00,0.4621
2690.00,0.4633
2689.00,0.4645
2688.00,0.4656
2687.00,0.4666
2686.00,0.4675
2685.00,0.4681
2684.00,0.4686
2683.00,0.4690
2682.00,0.4692
2681.00,0.4693
2680.00,0.4694
2679.00,0.4694
2678.00,0.4693
2677.00,0.4693
2676.00,0.4692
2675.00,0.4691
2674.00,0.4689
2673.00,0.4686
2672.00,0.4681
2671.00,0.4674
2670.00,0.4665
2669.00,0.4654
2668.00,0.4642
2667.00,0.4626
2666.00,0.4609
2665.00,0.4591
2664.00,0.4573
2663.00,0.4554
2662.00,0.4535
2661.00,0.4515
2660.00,0.4495
2659.00,0.4475
2658.00,0.4456
2657.00,0.4438
2656.00,0.4420
2655.00,0.4403
2654.00,0.4386
2653.00,0.4371
2652.00,0.4355
2651.00,0.4340
2650.00,0.4325
2649.00,0.4310
2648.00,0.4295
2647.00,0.4282
2646.00,0.4269
2645.00,0.4257
2644.00,0.4246
2643.00,0.4235
2642.00,0.4224
2641.00,0.4214
2640.00,0.4204
2639.00,0.4194
2638.00,0.4185
2637.00,0.4177
2636.00,0.4169
2635.00,0.4160
2634.00,0.4152
2633.00,0.4144
2632.00,0.4135
2631.00,0.4125
2630.00,0.4116
2629.00,0.4106
2628.00,0.4097
2627.00,0.4088
2626.00,0.4078
2625.00,0.4068
2624.00,0.4058
2623.00,0.4048
2622.00,0.4038
2621.00,0.4027
2620.00,0.4017
2619.00,0.4007
2618.00,0.3997
2617.00,0.3987
2616.00,0.3977
2615.00,0.3966
2614.00,0.3955
2613.00,0.3944
2612.00,0.3932
2611.00,0.3921
2610.00,0.3910
2609.00,0.3899
2608.00,0.3889
2607.00,0.3878
2606.00,0.3868
2605.00,0.3857
2604.00,0.3845
2603.00,0.3834
2602.00,0.3823
2601.00,0.3812
2600.00,0.3800
2599.00,0.3788
2598.00,0.3774
2597.00,0.3760
2596.00,0.3745
2595.00,0.3730
2594.00,0.3715
2593.00,0.3700
2592.00,0.3684
2591.00,0.3668
2590.00,0.3652
2589.00,0.3636
2588.00,0.3619
2587.00,0.3603
2586.00,0.3587
2585.00,0.3570
2584.00,0.3553
2583.00,0.3535
2582.00,0.3518
2581.00,0.3500
2580.00,0.3483
2579.00,0.3465
2578.00,0.3446
2577.00,0.3429
2576.00,0.3412
2575.00,0.3395
2574.00,0.3379
2573.00,0.3363
2572.00,0.3348
2571.00,0.3333
2570.00,0.3318
2569.00,0.3303
2568.00,0.3289
2567.00,0.3275
2566.00,0.3262
2565.00,0.3249
2564.00,0.3237
2563.00,0.3224
2562.00,0.3212
2561.00,0.3200
2560.00,0.3188
2559.00,0.3177
2558.00,0.3166
2557.00,0.3155
2556.00,0.3144
2555.00,0.3134
2554.00,0.3123
2553.00,0.3112
2552.00,0.3102
2551.00,0.3093
2550.00,0.3084
2549.00,0.3075
2548.00,0.3066
2547.00,0.3058
2546.00,0.3050
2545.00,0.3041
2544.00,0.3032
2543.00,0.3024
2542.00,0.3016
2541.00,0.3009
2540.00,0.3002
2539.00,0.2996
2538.00,0.2989
2537.00,0.2984
2536.00,0.2978
2535.00,0.2972
2534.00,0.2966
2533.00,0.2961
2532.00,0.2954
2531.00,0.2948
2530.00,0.2940
2529.00,0.2932
2528.00,0.2922
2527.00,0.2913
2526.00,0.2903
2525.00,0.2893
2524.00,0.2883
2523.00,0.2873
2522.00,0.2863
2521.00,0.2853
2520.00,0.2843
2519.00,0.2833
2518.00,0.2824
2517.00,0.2815
2516.00,0.2806
2515.00,0.2797
2514.00,0.2788
2513.00,0.2779
2512.00,0.2771
2511.00,0.2763
2510.00,0.2756
2509.00,0.2749
2508.00,0.2742
2507.00,0.2736
2506.00,0.2730
2505.00,0.2725
2504.00,0.2719
2503.00,0.2714
2502.00,0.2709
2501.00,0.2704
2500.00,0.2700
2499.00,0.2696
2498.00,0.2693
2497.00,0.2689
2496.00,0.2685
2495.00,0.2682
2494.00,0.2678
2493.00,0.2674
2492.00,0.2671
2491.00,0.2667
2490.00,0.2663
2489.00,0.2659
2488.00,0.2655
2487.00,0.2651
2486.00,0.2648
2485.00,0.2644
2484.00,0.2641
2483.00,0.2637
2482.00,0.2633
2481.00,0.2629
2480.00,0.2625
2479.00,0.2621
2478.00,0.2617
2477.00,0.2613
2476.00,0.2610
2475.00,0.2607
2474.00,0.2604
2473.00,0.2601
2472.00,0.2598
2471.00,0.2594
2470.00,0.2590
2469.00,0.2587
2468.00,0.2584
2467.00,0.2581
2466.00,0.2579
2465.00,0.2577
2464.00,0.2575
2463.00,0.2573
2462.00,0.2571
2461.00,0.2570
2460.00,0.2568
2459.00,0.2567
2458.00,0.2565
2457.00,0.2563
2456.00,0.2562
2455.00,0.2561
2454.00,0.2560
2453.00,0.2560
2452.00,0.2559
2451.00,0.2559
2450.00,0.2559
2449.00,0.2559
2448.00,0.2559
2447.00,0.2559
2446.00,0.2558
2445.00,0.2558
2444.00,0.2558
2443.00,0.2559
2442.00,0.2560
2441.00,0.2561
2440.00,0.2561
2439.00,0.2562
2438.00,0.2563
2437.00,0.2564
2436.00,0.2565
2435.00,0.2565
2434.00,0.2566
2433.00,0.2567
2432.00,0.2568
2431.00,0.2569
2430.00,0.2570
2429.00,0.2571
2428.00,0.2573
2427.00,0.2574
2426.00,0.2575
2425.00,0.2576
2424.00,0.2578
2423.00,0.2580
2422.00,0.2581
2421.00,0.2582
2420.00,0.2583
2419.00,0.2584
2418.00,0.2585
2417.00,0.2587
2416.00,0.2588
2415.00,0.2589
2414.00,0.2590
2413.00,0.2592
2412.00,0.2592
2411.00,0.2593
2410.00,0.2593
2409.00,0.2594
2408.00,0.2594
2407.00,0.2595
2406.00,0.2595
2405.00,0.2595
2404.00,0.2595
2403.00,0.2595
2402.00,0.2594
2401.00,0.2594
2400.00,0.2593
2399.00,0.2592
2398.00,0.2591
2397.00,0.2590
2396.00,0.2589
2395.00,0.2588
2394.00,0.2587
2393.00,0.2587
2392.00,0.2586
2391.00,0.2586
2390.00,0.2586
2389.00,0.2586
2388.00,0.2585
2387.00,0.2585
2386.00,0.2585
2385.00,0.2585
2384.00,0.2586
2383.00,0.2587
2382.00,0.2588
2381.00,0.2589
2380.00,0.2590
2379.00,0.2591
2378.00,0.2593
2377.00,0.2595
2376.00,0.2596
2375.00,0.2597
2374.00,0.2597
2373.00,0.2598
2372.00,0.2598
2371.00,0.2598
2370.00,0.2597
2369.00,0.2597
2368.00,0.2597
2367.00,0.2598
2366.00,0.2599
2365.00,0.2601
2364.00,0.2602
2363.00,0.2602
2362.00,0.2602
2361.00,0.2603
2360.00,0.2604
2359.00,0.2606
2358.00,0.2606
2357.00,0.2607
2356.00,0.2607
2355.00,0.2607
2354.00,0.2607
2353.00,0.2608
2352.00,0.2608
2351.00,0.2608
2350.00,0.2607
2349.00,0.2607
2348.00,0.2607
2347.00,0.2607
2346.00,0.2609
2345.00,0.2611
2344.00,0.2614
2343.00,0.2615
2342.00,0.2615
2341.00,0.2615
2340.00,0.2614
2339.00,0.2613
2338.00,0.2612
2337.00,0.2612
2336.00,0.2610
2335.00,0.2608
2334.00,0.2605
2333.00,0.2602
2332.00,0.2600
2331.00,0.2598
2330.00,0.2597
2329.00,0.2595
2328.00,0.2593
2327.00,0.2590
2326.00,0.2587
2325.00,0.2583
2324.00,0.2581
2323.00,0.2578
2322.00,0.2577
2321.00,0.2575
2320.00,0.2574
2319.00,0.2571
2318.00,0.2568
2317.00,0.2564
2316.00,0.2561
2315.00,0.2558
2314.00,0.2555
2313.00,0.2554
2312.00,0.2552
2311.00,0.2549
2310.00,0.2545
2309.00,0.2542
2308.00,0.2539
2307.00,0.2536
2306.00,0.2532
2305.00,0.2528
2304.00,0.2524
2303.00,0.2520
2302.00,0.2517
2301.00,0.2514
2300.00,0.2511
2299.00,0.2509
2298.00,0.2506
2297.00,0.2504
2296.00,0.2501
2295.00,0.2499
2294.00,0.2496
2293.00,0.2493
2292.00,0.2490
2291.00,0.2487
2290.00,0.2483
2289.00,0.2479
2288.00,0.2476
2287.00,0.2472
2286.00,0.2469
2285.00,0.2465
2284.00,0.2462
2283.00,0.2458
2282.00,0.2455
2281.00,0.2452
2280.00,0.2449
2279.00,0.2446
2278.00,0.2442
2277.00,0.2438
2276.00,0.2435
2275.00,0.2431
2274.00,0.2428
2273.00,0.2426
2272.00,0.2423
2271.00,0.2421
2270.00,0.2418
2269.00,0.2416
2268.00,0.2414
2267.00,0.2412
2266.00,0.2410
2265.00,0.2408
2264.00,0.2406
2263.00,0.2403
2262.00,0.2401
2261.00,0.2399
2260.00,0.2398
2259.00,0.2396
2258.00,0.2393
2257.00,0.2391
2256.00,0.2389
2255.00,0.2387
2254.00,0.2385
2253.00,0.2383
2252.00,0.2382
2251.00,0.2379
2250.00,0.2376
2249.00,0.2374
2248.00,0.2371
2247.00,0.2369
2246.00,0.2367
2245.00,0.2365
2244.00,0.2363
2243.00,0.2361
2242.00,0.2359
2241.00,0.2356
2240.00,0.2354
2239.00,0.2351
2238.00,0.2348
2237.00,0.2346
2236.00,0.2344
2235.00,0.2342
2234.00,0.2340
2233.00,0.2339
2232.00,0.2338
2231.00,0.2337
2230.00,0.2337
2229.00,0.2336
2228.00,0.2335
2227.00,0.2334
2226.00,0.2333
2225.00,0.2332
2224.00,0.2331
2223.00,0.2331
2222.00,0.2330
2221.00,0.2330
2220.00,0.2329
2219.00,0.2329
2218.00,0.2329
2217.00,0.2329
2216.00,0.2330
2215.00,0.2329
2214.00,0.2329
2213.00,0.2329
2212.00,0.2329
2211.00,0.2328
2210.00,0.2328
2209.00,0.2328
2208.00,0.2328
2207.00,0.2327
2206.00,0.2326
2205.00,0.2326
2204.00,0.2326
2203.00,0.2326
2202.00,0.2326
2201.00,0.2326
2200.00,0.2326
2199.00,0.2325
2198.00,0.2325
2197.00,0.2325
2196.00,0.2325
2195.00,0.2326
2194.00,0.2326
2193.00,0.2326
2192.00,0.2327
2191.00,0.2327
2190.00,0.2328
2189.00,0.2330
2188.00,0.2331
2187.00,0.2332
2186.00,0.2333
2185.00,0.2333
2184.00,0.2334
2183.00,0.2334
2182.00,0.2334
2181.00,0.2334
2180.00,0.2333
2179.00,0.2333
2178.00,0.2332
2177.00,0.2332
2176.00,0.2331
2175.00,0.2330
2174.00,0.2329
2173.00,0.2328
2172.00,0.2328
2171.00,0.2327
2170.00,0.2326
2169.00,0.2325
2168.00,0.2325
2167.00,0.2323
2166.00,0.2322
2165.00,0.2321
2164.00,0.2319
2163.00,0.2318
2162.00,0.2316
2161.00,0.2314
2160.00,0.2313
2159.00,0.2311
2158.00,0.2310
2157.00,0.2308
2156.00,0.2307
2155.00,0.2306
2154.00,0.2304
2153.00,0.2303
2152.00,0.2302
2151.00,0.2301
2150.00,0.2299
2149.00,0.2297
2148.00,0.2295
2147.00,0.2292
2146.00,0.2288
2145.00,0.2283
2144.00,0.2279
2143.00,0.2274
2142.00,0.2269
2141.00,0.2264
2140.00,0.2260
2139.00,0.2256
2138.00,0.2252
2137.00,0.2249
2136.00,0.2246
2135.00,0.2243
2134.00,0.2239
2133.00,0.2236
2132.00,0.2233
2131.00,0.2230
2130.00,0.2227
2129.00,0.2224
2128.00,0.2222
2127.00,0.2220
2126.00,0.2219
2125.00,0.2218
2124.00,0.2217
2123.00,0.2216
2122.00,0.2214
2121.00,0.2213
2120.00,0.2212
2119.00,0.2211
2118.00,0.2211
2117.00,0.2210
2116.00,0.2210
2115.00,0.2210
2114.00,0.2210
2113.00,0.2210
2112.00,0.2210
2111.00,0.2209
2110.00,0.2209
2109.00,0.2209
2108.00,0.2209
2107.00,0.2208
2106.00,0.2208
2105.00,0.2207
2104.00,0.2206
2103.00,0.2206
2102.00,0.2205
2101.00,0.2205
2100.00,0.2205
2099.00,0.2204
2098.00,0.2203
2097.00,0.2202
2096.00,0.2202
2095.00,0.2201
2094.00,0.2200
2093.00,0.2199
2092.00,0.2199
2091.00,0.2198
2090.00,0.2197
2089.00,0.2197
2088.00,0.2197
2087.00,0.2197
2086.00,0.2197
2085.00,0.2197
2084.00,0.2197
2083.00,0.2197
2082.00,0.2198
2081.00,0.2198
2080.00,0.2199
2079.00,0.2200
2078.00,0.2200
2077.00,0.2201
2076.00,0.2202
2075.00,0.2203
2074.00,0.2204
2073.00,0.2206
2072.00,0.2207
2071.00,0.2208
2070.00,0.2209
2069.00,0.2211
2068.00,0.2212
2067.00,0.2214
2066.00,0.2215
2065.00,0.2215
2064.00,0.2217
2063.00,0.2218
2062.00,0.2219
2061.00,0.2221
2060.00,0.2222
2059.00,0.2223
2058.00,0.2224
2057.00,0.2225
2056.00,0.2226
2055.00,0.2227
2054.00,0.2228
2053.00,0.2230
2052.00,0.2232
2051.00,0.2234
2050.00,0.2235
2049.00,0.2238
2048.00,0.2240
2047.00,0.2243
2046.00,0.2246
2045.00,0.2249
2044.00,0.2252
2043.00,0.2254
2042.00,0.2256
2041.00,0.2258
2040.00,0.2261
2039.00,0.2262
2038.00,0.2264
2037.00,0.2265
2036.00,0.2267
2035.00,0.2268
2034.00,0.2270
2033.00,0.2272
2032.00,0.2273
2031.00,0.2274
2030.00,0.2275
2029.00,0.2275
2028.00,0.2275
2027.00,0.2274
2026.00,0.2274
2025.00,0.2272
2024.00,0.2271
2023.00,0.2269
2022.00,0.2266
2021.00,0.2262
2020.00,0.2257
2019.00,0.2251
2018.00,0.2245
2017.00,0.2237
2016.00,0.2230
2015.00,0.2221
2014.00,0.2213
2013.00,0.2205
2012.00,0.2197
2011.00,0.2190
2010.00,0.2183
2009.00,0.2177
2008.00,0.2172
2007.00,0.2168
2006.00,0.2164
2005.00,0.2160
2004.00,0.2157
2003.00,0.2155
2002.00,0.2152
2001.00,0.2150
2000.00,0.2148
1999.00,0.2146
1998.00,0.2144
1997.00,0.2143
1996.00,0.2142
1995.00,0.2141
1994.00,0.2140
1993.00,0.2140
1992.00,0.2139
1991.00,0.2138
1990.00,0.2137
1989.00,0.2136
1988.00,0.2136
1987.00,0.2135
1986.00,0.2134
1985.00,0.2133
1984.00,0.2132
1983.00,0.2131
1982.00,0.2130
1981.00,0.2129
1980.00,0.2129
1979.00,0.2128
1978.00,0.2127
1977.00,0.2127
1976.00,0.2127
1975.00,0.2127
1974.00,0.2127
1973.00,0.2127
1972.00,0.2128
1971.00,0.2128
1970.00,0.2129
1969.00,0.2129
1968.00,0.2131
1967.00,0.2131
1966.00,0.2132
1965.00,0.2134
1964.00,0.2136
1963.00,0.2138
1962.00,0.2139
1961.00,0.2141
1960.00,0.2142
1959.00,0.2144
1958.00,0.2145
1957.00,0.2147
1956.00,0.2149
1955.00,0.2151
1954.00,0.2152
1953.00,0.2154
1952.00,0.2156
1951.00,0.2157
1950.00,0.2159
1949.00,0.2160
1948.00,0.2163
1947.00,0.2165
1946.00,0.2167
1945.00,0.2170
1944.00,0.2172
1943.00,0.2174
1942.00,0.2175
1941.00,0.2177
1940.00,0.2180
1939.00,0.2182
1938.00,0.2182
1937.00,0.2182
1936.00,0.2181
1935.00,0.2179
1934.00,0.2177
1933.00,0.2176
1932.00,0.2175
1931.00,0.2174
1930.00,0.2174
1929.00,0.2175
1928.00,0.2176
1927.00,0.2177
1926.00,0.2178
1925.00,0.2180
1924.00,0.2182
1923.00,0.2184
1922.00,0.2186
1921.00,0.2190
1920.00,0.2195
1919.00,0.2198
1918.00,0.2200
1917.00,0.2203
1916.00,0.2206
1915.00,0.2210
1914.00,0.2212
1913.00,0.2214
1912.00,0.2216
1911.00,0.2217
1910.00,0.2218
1909.00,0.2220
1908.00,0.2221
1907.00,0.2222
1906.00,0.2223
1905.00,0.2224
1904.00,0.2225
1903.00,0.2225
1902.00,0.2226
1901.00,0.2227
1900.00,0.2228
1899.00,0.2229
1898.00,0.2231
1897.00,0.2233
1896.00,0.2235
1895.00,0.2236
1894.00,0.2237
1893.00,0.2239
1892.00,0.2241
1891.00,0.2241
1890.00,0.2241
1889.00,0.2241
1888.00,0.2242
1887.00,0.2244
1886.00,0.2246
1885.00,0.2248
1884.00,0.2249
1883.00,0.2250
1882.00,0.2249
1881.00,0.2249
1880.00,0.2249
1879.00,0.2249
1878.00,0.2248
1877.00,0.2247
1876.00,0.2245
1875.00,0.2243
1874.00,0.2241
1873.00,0.2240
1872.00,0.2239
1871.00,0.2238
1870.00,0.2235
1869.00,0.2231
1868.00,0.2227
1867.00,0.2224
1866.00,0.2222
1865.00,0.2221
1864.00,0.2219
1863.00,0.2217
1862.00,0.2215
1861.00,0.2212
1860.00,0.2210
1859.00,0.2207
1858.00,0.2204
1857.00,0.2202
1856.00,0.2200
1855.00,0.2197
1854.00,0.2195
1853.00,0.2193
1852.00,0.2191
1851.00,0.2190
1850.00,0.2189
1849.00,0.2188
1848.00,0.2187
1847.00,0.2186
1846.00,0.2184
1845.00,0.2182
1844.00,0.2179
1843.00,0.2178
1842.00,0.2179
1841.00,0.2181
1840.00,0.2181
1839.00,0.2180
1838.00,0.2179
1837.00,0.2178
1836.00,0.2177
1835.00,0.2176
1834.00,0.2176
1833.00,0.2176
1832.00,0.2176
1831.00,0.2175
1830.00,0.2172
1829.00,0.2169
1828.00,0.2170
1827.00,0.2171
1826.00,0.2172
1825.00,0.2172
1824.00,0.2173
1823.00,0.2174
1822.00,0.2175
1821.00,0.2177
1820.00,0.2179
1819.00,0.2180
1818.00,0.2181
1817.00,0.2182
1816.00,0.2183
1815.00,0.2184
1814.00,0.2185
1813.00,0.2186
1812.00,0.2187
1811.00,0.2187
1810.00,0.2187
1809.00,0.2188
1808.00,0.2191
1807.00,0.2193
1806.00,0.2195
1805.00,0.2198
1804.00,0.2200
1803.00,0.2202
1802.00,0.2203
1801.00,0.2204
1800.00,0.2206
1799.00,0.2207
1798.00,0.2209
1797.00,0.2211
1796.00,0.2213
1795.00,0.2216
1794.00,0.2217
1793.00,0.2218
1792.00,0.2217
1791.00,0.2218
1790.00,0.2220
1789.00,0.2224
1788.00,0.2228
1787.00,0.2231
1786.00,0.2233
1785.00,0.2237
1784.00,0.2240
1783.00,0.2245
1782.00,0.2249
1781.00,0.2252
1780.00,0.2255
1779.00,0.2258
1778.00,0.2262
1777.00,0.2267
1776.00,0.2271
1775.00,0.2275
1774.00,0.2279
1773.00,0.2282
1772.00,0.2284
1771.00,0.2286
1770.00,0.2289
1769.00,0.2293
1768.00,0.2297
1767.00,0.2302
1766.00,0.2307
1765.00,0.2314
1764.00,0.2320
1763.00,0.2325
1762.00,0.2331
1761.00,0.2339
1760.00,0.2349
1759.00,0.2360
1758.00,0.2372
1757.00,0.2385
1756.00,0.2400
1755.00,0.2417
1754.00,0.2434
1753.00,0.2451
1752.00,0.2469
1751.00,0.2484
1750.00,0.2494
1749.00,0.2503
1748.00,0.2509
1747.00,0.2511
1746.00,0.2511
1745.00,0.2510
1744.00,0.2506
1743.00,0.2499
1742.00,0.2490
1741.00,0.2480
1740.00,0.2470
1739.00,0.2459
1738.00,0.2451
1737.00,0.2448
1736.00,0.2446
1735.00,0.2441
1734.00,0.2432
1733.00,0.2426
1732.00,0.2426
1731.00,0.2426
1730.00,0.2423
1729.00,0.2421
1728.00,0.2422
1727.00,0.2427
1726.00,0.2432
1725.00,0.2439
1724.00,0.2447
1723.00,0.2454
1722.00,0.2462
1721.00,0.2471
1720.00,0.2482
1719.00,0.2493
1718.00,0.2503
1717.00,0.2514
1716.00,0.2528
1715.00,0.2543
1714.00,0.2557
1713.00,0.2571
1712.00,0.2586
1711.00,0.2604
1710.00,0.2622
1709.00,0.2642
1708.00,0.2662
1707.00,0.2680
1706.00,0.2697
1705.00,0.2710
1704.00,0.2721
1703.00,0.2730
1702.00,0.2734
1701.00,0.2730
1700.00,0.2715
1699.00,0.2701
1698.00,0.2694
1697.00,0.2687
1696.00,0.2676
1695.00,0.2666
1694.00,0.2662
1693.00,0.2661
1692.00,0.2655
1691.00,0.2648
1690.00,0.2642
1689.00,0.2639
1688.00,0.2639
1687.00,0.2640
1686.00,0.2643
1685.00,0.2644
1684.00,0.2640
1683.00,0.2637
1682.00,0.2639
1681.00,0.2641
1680.00,0.2643
1679.00,0.2645
1678.00,0.2648
1677.00,0.2653
1676.00,0.2657
1675.00,0.2659
1674.00,0.2661
1673.00,0.2666
1672.00,0.2673
1671.00,0.2677
1670.00,0.2680
1669.00,0.2684
1668.00,0.2692
1667.00,0.2701
1666.00,0.2709
1665.00,0.2717
1664.00,0.2723
1663.00,0.2727
1662.00,0.2730
1661.00,0.2736
1660.00,0.2745
1659.00,0.2753
1658.00,0.2759
1657.00,0.2766
1656.00,0.2775
1655.00,0.2786
1654.00,0.2796
1653.00,0.2801
1652.00,0.2811
1651.00,0.2827
1650.00,0.2838
1649.00,0.2841
1648.00,0.2846
1647.00,0.2853
1646.00,0.2863
1645.00,0.2880
1644.00,0.2900
1643.00,0.2916
1642.00,0.2930
1641.00,0.2944
1640.00,0.2960
1639.00,0.2977
1638.00,0.2993
1637.00,0.3014
1636.00,0.3038
1635.00,0.3062
1634.00,0.3089
1633.00,0.3119
1632.00,0.3148
1631.00,0.3176
1630.00,0.3204
1629.00,0.3238
1628.00,0.3274
1627.00,0.3310
1626.00,0.3346
1625.00,0.3388
1624.00,0.3438
1623.00,0.3493
1622.00,0.3552
1621.00,0.3615
1620.00,0.3681
1619.00,0.3751
1618.00,0.3832
1617.00,0.3935
1616.00,0.4054
1615.00,0.4170
1614.00,0.4279
1613.00,0.4392
1612.00,0.4517
1611.00,0.4650
1610.00,0.4782
1609.00,0.4909
1608.00,0.5029
1607.00,0.5132
1606.00,0.5220
1605.00,0.5310
1604.00,0.5412
1603.00,0.5524
1602.00,0.5640
1601.00,0.5759
1600.00,0.5870
1599.00,0.5956
1598.00,0.6016
1597.00,0.6076
1596.00,0.6159
1595.00,0.6277
1594.00,0.6445
1593.00,0.6684
1592.00,0.7011
1591.00,0.7430
1590.00,0.7955
1589.00,0.8629
1588.00,0.9504
1587.00,1.0619
1586.00,1.2017
1585.00,1.3790
1584.00,1.6087
1583.00,1.8974
1582.00,2.2243
1581.00,2.5621
1580.00,2.9105
1579.00,2.8793
1578.00,2.3744
1577.00,1.9453
1576.00,1.6226
1575.00,1.3834
1574.00,1.2111
1573.00,1.0847
1572.00,0.9848
1571.00,0.8998
1570.00,0.8296
1569.00,0.7816
1568.00,0.7592
1567.00,0.7594
1566.00,0.7806
1565.00,0.8247
1564.00,0.8908
1563.00,0.9704
1562.00,1.0526
1561.00,1.1290
1560.00,1.1734
1559.00,1.1287
1558.00,1.0199
1557.00,0.9188
1556.00,0.8330
1555.00,0.7507
1554.00,0.6752
1553.00,0.6146
1552.00,0.5695
1551.00,0.5336
1550.00,0.5033
1549.00,0.4789
1548.00,0.4609
1547.00,0.4472
1546.00,0.4356
1545.00,0.4256
1544.00,0.4174
1543.00,0.4108
1542.00,0.4052
1541.00,0.4003
1540.00,0.3960
1539.00,0.3927
1538.00,0.3910
1537.00,0.3907
1536.00,0.3906
1535.00,0.3908
1534.00,0.3920
1533.00,0.3951
1532.00,0.4000
1531.00,0.4060
1530.00,0.4129
1529.00,0.4209
1528.00,0.4299
1527.00,0.4393
1526.00,0.4491
1525.00,0.4596
1524.00,0.4711
1523.00,0.4849
1522.00,0.5033
1521.00,0.5261
1520.00,0.5485
1519.00,0.5663
1518.00,0.5792
1517.00,0.5870
1516.00,0.5878
1515.00,0.5812
1514.00,0.5689
1513.00,0.5534
1512.00,0.5366
1511.00,0.5211
1510.00,0.5088
1509.00,0.5000
1508.00,0.4946
1507.00,0.4924
1506.00,0.4942
1505.00,0.5000
1504.00,0.5076
1503.00,0.5153
1502.00,0.5230
1501.00,0.5311
1500.00,0.5392
1499.00,0.5463
1498.00,0.5530
1497.00,0.5612
1496.00,0.5712
1495.00,0.5815
1494.00,0.5903
1493.00,0.5973
1492.00,0.6023
1491.00,0.6059
1490.00,0.6100
1489.00,0.6175
1488.00,0.6290
1487.00,0.6438
1486.00,0.6619
1485.00,0.6839
1484.00,0.7098
1483.00,0.7401
1482.00,0.7766
1481.00,0.8206
1480.00,0.8715
1479.00,0.9290
1478.00,0.9978
1477.00,1.0850
1476.00,1.1941
1475.00,1.3259
1474.00,1.4881
1473.00,1.6973
1472.00,1.9606
1471.00,2.2583
1470.00,2.5709
1469.00,2.9149
1468.00,3.2887
1467.00,3.5734
1466.00,3.8606
1465.00,4.0181
1464.00,3.8215
1463.00,3.8074
1462.00,3.8839
1461.00,3.9215
1460.00,3.8750
1459.00,3.8500
1458.00,3.8734
1457.00,4.0402
1456.00,3.9151
1455.00,3.7276
1454.00,3.7021
1453.00,3.7547
1452.00,3.5865
1451.00,3.3177
1450.00,3.1919
1449.00,3.1294
1448.00,2.9920
1447.00,2.8109
1446.00,2.6687
1445.00,2.5465
1444.00,2.4058
1443.00,2.2572
1442.00,2.1261
1441.00,2.0144
1440.00,1.9119
1439.00,1.8110
1438.00,1.7059
1437.00,1.5924
1436.00,1.4791
1435.00,1.3792
1434.00,1.2927
1433.00,1.2111
1432.00,1.1299
1431.00,1.0516
1430.00,0.9804
1429.00,0.9190
1428.00,0.8689
1427.00,0.8295
1426.00,0.7982
1425.00,0.7721
1424.00,0.7509
1423.00,0.7353
1422.00,0.7245
1421.00,0.7161
1420.00,0.7087
1419.00,0.7023
1418.00,0.6974
1417.00,0.6939
1416.00,0.6916
1415.00,0.6904
1414.00,0.6901
1413.00,0.6904
1412.00,0.6913
1411.00,0.6927
1410.00,0.6938
1409.00,0.6930
1408.00,0.6893
1407.00,0.6822
1406.00,0.6714
1405.00,0.6569
1404.00,0.6409
1403.00,0.6258
1402.00,0.6125
1401.00,0.6007
1400.00,0.5906
1399.00,0.5832
1398.00,0.5793
1397.00,0.5787
1396.00,0.5814
1395.00,0.5875
1394.00,0.5963
1393.00,0.6072
1392.00,0.6208
1391.00,0.6389
1390.00,0.6635
1389.00,0.6978
1388.00,0.7460
1387.00,0.8103
1386.00,0.8876
1385.00,0.9735
1384.00,1.0682
1383.00,1.1765
1382.00,1.3027
1381.00,1.4491
1380.00,1.6161
1379.00,1.7918
1378.00,1.9350
1377.00,1.9885
1376.00,1.9357
1375.00,1.8091
1374.00,1.6556
1373.00,1.5147
1372.00,1.4034
1371.00,1.3211
1370.00,1.2628
1369.00,1.2248
1368.00,1.2029
1367.00,1.1888
1366.00,1.1706
1365.00,1.1386
1364.00,1.0897
1363.00,1.0292
1362.00,0.9675
1361.00,0.9133
1360.00,0.8700
1359.00,0.8372
1358.00,0.8131
1357.00,0.7964
1356.00,0.7856
1355.00,0.7793
1354.00,0.7758
1353.00,0.7735
1352.00,0.7711
1351.00,0.7679
1350.00,0.7634
1349.00,0.7580
1348.00,0.7522
1347.00,0.7470
1346.00,0.7425
1345.00,0.7387
1344.00,0.7357
1343.00,0.7327
1342.00,0.7291
1341.00,0.7239
1340.00,0.7164
1339.00,0.7067
1338.00,0.6949
1337.00,0.6817
1336.00,0.6679
1335.00,0.6544
1334.00,0.6420
1333.00,0.6313
1332.00,0.6225
1331.00,0.6159
1330.00,0.6114
1329.00,0.6087
1328.00,0.6076
1327.00,0.6079
1326.00,0.6092
1325.00,0.6110
1324.00,0.6134
1323.00,0.6162
1322.00,0.6194
1321.00,0.6226
1320.00,0.6260
1319.00,0.6296
1318.00,0.6336
1317.00,0.6378
1316.00,0.6423
1315.00,0.6469
1314.00,0.6517
1313.00,0.6565
1312.00,0.6609
1311.00,0.6647
1310.00,0.6676
1309.00,0.6694
1308.00,0.6701
1307.00,0.6700
1306.00,0.6687
1305.00,0.6662
1304.00,0.6625
1303.00,0.6578
1302.00,0.6525
1301.00,0.6466
1300.00,0.6404
1299.00,0.6339
1298.00,0.6267
1297.00,0.6189
1296.00,0.6108
1295.00,0.6032
1294.00,0.5964
1293.00,0.5904
1292.00,0.5849
1291.00,0.5798
1290.00,0.5749
1289.00,0.5701
1288.00,0.5654
1287.00,0.5609
1286.00,0.5564
1285.00,0.5518
1284.00,0.5471
1283.00,0.5426
1282.00,0.5387
1281.00,0.5353
1280.00,0.5324
1279.00,0.5299
1278.00,0.5276
1277.00,0.5252
1276.00,0.5230
1275.00,0.5212
1274.00,0.5200
1273.00,0.5194
1272.00,0.5192
1271.00,0.5194
1270.00,0.5193
1269.00,0.5181
1268.00,0.5152
1267.00,0.5106
1266.00,0.5046
1265.00,0.4982
1264.00,0.4923
1263.00,0.4875
1262.00,0.4841
1261.00,0.4818
1260.00,0.4804
1259.00,0.4797
1258.00,0.4794
1257.00,0.4791
1256.00,0.4785
1255.00,0.4778
1254.00,0.4771
1253.00,0.4762
1252.00,0.4754
1251.00,0.4748
1250.00,0.4741
1249.00,0.4733
1248.00,0.4724
1247.00,0.4714
1246.00,0.4701
1245.00,0.4684
1244.00,0.4661
1243.00,0.4630
1242.00,0.4594
1241.00,0.4552
1240.00,0.4508
1239.00,0.4469
1238.00,0.4435
1237.00,0.4406
1236.00,0.4386
1235.00,0.4374
1234.00,0.4370
1233.00,0.4373
1232.00,0.4381
1231.00,0.4394
1230.00,0.4409
1229.00,0.4420
1228.00,0.4419
1227.00,0.4407
1226.00,0.4384
1225.00,0.4357
1224.00,0.4329
1223.00,0.4305
1222.00,0.4286
1221.00,0.4271
1220.00,0.4261
1219.00,0.4256
1218.00,0.4256
1217.00,0.4260
1216.00,0.4268
1215.00,0.4278
1214.00,0.4287
1213.00,0.4290
1212.00,0.4286
1211.00,0.4277
1210.00,0.4265
1209.00,0.4251
1208.00,0.4237
1207.00,0.4223
1206.00,0.4211
1205.00,0.4200
1204.00,0.4190
1203.00,0.4185
1202.00,0.4183
1201.00,0.4184
1200.00,0.4188
1199.00,0.4194
1198.00,0.4204
1197.00,0.4215
1196.00,0.4230
1195.00,0.4249
1194.00,0.4275
1193.00,0.4304
1192.00,0.4333
1191.00,0.4357
1190.00,0.4368
1189.00,0.4360
1188.00,0.4332
1187.00,0.4295
1186.00,0.4257
1185.00,0.4228
1184.00,0.4209
1183.00,0.4201
1182.00,0.4201
1181.00,0.4206
1180.00,0.4214
1179.00,0.4226
1178.00,0.4239
1177.00,0.4255
1176.00,0.4274
1175.00,0.4300
1174.00,0.4337
1173.00,0.4382
1172.00,0.4436
1171.00,0.4495
1170.00,0.4552
1169.00,0.4602
1168.00,0.4644
1167.00,0.4678
1166.00,0.4704
1165.00,0.4723
1164.00,0.4733
1163.00,0.4736
1162.00,0.4731
1161.00,0.4721
1160.00,0.4708
1159.00,0.4696
1158.00,0.4686
1157.00,0.4678
1156.00,0.4670
1155.00,0.4662
1154.00,0.4651
1153.00,0.4635
1152.00,0.4616
1151.00,0.4598
1150.00,0.4579
1149.00,0.4561
1148.00,0.4545
1147.00,0.4532
1146.00,0.4523
1145.00,0.4519
1144.00,0.4521
1143.00,0.4530
1142.00,0.4547
1141.00,0.4572
1140.00,0.4606
1139.00,0.4648
1138.00,0.4699
1137.00,0.4757
1136.00,0.4818
1135.00,0.4875
1134.00,0.4917
1133.00,0.4930
1132.00,0.4908
1131.00,0.4855
1130.00,0.4784
1129.00,0.4707
1128.00,0.4639
1127.00,0.4587
1126.00,0.4553
1125.00,0.4532
1124.00,0.4522
1123.00,0.4517
1122.00,0.4515
1121.00,0.4513
1120.00,0.4514
1119.00,0.4524
1118.00,0.4545
1117.00,0.4582
1116.00,0.4631
1115.00,0.4679
1114.00,0.4705
1113.00,0.4690
1112.00,0.4631
1111.00,0.4543
1110.00,0.4448
1109.00,0.4364
1108.00,0.4299
1107.00,0.4255
1106.00,0.4229
1105.00,0.4218
1104.00,0.4213
1103.00,0.4213
1102.00,0.4213
1101.00,0.4213
1100.00,0.4212
1099.00,0.4209
1098.00,0.4204
1097.00,0.4197
1096.00,0.4190
1095.00,0.4188
1094.00,0.4192
1093.00,0.4204
1092.00,0.4225
1091.00,0.4255
1090.00,0.4293
1089.00,0.4337
1088.00,0.4386
1087.00,0.4441
1086.00,0.4503
1085.00,0.4569
1084.00,0.4640
1083.00,0.4715
1082.00,0.4793
1081.00,0.4866
1080.00,0.4931
1079.00,0.4984
1078.00,0.5019
1077.00,0.5031
1076.00,0.5020
1075.00,0.4988
1074.00,0.4942
1073.00,0.4889
1072.00,0.4837
1071.00,0.4792
1070.00,0.4757
1069.00,0.4731
1068.00,0.4713
1067.00,0.4700
1066.00,0.4693
1065.00,0.4689
1064.00,0.4687
1063.00,0.4690
1062.00,0.4696
1061.00,0.4704
1060.00,0.4712
1059.00,0.4719
1058.00,0.4724
1057.00,0.4726
1056.00,0.4726
1055.00,0.4727
1054.00,0.4728
1053.00,0.4731
1052.00,0.4738
1051.00,0.4754
1050.00,0.4778
1049.00,0.4808
1048.00,0.4840
1047.00,0.4874
1046.00,0.4907
1045.00,0.4938
1044.00,0.4968
1043.00,0.4997
1042.00,0.5029
1041.00,0.5062
1040.00,0.5098
1039.00,0.5134
1038.00,0.5170
1037.00,0.5207
1036.00,0.5247
1035.00,0.5293
1034.00,0.5345
1033.00,0.5403
1032.00,0.5466
1031.00,0.5531
1030.00,0.5592
1029.00,0.5643
1028.00,0.5678
1027.00,0.5694
1026.00,0.5692
1025.00,0.5674
1024.00,0.5649
1023.00,0.5624
1022.00,0.5604
1021.00,0.5592
1020.00,0.5590
1019.00,0.5600
1018.00,0.5617
1017.00,0.5639
1016.00,0.5664
1015.00,0.5690
1014.00,0.5716
1013.00,0.5739
1012.00,0.5756
1011.00,0.5769
1010.00,0.5781
1009.00,0.5796
1008.00,0.5816
1007.00,0.5840
1006.00,0.5866
1005.00,0.5894
1004.00,0.5921
1003.00,0.5947
1002.00,0.5968
1001.00,0.5976
1000.00,0.5970
999.00,0.5948
998.00,0.5908
997.00,0.5854
996.00,0.5788
995.00,0.5715
994.00,0.5638
993.00,0.5557
992.00,0.5471
991.00,0.5383
990.00,0.5295
989.00,0.5209
988.00,0.5128
987.00,0.5055
986.00,0.4990
985.00,0.4933
984.00,0.4882
983.00,0.4837
982.00,0.4795
981.00,0.4756
980.00,0.4720
979.00,0.4685
978.00,0.4652
977.00,0.4622
976.00,0.4595
975.00,0.4571
974.00,0.4549
973.00,0.4531
972.00,0.4520
971.00,0.4517
970.00,0.4521
969.00,0.4532
968.00,0.4545
967.00,0.4560
966.00,0.4569
965.00,0.4568
964.00,0.4552
963.00,0.4521
962.00,0.4477
961.00,0.4425
960.00,0.4370
959.00,0.4317
958.00,0.4271
957.00,0.4233
956.00,0.4202
955.00,0.4177
954.00,0.4152
953.00,0.4123
952.00,0.4089
951.00,0.4052
950.00,0.4014
949.00,0.3978
948.00,0.3948
947.00,0.3925
946.00,0.3909
945.00,0.3899
944.00,0.3894
943.00,0.3894
942.00,0.3896
941.00,0.3896
940.00,0.3896
939.00,0.3893
938.00,0.3886
937.00,0.3875
936.00,0.3858
935.00,0.3837
934.00,0.3813
933.00,0.3786
932.00,0.3759
931.00,0.3733
930.00,0.3711
929.00,0.3693
928.00,0.3683
927.00,0.3684
926.00,0.3696
925.00,0.3721
924.00,0.3758
923.00,0.3803
922.00,0.3850
921.00,0.3888
920.00,0.3906
919.00,0.3899
918.00,0.3866
917.00,0.3814
916.00,0.3754
915.00,0.3695
914.00,0.3642
913.00,0.3595
912.00,0.3556
911.00,0.3521
910.00,0.3491
909.00,0.3463
908.00,0.3437
907.00,0.3415
906.00,0.3396
905.00,0.3383
904.00,0.3375
903.00,0.3374
902.00,0.3381
901.00,0.3393
900.00,0.3409
899.00,0.3430
898.00,0.3453
897.00,0.3479
896.00,0.3508
895.00,0.3541
894.00,0.3578
893.00,0.3618
892.00,0.3661
891.00,0.3703
890.00,0.3741
889.00,0.3767
888.00,0.3778
887.00,0.3773
886.00,0.3757
885.00,0.3733
884.00,0.3709
883.00,0.3688
882.00,0.3677
881.00,0.3675
880.00,0.3681
879.00,0.3692
878.00,0.3706
877.00,0.3720
876.00,0.3734
875.00,0.3751
874.00,0.3769
873.00,0.3787
872.00,0.3806
871.00,0.3825
870.00,0.3846
869.00,0.3869
868.00,0.3897
867.00,0.3930
866.00,0.3972
865.00,0.4021
864.00,0.4074
863.00,0.4127
862.00,0.4167
861.00,0.4187
860.00,0.4182
859.00,0.4155
858.00,0.4116
857.00,0.4073
856.00,0.4035
855.00,0.4007
854.00,0.3989
853.00,0.3979
852.00,0.3974
851.00,0.3973
850.00,0.3973
849.00,0.3972
848.00,0.3970
847.00,0.3968
846.00,0.3966
845.00,0.3963
844.00,0.3962
843.00,0.3967
842.00,0.3981
841.00,0.4007
840.00,0.4049
839.00,0.4108
838.00,0.4180
837.00,0.4248
836.00,0.4294
835.00,0.4302
834.00,0.4270
833.00,0.4207
832.00,0.4135
831.00,0.4074
830.00,0.4036
829.00,0.4024
828.00,0.4039
827.00,0.4075
826.00,0.4131
825.00,0.4199
824.00,0.4273
823.00,0.4344
822.00,0.4403
821.00,0.4440
820.00,0.4452
819.00,0.4440
818.00,0.4411
817.00,0.4371
816.00,0.4324
815.00,0.4275
814.00,0.4224
813.00,0.4172
812.00,0.4120
811.00,0.4068
810.00,0.4018
809.00,0.3969
808.00,0.3920
807.00,0.3872
806.00,0.3827
805.00,0.3783
804.00,0.3740
803.00,0.3698
802.00,0.3657
801.00,0.3619
800.00,0.3587
799.00,0.3564
798.00,0.3549
797.00,0.3540
796.00,0.3535
795.00,0.3533
794.00,0.3532
793.00,0.3530
792.00,0.3528
791.00,0.3526
790.00,0.3527
789.00,0.3527
788.00,0.3525
787.00,0.3522
786.00,0.3524
785.00,0.3531
784.00,0.3545
783.00,0.3563
782.00,0.3583
781.00,0.3603
780.00,0.3623
779.00,0.3645
778.00,0.3671
777.00,0.3703
776.00,0.3741
775.00,0.3784
774.00,0.3829
773.00,0.3875
772.00,0.3919
771.00,0.3963
770.00,0.4006
769.00,0.4049
768.00,0.4092
767.00,0.4136
766.00,0.4179
765.00,0.4219
764.00,0.4258
763.00,0.4299
762.00,0.4346
761.00,0.4398
760.00,0.4449
759.00,0.4495
758.00,0.4531
757.00,0.4561
756.00,0.4584
755.00,0.4607
754.00,0.4633
753.00,0.4668
752.00,0.4712
751.00,0.4763
750.00,0.4821
749.00,0.4885
748.00,0.4952
747.00,0.5015
746.00,0.5070
745.00,0.5112
744.00,0.5141
743.00,0.5163
742.00,0.5190
741.00,0.5230
740.00,0.5282
739.00,0.5346
738.00,0.5418
737.00,0.5500
736.00,0.5597
735.00,0.5720
734.00,0.5884
733.00,0.6096
732.00,0.6341
731.00,0.6582
730.00,0.6784
729.00,0.6951
728.00,0.7128
727.00,0.7366
726.00,0.7692
725.00,0.8092
724.00,0.8519
723.00,0.8907
722.00,0.9164
721.00,0.9180
720.00,0.8883
719.00,0.8319
718.00,0.7631
717.00,0.6960
716.00,0.6386
715.00,0.5927
714.00,0.5569
713.00,0.5284
712.00,0.5050
711.00,0.4857
710.00,0.4701
709.00,0.4581
708.00,0.4500
707.00,0.4459
706.00,0.4456
705.00,0.4486
704.00,0.4549
703.00,0.4639
702.00,0.4744
701.00,0.4838
700.00,0.4888
699.00,0.4857
698.00,0.4722
697.00,0.4493
696.00,0.4215
695.00,0.3947
694.00,0.3730
693.00,0.3578
692.00,0.3486
691.00,0.3440
690.00,0.3426
689.00,0.3430
688.00,0.3442
687.00,0.3461
686.00,0.3484
685.00,0.3514
684.00,0.3549
683.00,0.3589
682.00,0.3632
681.00,0.3674
680.00,0.3711
679.00,0.3739
678.00,0.3757
677.00,0.3761
676.00,0.3755
675.00,0.3741
674.00,0.3722
673.00,0.3696
672.00,0.3666
671.00,0.3638
670.00,0.3611
669.00,0.3584
668.00,0.3549
667.00,0.3509
666.00,0.3474
665.00,0.3449
664.00,0.3426
663.00,0.3401
662.00,0.3376
661.00,0.3350
660.00,0.3323
659.00,0.3296
658.00,0.3272
657.00,0.3249
656.00,0.3227
655.00,0.3205
654.00,0.3184
653.00,0.3165
652.00,0.3147
651.00,0.3135
650.00,0.3131
649.00,0.3131
648.00,0.3133
647.00,0.3137
646.00,0.3141
645.00,0.3144
644.00,0.3145
643.00,0.3148
642.00,0.3154
641.00,0.3160
640.00,0.3165
639.00,0.3169
638.00,0.3172
637.00,0.3174
636.00,0.3173
635.00,0.3172
634.00,0.3172
633.00,0.3171
632.00,0.3173
631.00,0.3178
630.00,0.3190
629.00,0.3205
628.00,0.3226
627.00,0.3250
626.00,0.3276
625.00,0.3299
624.00,0.3319
623.00,0.3338
622.00,0.3357
621.00,0.3375
620.00,0.3389
619.00,0.3400
618.00,0.3408
617.00,0.3412
616.00,0.3411
615.00,0.3409
614.00,0.3406
613.00,0.3402
612.00,0.3397
611.00,0.3391
610.00,0.3384
609.00,0.3374
608.00,0.3361
607.00,0.3350
606.00,0.3342
605.00,0.3336
604.00,0.3330
603.00,0.3327
602.00,0.3329
601.00,0.3335
600.00,0.3342
599.00,0.3351
598.00,0.3363
597.00,0.3378
596.00,0.3398
595.00,0.3421
594.00,0.3446
593.00,0.3468
592.00,0.3488
591.00,0.3508
590.00,0.3531
589.00,0.3553
588.00,0.3574
587.00,0.3594
586.00,0.3617
585.00,0.3643
584.00,0.3671
583.00,0.3700
582.00,0.3731
581.00,0.3762
580.00,0.3794
579.00,0.3824
578.00,0.3853
577.00,0.3879
576.00,0.3903
575.00,0.3928
574.00,0.3955
573.00,0.3986
572.00,0.4018
571.00,0.4054
570.00,0.4090
569.00,0.4125
568.00,0.4156
567.00,0.4185
566.00,0.4212
565.00,0.4235
564.00,0.4251
563.00,0.4263
562.00,0.4273
561.00,0.4284
560.00,0.4295
559.00,0.4306
558.00,0.4317
557.00,0.4326
556.00,0.4335
555.00,0.4345
554.00,0.4359
553.00,0.4377
552.00,0.4398
551.00,0.4421
550.00,0.4444
