Created as New Dataset,
cm-1,A
4000.00,0.3793
3999.00,0.3793
3998.00,0.3792
3997.00,0.3792
3996.00,0.3791
3995.00,0.3790
3994.00,0.3789
3993.00,0.3787
3992.00,0.3785
3991.00,0.3782
3990.00,0.3779
3989.00,0.3776
3988.00,0.3772
3987.00,0.3768
3986.00,0.3763
3985.00,0.3758
3984.00,0.3753
3983.00,0.3749
3982.00,0.3745
3981.00,0.3740
3980.00,0.3736
3979.00,0.3731
3978.00,0.3728
3977.00,0.3724
3976.00,0.3720
3975.00,0.3717
3974.00,0.3714
3973.00,0.3710
3972.00,0.3707
3971.00,0.3704
3970.00,0.3701
3969.00,0.3697
3968.00,0.3693
3967.00,0.3688
3966.00,0.3683
3965.00,0.3678
3964.00,0.3673
3963.00,0.3668
3962.00,0.3662
3961.00,0.3657
3960.00,0.3652
3959.00,0.3647
3958.00,0.3643
3957.00,0.3639
3956.00,0.3635
3955.00,0.3631
3954.00,0.3627
3953.00,0.3624
3952.00,0.3621
3951.00,0.3618
3950.00,0.3616
3949.00,0.3613
3948.00,0.3611
3947.00,0.3609
3946.00,0.3607
3945.00,0.3605
3944.00,0.3603
3943.00,0.3601
3942.00,0.3600
3941.00,0.3598
3940.00,0.3595
3939.00,0.3594
3938.00,0.3593
3937.00,0.3592
3936.00,0.3591
3935.00,0.3590
3934.00,0.3589
3933.00,0.3589
3932.00,0.3589
3931.00,0.3590
3930.00,0.3590
3929.00,0.3590
3928.00,0.3589
3927.00,0.3588
3926.00,0.3587
3925.00,0.3587
3924.00,0.3587
3923.00,0.3588
3922.00,0.3588
3921.00,0.3588
3920.00,0.3587
3919.00,0.3586
3918.00,0.3585
3917.00,0.3585
3916.00,0.3585
3915.00,0.3584
3914.00,0.3583
3913.00,0.3582
3912.00,0.3581
3911.00,0.3581
3910.00,0.3580
3909.00,0.3580
3908.00,0.3579
3907.00,0.3578
3906.00,0.3577
3905.00,0.3577
3904.00,0.3577
3903.00,0.3576
3902.00,0.3575
3901.00,0.3574
3900.00,0.3573
3899.00,0.3573
3898.00,0.3572
3897.00,0.3570
3896.00,0.3568
3895.00,0.3566
3894.00,0.3564
3893.00,0.3562
3892.00,0.3561
3891.00,0.3559
3890.00,0.3558
3889.00,0.3556
3888.00,0.3554
3887.00,0.3552
3886.00,0.3552
3885.00,0.3552
3884.00,0.3551
3883.00,0.3549
3882.00,0.3546
3881.00,0.3545
3880.00,0.3545
3879.00,0.3545
3878.00,0.3545
3877.00,0.3543
3876.00,0.3542
3875.00,0.3542
3874.00,0.3543
3873.00,0.3542
3872.00,0.3540
3871.00,0.3538
3870.00,0.3538
3869.00,0.3539
3868.00,0.3539
3867.00,0.3537
3866.00,0.3535
3865.00,0.3533
3864.00,0.3532
3863.00,0.3531
3862.00,0.3529
3861.00,0.3527
3860.00,0.3526
3859.00,0.3526
3858.00,0.3526
3857.00,0.3526
3856.00,0.3525
3855.00,0.3524
3854.00,0.3523
3853.00,0.3524
3852.00,0.3524
3851.00,0.3523
3850.00,0.3521
3849.00,0.3520
3848.00,0.3520
3847.00,0.3519
3846.00,0.3518
3845.00,0.3516
3844.00,0.3515
3843.00,0.3515
3842.00,0.3515
3841.00,0.3515
3840.00,0.3515
3839.00,0.3515
3838.00,0.3515
3837.00,0.3515
3836.00,0.3514
3835.00,0.3512
3834.00,0.3510
3833.00,0.3508
3832.00,0.3507
3831.00,0.3505
3830.00,0.3503
3829.00,0.3501
3828.00,0.3498
3827.00,0.3497
3826.00,0.3497
3825.00,0.3497
3824.00,0.3496
3823.00,0.3495
3822.00,0.3494
3821.00,0.3495
3820.00,0.3495
3819.00,0.3492
3818.00,0.3487
3817.00,0.3484
3816.00,0.3482
3815.00,0.3482
3814.00,0.3480
3813.00,0.3476
3812.00,0.3474
3811.00,0.3472
3810.00,0.3471
3809.00,0.3469
3808.00,0.3467
3807.00,0.3466
3806.00,0.3465
3805.00,0.3464
3804.00,0.3462
3803.00,0.3460
3802.00,0.3460
3801.00,0.3461
3800.00,0.3460
3799.00,0.3456
3798.00,0.3453
3797.00,0.3451
3796.00,0.3451
3795.00,0.3451
3794.00,0.3449
3793.00,0.3446
3792.00,0.3443
3791.00,0.3441
3790.00,0.3439
3789.00,0.3437
3788.00,0.3436
3787.00,0.3434
3786.00,0.3434
3785.00,0.3434
3784.00,0.3434
3783.00,0.3433
3782.00,0.3433
3781.00,0.3433
3780.00,0.3433
3779.00,0.3433
3778.00,0.3432
3777.00,0.3431
3776.00,0.3431
3775.00,0.3430
3774.00,0.3431
3773.00,0.3431
3772.00,0.3430
3771.00,0.3430
3770.00,0.3430
3769.00,0.3429
3768.00,0.3429
3767.00,0.3428
3766.00,0.3429
3765.00,0.3430
3764.00,0.3431
3763.00,0.3431
3762.00,0.3429
3761.00,0.3428
3760.00,0.3427
3759.00,0.3427
3758.00,0.3427
3757.00,0.3427
3756.00,0.3427
3755.00,0.3426
3754.00,0.3425
3753.00,0.3423
3752.00,0.3422
3751.00,0.3422
3750.00,0.3423
3749.00,0.3425
3748.00,0.3426
3747.00,0.3426
3746.00,0.3425
3745.00,0.3426
3744.00,0.3427
3743.00,0.3426
3742.00,0.3422
3741.00,0.3418
3740.00,0.3416
3739.00,0.3416
3738.00,0.3416
3737.00,0.3414
3736.00,0.3413
3735.00,0.3413
3734.00,0.3412
3733.00,0.3411
3732.00,0.3410
3731.00,0.3409
3730.00,0.3408
3729.00,0.3406
3728.00,0.3404
3727.00,0.3404
3726.00,0.3405
3725.00,0.3406
3724.00,0.3405
3723.00,0.3405
3722.00,0.3405
3721.00,0.3405
3720.00,0.3406
3719.00,0.3406
3718.00,0.3407
3717.00,0.3407
3716.00,0.3408
3715.00,0.3409
3714.00,0.3410
3713.00,0.3412
3712.00,0.3414
3711.00,0.3418
3710.00,0.3420
3709.00,0.3422
3708.00,0.3423
3707.00,0.3425
3706.00,0.3426
3705.00,0.3427
3704.00,0.3429
3703.00,0.3430
3702.00,0.3433
3701.00,0.3435
3700.00,0.3437
3699.00,0.3439
3698.00,0.3441
3697.00,0.3445
3696.00,0.3450
3695.00,0.3454
3694.00,0.3458
3693.00,0.3463
3692.00,0.3468
3691.00,0.3474
3690.00,0.3479
3689.00,0.3484
3688.00,0.3489
3687.00,0.3494
3686.00,0.3498
3685.00,0.3502
3684.00,0.3506
3683.00,0.3510
3682.00,0.3515
3681.00,0.3520
3680.00,0.3525
3679.00,0.3529
3678.00,0.3533
3677.00,0.3537
3676.00,0.3543
3675.00,0.3551
3674.00,0.3558
3673.00,0.3561
3672.00,0.3565
3671.00,0.3570
3670.00,0.3577
3669.00,0.3583
3668.00,0.3587
3667.00,0.3591
3666.00,0.3596
3665.00,0.3603
3664.00,0.3611
3663.00,0.3618
3662.00,0.3625
3661.00,0.3634
3660.00,0.3643
3659.00,0.3653
3658.00,0.3663
3657.00,0.3674
3656.00,0.3685
3655.00,0.3696
3654.00,0.3707
3653.00,0.3717
3652.00,0.3729
3651.00,0.3742
3650.00,0.3755
3649.00,0.3767
3648.00,0.3779
3647.00,0.3791
3646.00,0.3803
3645.00,0.3816
3644.00,0.3829
3643.00,0.3843
3642.00,0.3857
3641.00,0.3873
3640.00,0.3889
3639.00,0.3907
3638.00,0.3927
3637.00,0.3947
3636.00,0.3969
3635.00,0.3990
3634.00,0.4013
3633.00,0.4037
3632.00,0.4063
3631.00,0.4095
3630.00,0.4136
3629.00,0.4188
3628.00,0.4240
3627.00,0.4285
3626.00,0.4320
3625.00,0.4344
3624.00,0.4356
3623.00,0.4357
3622.00,0.4347
3621.00,0.4326
3620.00,0.4298
3619.00,0.4269
3618.00,0.4242
3617.00,0.4221
3616.00,0.4208
3615.00,0.4202
3614.00,0.4202
3613.00,0.4206
3612.00,0.4213
3611.00,0.4222
3610.00,0.4233
3609.00,0.4245
3608.00,0.4257
3607.00,0.4269
3606.00,0.4280
3605.00,0.4290
3604.00,0.4298
3603.00,0.4306
3602.00,0.4312
3601.00,0.4317
3600.00,0.4320
3599.00,0.4322
3598.00,0.4324
3597.00,0.4325
3596.00,0.4325
3595.00,0.4326
3594.00,0.4327
3593.00,0.4328
3592.00,0.4331
3591.00,0.4336
3590.00,0.4341
3589.00,0.4346
3588.00,0.4352
3587.00,0.4356
3586.00,0.4361
3585.00,0.4366
3584.00,0.4373
3583.00,0.4380
3582.00,0.4387
3581.00,0.4394
3580.00,0.4400
3579.00,0.4407
3578.00,0.4413
3577.00,0.4421
3576.00,0.4430
3575.00,0.4439
3574.00,0.4449
3573.00,0.4460
3572.00,0.4472
3571.00,0.4484
3570.00,0.4497
3569.00,0.4509
3568.00,0.4520
3567.00,0.4531
3566.00,0.4541
3565.00,0.4553
3564.00,0.4565
3563.00,0.4577
3562.00,0.4590
3561.00,0.4603
3560.00,0.4616
3559.00,0.4628
3558.00,0.4640
3557.00,0.4653
3556.00,0.4667
3555.00,0.4681
3554.00,0.4696
3553.00,0.4711
3552.00,0.4726
3551.00,0.4740
3550.00,0.4755
3549.00,0.4770
3548.00,0.4786
3547.00,0.4803
3546.00,0.4819
3545.00,0.4836
3544.00,0.4852
3543.00,0.4869
3542.00,0.4885
3541.00,0.4902
3540.00,0.4919
3539.00,0.4936
3538.00,0.4953
3537.00,0.4971
3536.00,0.4988
3535.00,0.5005
3534.00,0.5022
3533.00,0.5040
3532.00,0.5059
3531.00,0.5077
3530.00,0.5094
3529.00,0.5110
3528.00,0.5126
3527.00,0.5141
3526.00,0.5158
3525.00,0.5176
3524.00,0.5195
3523.00,0.5213
3522.00,0.5231
3521.00,0.5248
3520.00,0.5266
3519.00,0.5284
3518.00,0.5303
3517.00,0.5321
3516.00,0.5339
3515.00,0.5358
3514.00,0.5377
3513.00,0.5397
3512.00,0.5416
3511.00,0.5435
3510.00,0.5454
3509.00,0.5473
3508.00,0.5492
3507.00,0.5511
3506.00,0.5531
3505.00,0.5552
3504.00,0.5573
3503.00,0.5593
3502.00,0.5612
3501.00,0.5631
3500.00,0.5651
3499.00,0.5673
3498.00,0.5695
3497.00,0.5716
3496.00,0.5737
3495.00,0.5756
3494.00,0.5776
3493.00,0.5797
3492.00,0.5817
3491.00,0.5839
3490.00,0.5861
3489.00,0.5883
3488.00,0.5906
3487.00,0.5928
3486.00,0.5949
3485.00,0.5970
3484.00,0.5991
3483.00,0.6012
3482.00,0.6034
3481.00,0.6056
3480.00,0.6078
3479.00,0.6100
3478.00,0.6124
3477.00,0.6147
3476.00,0.6170
3475.00,0.6192
3474.00,0.6214
3473.00,0.6237
3472.00,0.6261
3471.00,0.6285
3470.00,0.6310
3469.00,0.6334
3468.00,0.6359
3467.00,0.6384
3466.00,0.6408
3465.00,0.6433
3464.00,0.6457
3463.00,0.6482
3462.00,0.6507
3461.00,0.6533
3460.00,0.6558
3459.00,0.6583
3458.00,0.6608
3457.00,0.6635
3456.00,0.6663
3455.00,0.6691
3454.00,0.6720
3453.00,0.6749
3452.00,0.6779
3451.00,0.6808
3450.00,0.6839
3449.00,0.6873
3448.00,0.6908
3447.00,0.6944
3446.00,0.6980
3445.00,0.7017
3444.00,0.7055
3443.00,0.7093
3442.00,0.7132
3441.00,0.7170
3440.00,0.7206
3439.00,0.7242
3438.00,0.7278
3437.00,0.7311
3436.00,0.7343
3435.00,0.7371
3434.00,0.7397
3433.00,0.7422
3432.00,0.7446
3431.00,0.7469
3430.00,0.7493
3429.00,0.7516
3428.00,0.7539
3427.00,0.7561
3426.00,0.7583
3425.00,0.7605
3424.00,0.7626
3423.00,0.7646
3422.00,0.7666
3421.00,0.7687
3420.00,0.7709
3419.00,0.7731
3418.00,0.7752
3417.00,0.7773
3416.00,0.7794
3415.00,0.7815
3414.00,0.7837
3413.00,0.7859
3412.00,0.7881
3411.00,0.7903
3410.00,0.7925
3409.00,0.7948
3408.00,0.7971
3407.00,0.7992
3406.00,0.8013
3405.00,0.8033
3404.00,0.8053
3403.00,0.8071
3402.00,0.8089
3401.00,0.8108
3400.00,0.8127
3399.00,0.8145
3398.00,0.8163
3397.00,0.8180
3396.00,0.8196
3395.00,0.8213
3394.00,0.8231
3393.00,0.8249
3392.00,0.8266
3391.00,0.8282
3390.00,0.8297
3389.00,0.8311
3388.00,0.8325
3387.00,0.8338
3386.00,0.8352
3385.00,0.8365
3384.00,0.8378
3383.00,0.8391
3382.00,0.8405
3381.00,0.8419
3380.00,0.8433
3379.00,0.8447
3378.00,0.8461
3377.00,0.8475
3376.00,0.8487
3375.00,0.8498
3374.00,0.8508
3373.00,0.8520
3372.00,0.8534
3371.00,0.8550
3370.00,0.8566
3369.00,0.8581
3368.00,0.8593
3367.00,0.8602
3366.00,0.8612
3365.00,0.8623
3364.00,0.8636
3363.00,0.8649
3362.00,0.8661
3361.00,0.8672
3360.00,0.8683
3359.00,0.8694
3358.00,0.8706
3357.00,0.8718
3356.00,0.8729
3355.00,0.8739
3354.00,0.8747
3353.00,0.8756
3352.00,0.8764
3351.00,0.8773
3350.00,0.8782
3349.00,0.8790
3348.00,0.8797
3347.00,0.8802
3346.00,0.8807
3345.00,0.8812
3344.00,0.8816
3343.00,0.8819
3342.00,0.8819
3341.00,0.8819
3340.00,0.8818
3339.00,0.8818
3338.00,0.8816
3337.00,0.8813
3336.00,0.8809
3335.00,0.8803
3334.00,0.8798
3333.00,0.8792
3332.00,0.8785
3331.00,0.8776
3330.00,0.8767
3329.00,0.8757
3328.00,0.8746
3327.00,0.8733
3326.00,0.8720
3325.00,0.8707
3324.00,0.8694
3323.00,0.8679
3322.00,0.8665
3321.00,0.8650
3320.00,0.8635
3319.00,0.8619
3318.00,0.8604
3317.00,0.8588
3316.00,0.8572
3315.00,0.8555
3314.00,0.8537
3313.00,0.8519
3312.00,0.8502
3311.00,0.8485
3310.00,0.8469
3309.00,0.8454
3308.00,0.8439
3307.00,0.8423
3306.00,0.8408
3305.00,0.8394
3304.00,0.8380
3303.00,0.8367
3302.00,0.8352
3301.00,0.8337
3300.00,0.8322
3299.00,0.8307
3298.00,0.8294
3297.00,0.8282
3296.00,0.8272
3295.00,0.8262
3294.00,0.8253
3293.00,0.8245
3292.00,0.8235
3291.00,0.8225
3290.00,0.8216
3289.00,0.8207
3288.00,0.8200
3287.00,0.8191
3286.00,0.8183
3285.00,0.8175
3284.00,0.8169
3283.00,0.8164
3282.00,0.8159
3281.00,0.8153
3280.00,0.8147
3279.00,0.8141
3278.00,0.8135
3277.00,0.8129
3276.00,0.8123
3275.00,0.8116
3274.00,0.8110
3273.00,0.8104
3272.00,0.8099
3271.00,0.8094
3270.00,0.8087
3269.00,0.8079
3268.00,0.8072
3267.00,0.8065
3266.00,0.8059
3265.00,0.8051
3264.00,0.8044
3263.00,0.8036
3262.00,0.8029
3261.00,0.8020
3260.00,0.8011
3259.00,0.8000
3258.00,0.7990
3257.00,0.7979
3256.00,0.7969
3255.00,0.7958
3254.00,0.7946
3253.00,0.7934
3252.00,0.7922
3251.00,0.7909
3250.00,0.7895
3249.00,0.7880
3248.00,0.7865
3247.00,0.7849
3246.00,0.7832
3245.00,0.7815
3244.00,0.7798
3243.00,0.7782
3242.00,0.7766
3241.00,0.7749
3240.00,0.7730
3239.00,0.7710
3238.00,0.7689
3237.00,0.7668
3236.00,0.7646
3235.00,0.7623
3234.00,0.7600
3233.00,0.7578
3232.00,0.7557
3231.00,0.7535
3230.00,0.7511
3229.00,0.7487
3228.00,0.7462
3227.00,0.7437
3226.00,0.7413
3225.00,0.7390
3224.00,0.7368
3223.00,0.7344
3222.00,0.7320
3221.00,0.7296
3220.00,0.7271
3219.00,0.7247
3218.00,0.7224
3217.00,0.7202
3216.00,0.7179
3215.00,0.7156
3214.00,0.7132
3213.00,0.7109
3212.00,0.7086
3211.00,0.7064
3210.00,0.7043
3209.00,0.7020
3208.00,0.6997
3207.00,0.6973
3206.00,0.6949
3205.00,0.6926
3204.00,0.6903
3203.00,0.6880
3202.00,0.6858
3201.00,0.6835
3200.00,0.6812
3199.00,0.6789
3198.00,0.6765
3197.00,0.6741
3196.00,0.6718
3195.00,0.6693
3194.00,0.6669
3193.00,0.6645
3192.00,0.6622
3191.00,0.6599
3190.00,0.6577
3189.00,0.6554
3188.00,0.6529
3187.00,0.6503
3186.00,0.6478
3185.00,0.6455
3184.00,0.6432
3183.00,0.6410
3182.00,0.6388
3181.00,0.6365
3180.00,0.6342
3179.00,0.6320
3178.00,0.6297
3177.00,0.6275
3176.00,0.6252
3175.00,0.6228
3174.00,0.6205
3173.00,0.6183
3172.00,0.6161
3171.00,0.6139
3170.00,0.6117
3169.00,0.6096
3168.00,0.6074
3167.00,0.6053
3166.00,0.6031
3165.00,0.6010
3164.00,0.5989
3163.00,0.5968
3162.00,0.5949
3161.00,0.5930
3160.00,0.5911
3159.00,0.5893
3158.00,0.5874
3157.00,0.5855
3156.00,0.5836
3155.00,0.5818
3154.00,0.5801
3153.00,0.5784
3152.00,0.5767
3151.00,0.5750
3150.00,0.5734
3149.00,0.5718
3148.00,0.5702
3147.00,0.5687
3146.00,0.5672
3145.00,0.5658
3144.00,0.5645
3143.00,0.5632
3142.00,0.5619
3141.00,0.5606
3140.00,0.5593
3139.00,0.5580
3138.00,0.5567
3137.00,0.5554
3136.00,0.5541
3135.00,0.5528
3134.00,0.5515
3133.00,0.5503
3132.00,0.5491
3131.00,0.5479
3130.00,0.5467
3129.00,0.5456
3128.00,0.5444
3127.00,0.5434
3126.00,0.5423
3125.00,0.5413
3124.00,0.5403
3123.00,0.5394
3122.00,0.5385
3121.00,0.5377
3120.00,0.5370
3119.00,0.5363
3118.00,0.5358
3117.00,0.5354
3116.00,0.5351
3115.00,0.5348
3114.00,0.5345
3113.00,0.5343
3112.00,0.5342
3111.00,0.5342
3110.00,0.5342
3109.00,0.5343
3108.00,0.5345
3107.00,0.5347
3106.00,0.5349
3105.00,0.5351
3104.00,0.5353
3103.00,0.5355
3102.00,0.5357
3101.00,0.5359
3100.00,0.5362
3099.00,0.5365
3098.00,0.5369
3097.00,0.5373
3096.00,0.5375
3095.00,0.5378
3094.00,0.5380
3093.00,0.5383
3092.00,0.5386
3091.00,0.5391
3090.00,0.5396
3089.00,0.5402
3088.00,0.5408
3087.00,0.5416
3086.00,0.5424
3085.00,0.5434
3084.00,0.5444
3083.00,0.5456
3082.00,0.5468
3081.00,0.5481
3080.00,0.5494
3079.00,0.5509
3078.00,0.5525
3077.00,0.5543
3076.00,0.5561
3075.00,0.5580
3074.00,0.5600
3073.00,0.5622
3072.00,0.5645
3071.00,0.5670
3070.00,0.5695
3069.00,0.5721
3068.00,0.5747
3067.00,0.5774
3066.00,0.5802
3065.00,0.5832
3064.00,0.5862
3063.00,0.5891
3062.00,0.5921
3061.00,0.5952
3060.00,0.5983
3059.00,0.6015
3058.00,0.6046
3057.00,0.6077
3056.00,0.6106
3055.00,0.6134
3054.00,0.6162
3053.00,0.6189
3052.00,0.6215
3051.00,0.6240
3050.00,0.6264
3049.00,0.6289
3048.00,0.6315
3047.00,0.6342
3046.00,0.6371
3045.00,0.6402
3044.00,0.6433
3043.00,0.6466
3042.00,0.6500
3041.00,0.6537
3040.00,0.6576
3039.00,0.6617
3038.00,0.6661
3037.00,0.6707
3036.00,0.6756
3035.00,0.6806
3034.00,0.6858
3033.00,0.6912
3032.00,0.6967
3031.00,0.7024
3030.00,0.7082
3029.00,0.7140
3028.00,0.7198
3027.00,0.7256
3026.00,0.7314
3025.00,0.7373
3024.00,0.7433
3023.00,0.7496
3022.00,0.7560
3021.00,0.7626
3020.00,0.7694
3019.00,0.7764
3018.00,0.7836
3017.00,0.7913
3016.00,0.7994
3015.00,0.8079
3014.00,0.8168
3013.00,0.8264
3012.00,0.8365
3011.00,0.8473
3010.00,0.8589
3009.00,0.8711
3008.00,0.8840
3007.00,0.8975
3006.00,0.9117
3005.00,0.9268
3004.00,0.9427
3003.00,0.9595
3002.00,0.9772
3001.00,0.9957
3000.00,1.0154
2999.00,1.0366
2998.00,1.0595
2997.00,1.0839
2996.00,1.1098
2995.00,1.1374
2994.00,1.1671
2993.00,1.1991
2992.00,1.2335
2991.00,1.2705
2990.00,1.3102
2989.00,1.3529
2988.00,1.3994
2987.00,1.4504
2986.00,1.5066
2985.00,1.5682
2984.00,1.6355
2983.00,1.7091
2982.00,1.7901
2981.00,1.8799
2980.00,1.9801
2979.00,2.0917
2978.00,2.2152
2977.00,2.3496
2976.00,2.4941
2975.00,2.6518
2974.00,2.8302
2973.00,3.0357
2972.00,3.2628
2971.00,3.4949
2970.00,3.7177
2969.00,3.9261
2968.00,4.0808
2967.00,4.1498
2966.00,4.1452
2965.00,4.0508
2964.00,3.9481
2963.00,3.9129
2962.00,3.9687
2961.00,4.0550
2960.00,4.0810
2959.00,4.0760
2958.00,4.0655
2957.00,4.0316
2956.00,3.9760
2955.00,3.9074
2954.00,3.8577
2953.00,3.8869
2952.00,4.1175
2951.00,4.3926
2950.00,4.1700
2949.00,3.9758
2948.00,3.9866
2947.00,4.2353
2946.00,4.3922
2945.00,4.3281
2944.00,4.1469
2943.00,3.9643
2942.00,3.8939
2941.00,3.9106
2940.00,3.9640
2939.00,3.9763
2938.00,3.9945
2937.00,4.2134
2936.00,4.5373
2935.00,4.6832
2934.00,4.6357
2933.00,4.2829
2932.00,4.0959
2931.00,4.0324
2930.00,4.3206
2929.00,4.4577
2928.00,4.1822
2927.00,4.0814
2926.00,4.2017
2925.00,4.2616
2924.00,4.1636
2923.00,4.2363
2922.00,4.1460
2921.00,3.9276
2920.00,3.7844
2919.00,3.7776
2918.00,3.8497
2917.00,3.9494
2916.00,4.1414
2915.00,4.2840
2914.00,4.2137
2913.00,4.1697
2912.00,4.3430
2911.00,4.6901
2910.00,4.5008
2909.00,4.2318
2908.00,4.1331
2907.00,4.3208
2906.00,4.6453
2905.00,4.5697
2904.00,4.5256
2903.00,4.4669
2902.00,4.4202
2901.00,4.1506
2900.00,3.9391
2899.00,3.8844
2898.00,4.0199
2897.00,4.4453
2896.00,4.4416
2895.00,4.3333
2894.00,4.4525
2893.00,4.5350
2892.00,4.2153
2891.00,4.0180
2890.00,4.0493
2889.00,4.1676
2888.00,4.2810
2887.00,4.2486
2886.00,4.1198
2885.00,4.0326
2884.00,4.0312
2883.00,4.0297
2882.00,4.0086
2881.00,4.0120
2880.00,4.0258
2879.00,4.0391
2878.00,4.0363
2877.00,4.0128
2876.00,4.0460
2875.00,4.1420
2874.00,4.1578
2873.00,4.1166
2872.00,4.1803
2871.00,4.4657
2870.00,4.5299
2869.00,4.1454
2868.00,3.8976
2867.00,3.8220
2866.00,3.8788
2865.00,4.0244
2864.00,4.1523
2863.00,4.1403
2862.00,4.1530
2861.00,4.2666
2860.00,4.2024
2859.00,4.0342
2858.00,3.9728
2857.00,4.0452
2856.00,4.0947
2855.00,4.1778
2854.00,4.3199
2853.00,4.2014
2852.00,4.0162
2851.00,3.9471
2850.00,3.9995
2849.00,4.0791
2848.00,4.2881
2847.00,4.5066
2846.00,4.2568
2845.00,4.1401
2844.00,4.3484
2843.00,4.4659
2842.00,4.0710
2841.00,3.7691
2840.00,3.5375
2839.00,3.2947
2838.00,3.0613
2837.00,2.8564
2836.00,2.6718
2835.00,2.5055
2834.00,2.3562
2833.00,2.2219
2832.00,2.1015
2831.00,1.9939
2830.00,1.8970
2829.00,1.8093
2828.00,1.7298
2827.00,1.6583
2826.00,1.5938
2825.00,1.5351
2824.00,1.4813
2823.00,1.4321
2822.00,1.3870
2821.00,1.3453
2820.00,1.3068
2819.00,1.2711
2818.00,1.2380
2817.00,1.2073
2816.00,1.1785
2815.00,1.1514
2814.00,1.1255
2813.00,1.1010
2812.00,1.0779
2811.00,1.0560
2810.00,1.0350
2809.00,1.0147
2808.00,0.9950
2807.00,0.9760
2806.00,0.9578
2805.00,0.9402
2804.00,0.9229
2803.00,0.9060
2802.00,0.8895
2801.00,0.8736
2800.00,0.8582
2799.00,0.8435
2798.00,0.8295
2797.00,0.8161
2796.00,0.8034
2795.00,0.7914
2794.00,0.7801
2793.00,0.7693
2792.00,0.7589
2791.00,0.7489
2790.00,0.7394
2789.00,0.7303
2788.00,0.7216
2787.00,0.7130
2786.00,0.7046
2785.00,0.6962
2784.00,0.6877
2783.00,0.6793
2782.00,0.6711
2781.00,0.6629
2780.00,0.6550
2779.00,0.6475
2778.00,0.6403
2777.00,0.6334
2776.00,0.6267
2775.00,0.6202
2774.00,0.6141
2773.00,0.6083
2772.00,0.6031
2771.00,0.5984
2770.00,0.5942
2769.00,0.5904
2768.00,0.5869
2767.00,0.5838
2766.00,0.5810
2765.00,0.5784
2764.00,0.5762
2763.00,0.5743
2762.00,0.5726
2761.00,0.5712
2760.00,0.5699
2759.00,0.5688
2758.00,0.5679
2757.00,0.5671
2756.00,0.5665
2755.00,0.5661
2754.00,0.5660
2753.00,0.5660
2752.00,0.5662
2751.00,0.5666
2750.00,0.5672
2749.00,0.5680
2748.00,0.5689
2747.00,0.5700
2746.00,0.5712
2745.00,0.5726
2744.00,0.5742
2743.00,0.5760
2742.00,0.5780
2741.00,0.5803
2740.00,0.5828
2739.00,0.5858
2738.00,0.5891
2737.00,0.5930
2736.00,0.5972
2735.00,0.6017
2734.00,0.6063
2733.00,0.6105
2732.00,0.6138
2731.00,0.6155
2730.00,0.6153
2729.00,0.6131
2728.00,0.6092
2727.00,0.6040
2726.00,0.5982
2725.00,0.5925
2724.00,0.5871
2723.00,0.5823
2722.00,0.5783
2721.00,0.5749
2720.00,0.5723
2719.00,0.5700
2718.00,0.5681
2717.00,0.5662
2716.00,0.5643
2715.00,0.5622
2714.00,0.5599
2713.00,0.5575
2712.00,0.5550
2711.00,0.5525
2710.00,0.5501
2709.00,0.5478
2708.00,0.5457
2707.00,0.5438
2706.00,0.5422
2705.00,0.5408
2704.00,0.5397
2703.00,0.5388
2702.00,0.5382
2701.00,0.5378
2700.00,0.5378
2699.00,0.5379
2698.00,0.5384
2697.00,0.5392
2696.00,0.5402
2695.00,0.5415
2694.00,0.5429
2693.00,0.5445
2692.00,0.5462
2691.00,0.5480
2690.00,0.5497
2689.00,0.5512
2688.00,0.5525
2687.00,0.5537
2686.00,0.5546
2685.00,0.5554
2684.00,0.5561
2683.00,0.5566
2682.00,0.5571
2681.00,0.5575
2680.00,0.5577
2679.00,0.5580
2678.00,0.5582
2677.00,0.5585
2676.00,0.5588
2675.00,0.5590
2674.00,0.5591
2673.00,0.5590
2672.00,0.5588
2671.00,0.5582
2670.00,0.5573
2669.00,0.5560
2668.00,0.5543
2667.00,0.5522
2666.00,0.5499
2665.00,0.5472
2664.00,0.5444
2663.00,0.5415
2662.00,0.5387
2661.00,0.5360
2660.00,0.5335
2659.00,0.5311
2658.00,0.5287
2657.00,0.5263
2656.00,0.5239
2655.00,0.5217
2654.00,0.5196
2653.00,0.5177
2652.00,0.5157
2651.00,0.5138
2650.00,0.5119
2649.00,0.5100
2648.00,0.5082
2647.00,0.5064
2646.00,0.5048
2645.00,0.5033
2644.00,0.5018
2643.00,0.5003
2642.00,0.4989
2641.00,0.4976
2640.00,0.4963
2639.00,0.4951
2638.00,0.4940
2637.00,0.4928
2636.00,0.4917
2635.00,0.4906
2634.00,0.4894
2633.00,0.4881
2632.00,0.4869
2631.00,0.4856
2630.00,0.4843
2629.00,0.4830
2628.00,0.4816
2627.00,0.4802
2626.00,0.4788
2625.00,0.4774
2624.00,0.4761
2623.00,0.4748
2622.00,0.4735
2621.00,0.4724
2620.00,0.4712
2619.00,0.4701
2618.00,0.4689
2617.00,0.4678
2616.00,0.4666
2615.00,0.4653
2614.00,0.4641
2613.00,0.4630
2612.00,0.4619
2611.00,0.4609
2610.00,0.4598
2609.00,0.4587
2608.00,0.4577
2607.00,0.4566
2606.00,0.4556
2605.00,0.4547
2604.00,0.4538
2603.00,0.4529
2602.00,0.4519
2601.00,0.4510
2600.00,0.4500
2599.00,0.4489
2598.00,0.4477
2597.00,0.4466
2596.00,0.4453
2595.00,0.4441
2594.00,0.4428
2593.00,0.4416
2592.00,0.4404
2591.00,0.4392
2590.00,0.4380
2589.00,0.4368
2588.00,0.4356
2587.00,0.4344
2586.00,0.4332
2585.00,0.4320
2584.00,0.4307
2583.00,0.4292
2582.00,0.4277
2581.00,0.4261
2580.00,0.4244
2579.00,0.4228
2578.00,0.4212
2577.00,0.4196
2576.00,0.4182
2575.00,0.4168
2574.00,0.4154
2573.00,0.4140
2572.00,0.4125
2571.00,0.4111
2570.00,0.4098
2569.00,0.4085
2568.00,0.4073
2567.00,0.4061
2566.00,0.4049
2565.00,0.4037
2564.00,0.4026
2563.00,0.4014
2562.00,0.4002
2561.00,0.3991
2560.00,0.3980
2559.00,0.3970
2558.00,0.3959
2557.00,0.3949
2556.00,0.3939
2555.00,0.3929
2554.00,0.3919
2553.00,0.3910
2552.00,0.3901
2551.00,0.3892
2550.00,0.3884
2549.00,0.3876
2548.00,0.3869
2547.00,0.3862
2546.00,0.3855
2545.00,0.3848
2544.00,0.3842
2543.00,0.3837
2542.00,0.3832
2541.00,0.3827
2540.00,0.3822
2539.00,0.3817
2538.00,0.3812
2537.00,0.3807
2536.00,0.3802
2535.00,0.3796
2534.00,0.3789
2533.00,0.3781
2532.00,0.3773
2531.00,0.3764
2530.00,0.3753
2529.00,0.3743
2528.00,0.3731
2527.00,0.3718
2526.00,0.3706
2525.00,0.3693
2524.00,0.3680
2523.00,0.3668
2522.00,0.3656
2521.00,0.3645
2520.00,0.3633
2519.00,0.3622
2518.00,0.3611
2517.00,0.3601
2516.00,0.3591
2515.00,0.3582
2514.00,0.3572
2513.00,0.3563
2512.00,0.3553
2511.00,0.3543
2510.00,0.3534
2509.00,0.3525
2508.00,0.3516
2507.00,0.3508
2506.00,0.3501
2505.00,0.3495
2504.00,0.3489
2503.00,0.3484
2502.00,0.3480
2501.00,0.3475
2500.00,0.3471
2499.00,0.3468
2498.00,0.3464
2497.00,0.3459
2496.00,0.3455
2495.00,0.3450
2494.00,0.3445
2493.00,0.3441
2492.00,0.3436
2491.00,0.3432
2490.00,0.3427
2489.00,0.3423
2488.00,0.3419
2487.00,0.3415
2486.00,0.3410
2485.00,0.3405
2484.00,0.3401
2483.00,0.3396
2482.00,0.3391
2481.00,0.3386
2480.00,0.3381
2479.00,0.3376
2478.00,0.3370
2477.00,0.3364
2476.00,0.3358
2475.00,0.3352
2474.00,0.3346
2473.00,0.3340
2472.00,0.3334
2471.00,0.3328
2470.00,0.3322
2469.00,0.3317
2468.00,0.3311
2467.00,0.3306
2466.00,0.3302
2465.00,0.3297
2464.00,0.3293
2463.00,0.3290
2462.00,0.3286
2461.00,0.3282
2460.00,0.3279
2459.00,0.3276
2458.00,0.3274
2457.00,0.3273
2456.00,0.3272
2455.00,0.3272
2454.00,0.3272
2453.00,0.3272
2452.00,0.3272
2451.00,0.3273
2450.00,0.3274
2449.00,0.3275
2448.00,0.3275
2447.00,0.3276
2446.00,0.3277
2445.00,0.3279
2444.00,0.3280
2443.00,0.3282
2442.00,0.3283
2441.00,0.3285
2440.00,0.3286
2439.00,0.3287
2438.00,0.3288
2437.00,0.3288
2436.00,0.3289
2435.00,0.3290
2434.00,0.3290
2433.00,0.3290
2432.00,0.3289
2431.00,0.3288
2430.00,0.3288
2429.00,0.3288
2428.00,0.3289
2427.00,0.3290
2426.00,0.3290
2425.00,0.3290
2424.00,0.3291
2423.00,0.3290
2422.00,0.3291
2421.00,0.3291
2420.00,0.3292
2419.00,0.3293
2418.00,0.3294
2417.00,0.3294
2416.00,0.3295
2415.00,0.3296
2414.00,0.3296
2413.00,0.3297
2412.00,0.3298
2411.00,0.3299
2410.00,0.3300
2409.00,0.3300
2408.00,0.3301
2407.00,0.3302
2406.00,0.3304
2405.00,0.3305
2404.00,0.3306
2403.00,0.3306
2402.00,0.3307
2401.00,0.3308
2400.00,0.3310
2399.00,0.3310
2398.00,0.3311
2397.00,0.3313
2396.00,0.3314
2395.00,0.3316
2394.00,0.3317
2393.00,0.3319
2392.00,0.3321
2391.00,0.3323
2390.00,0.3325
2389.00,0.3327
2388.00,0.3329
2387.00,0.3331
2386.00,0.3334
2385.00,0.3337
2384.00,0.3340
2383.00,0.3343
2382.00,0.3347
2381.00,0.3351
2380.00,0.3356
2379.00,0.3359
2378.00,0.3362
2377.00,0.3364
2376.00,0.3365
2375.00,0.3366
2374.00,0.3367
2373.00,0.3369
2372.00,0.3370
2371.00,0.3371
2370.00,0.3372
2369.00,0.3374
2368.00,0.3376
2367.00,0.3377
2366.00,0.3378
2365.00,0.3379
2364.00,0.3380
2363.00,0.3381
2362.00,0.3383
2361.00,0.3384
2360.00,0.3385
2359.00,0.3386
2358.00,0.3386
2357.00,0.3387
2356.00,0.3386
2355.00,0.3385
2354.00,0.3384
2353.00,0.3384
2352.00,0.3384
2351.00,0.3385
2350.00,0.3385
2349.00,0.3385
2348.00,0.3384
2347.00,0.3384
2346.00,0.3384
2345.00,0.3384
2344.00,0.3383
2343.00,0.3382
2342.00,0.3381
2341.00,0.3379
2340.00,0.3377
2339.00,0.3375
2338.00,0.3374
2337.00,0.3373
2336.00,0.3373
2335.00,0.3371
2334.00,0.3370
2333.00,0.3368
2332.00,0.3367
2331.00,0.3365
2330.00,0.3362
2329.00,0.3359
2328.00,0.3355
2327.00,0.3352
2326.00,0.3348
2325.00,0.3345
2324.00,0.3343
2323.00,0.3341
2322.00,0.3337
2321.00,0.3334
2320.00,0.3330
2319.00,0.3326
2318.00,0.3323
2317.00,0.3320
2316.00,0.3316
2315.00,0.3313
2314.00,0.3310
2313.00,0.3306
2312.00,0.3303
2311.00,0.3299
2310.00,0.3294
2309.00,0.3289
2308.00,0.3283
2307.00,0.3277
2306.00,0.3272
2305.00,0.3268
2304.00,0.3263
2303.00,0.3258
2302.00,0.3253
2301.00,0.3249
2300.00,0.3244
2299.00,0.3240
2298.00,0.3236
2297.00,0.3233
2296.00,0.3229
2295.00,0.3225
2294.00,0.3221
2293.00,0.3218
2292.00,0.3213
2291.00,0.3209
2290.00,0.3204
2289.00,0.3199
2288.00,0.3195
2287.00,0.3191
2286.00,0.3187
2285.00,0.3183
2284.00,0.3179
2283.00,0.3175
2282.00,0.3172
2281.00,0.3170
2280.00,0.3168
2279.00,0.3165
2278.00,0.3163
2277.00,0.3161
2276.00,0.3159
2275.00,0.3157
2274.00,0.3156
2273.00,0.3155
2272.00,0.3154
2271.00,0.3153
2270.00,0.3152
2269.00,0.3151
2268.00,0.3150
2267.00,0.3149
2266.00,0.3148
2265.00,0.3147
2264.00,0.3146
2263.00,0.3144
2262.00,0.3142
2261.00,0.3140
2260.00,0.3138
2259.00,0.3135
2258.00,0.3131
2257.00,0.3128
2256.00,0.3126
2255.00,0.3123
2254.00,0.3120
2253.00,0.3117
2252.00,0.3115
2251.00,0.3112
2250.00,0.3108
2249.00,0.3105
2248.00,0.3102
2247.00,0.3100
2246.00,0.3097
2245.00,0.3095
2244.00,0.3093
2243.00,0.3091
2242.00,0.3089
2241.00,0.3087
2240.00,0.3085
2239.00,0.3083
2238.00,0.3081
2237.00,0.3079
2236.00,0.3078
2235.00,0.3076
2234.00,0.3074
2233.00,0.3072
2232.00,0.3071
2231.00,0.3070
2230.00,0.3070
2229.00,0.3069
2228.00,0.3068
2227.00,0.3067
2226.00,0.3065
2225.00,0.3064
2224.00,0.3063
2223.00,0.3062
2222.00,0.3061
2221.00,0.3060
2220.00,0.3059
2219.00,0.3058
2218.00,0.3057
2217.00,0.3056
2216.00,0.3056
2215.00,0.3055
2214.00,0.3054
2213.00,0.3053
2212.00,0.3053
2211.00,0.3052
2210.00,0.3051
2209.00,0.3051
2208.00,0.3052
2207.00,0.3052
2206.00,0.3053
2205.00,0.3054
2204.00,0.3055
2203.00,0.3055
2202.00,0.3057
2201.00,0.3058
2200.00,0.3060
2199.00,0.3061
2198.00,0.3062
2197.00,0.3063
2196.00,0.3064
2195.00,0.3066
2194.00,0.3067
2193.00,0.3068
2192.00,0.3069
2191.00,0.3070
2190.00,0.3071
2189.00,0.3072
2188.00,0.3073
2187.00,0.3073
2186.00,0.3074
2185.00,0.3074
2184.00,0.3075
2183.00,0.3075
2182.00,0.3075
2181.00,0.3075
2180.00,0.3075
2179.00,0.3074
2178.00,0.3074
2177.00,0.3073
2176.00,0.3073
2175.00,0.3073
2174.00,0.3073
2173.00,0.3074
2172.00,0.3075
2171.00,0.3076
2170.00,0.3077
2169.00,0.3078
2168.00,0.3079
2167.00,0.3079
2166.00,0.3080
2165.00,0.3081
2164.00,0.3081
2163.00,0.3082
2162.00,0.3082
2161.00,0.3083
2160.00,0.3083
2159.00,0.3083
2158.00,0.3083
2157.00,0.3083
2156.00,0.3084
2155.00,0.3084
2154.00,0.3083
2153.00,0.3083
2152.00,0.3082
2151.00,0.3081
2150.00,0.3079
2149.00,0.3076
2148.00,0.3072
2147.00,0.3067
2146.00,0.3061
2145.00,0.3055
2144.00,0.3048
2143.00,0.3041
2142.00,0.3033
2141.00,0.3026
2140.00,0.3018
2139.00,0.3012
2138.00,0.3006
2137.00,0.3000
2136.00,0.2996
2135.00,0.2992
2134.00,0.2989
2133.00,0.2986
2132.00,0.2984
2131.00,0.2982
2130.00,0.2980
2129.00,0.2978
2128.00,0.2977
2127.00,0.2975
2126.00,0.2974
2125.00,0.2973
2124.00,0.2972
2123.00,0.2971
2122.00,0.2970
2121.00,0.2970
2120.00,0.2969
2119.00,0.2968
2118.00,0.2967
2117.00,0.2966
2116.00,0.2965
2115.00,0.2964
2114.00,0.2962
2113.00,0.2960
2112.00,0.2959
2111.00,0.2957
2110.00,0.2956
2109.00,0.2954
2108.00,0.2953
2107.00,0.2952
2106.00,0.2951
2105.00,0.2950
2104.00,0.2950
2103.00,0.2949
2102.00,0.2948
2101.00,0.2947
2100.00,0.2947
2099.00,0.2946
2098.00,0.2945
2097.00,0.2945
2096.00,0.2945
2095.00,0.2945
2094.00,0.2945
2093.00,0.2944
2092.00,0.2944
2091.00,0.2943
2090.00,0.2942
2089.00,0.2942
2088.00,0.2942
2087.00,0.2942
2086.00,0.2942
2085.00,0.2942
2084.00,0.2942
2083.00,0.2942
2082.00,0.2942
2081.00,0.2943
2080.00,0.2944
2079.00,0.2944
2078.00,0.2945
2077.00,0.2945
2076.00,0.2946
2075.00,0.2947
2074.00,0.2947
2073.00,0.2948
2072.00,0.2949
2071.00,0.2950
2070.00,0.2951
2069.00,0.2952
2068.00,0.2953
2067.00,0.2954
2066.00,0.2956
2065.00,0.2957
2064.00,0.2959
2063.00,0.2961
2062.00,0.2962
2061.00,0.2964
2060.00,0.2965
2059.00,0.2967
2058.00,0.2969
2057.00,0.2972
2056.00,0.2975
2055.00,0.2978
2054.00,0.2982
2053.00,0.2986
2052.00,0.2991
2051.00,0.2995
2050.00,0.2999
2049.00,0.3003
2048.00,0.3007
2047.00,0.3011
2046.00,0.3015
2045.00,0.3018
2044.00,0.3021
2043.00,0.3024
2042.00,0.3026
2041.00,0.3029
2040.00,0.3031
2039.00,0.3033
2038.00,0.3034
2037.00,0.3036
2036.00,0.3037
2035.00,0.3039
2034.00,0.3041
2033.00,0.3043
2032.00,0.3047
2031.00,0.3050
2030.00,0.3053
2029.00,0.3056
2028.00,0.3060
2027.00,0.3063
2026.00,0.3066
2025.00,0.3067
2024.00,0.3067
2023.00,0.3065
2022.00,0.3061
2021.00,0.3054
2020.00,0.3046
2019.00,0.3036
2018.00,0.3025
2017.00,0.3014
2016.00,0.3002
2015.00,0.2990
2014.00,0.2978
2013.00,0.2967
2012.00,0.2956
2011.00,0.2946
2010.00,0.2937
2009.00,0.2929
2008.00,0.2922
2007.00,0.2916
2006.00,0.2910
2005.00,0.2905
2004.00,0.2901
2003.00,0.2898
2002.00,0.2894
2001.00,0.2891
2000.00,0.2889
1999.00,0.2887
1998.00,0.2886
1997.00,0.2885
1996.00,0.2883
1995.00,0.2880
1994.00,0.2877
1993.00,0.2875
1992.00,0.2874
1991.00,0.2874
1990.00,0.2874
1989.00,0.2873
1988.00,0.2873
1987.00,0.2872
1986.00,0.2870
1985.00,0.2869
1984.00,0.2868
1983.00,0.2867
1982.00,0.2866
1981.00,0.2865
1980.00,0.2863
1979.00,0.2862
1978.00,0.2860
1977.00,0.2859
1976.00,0.2859
1975.00,0.2858
1974.00,0.2857
1973.00,0.2856
1972.00,0.2855
1971.00,0.2853
1970.00,0.2851
1969.00,0.2850
1968.00,0.2850
1967.00,0.2851
1966.00,0.2852
1965.00,0.2853
1964.00,0.2854
1963.00,0.2854
1962.00,0.2854
1961.00,0.2854
1960.00,0.2855
1959.00,0.2856
1958.00,0.2857
1957.00,0.2858
1956.00,0.2860
1955.00,0.2861
1954.00,0.2863
1953.00,0.2864
1952.00,0.2866
1951.00,0.2867
1950.00,0.2868
1949.00,0.2868
1948.00,0.2868
1947.00,0.2867
1946.00,0.2866
1945.00,0.2865
1944.00,0.2865
1943.00,0.2867
1942.00,0.2870
1941.00,0.2873
1940.00,0.2876
1939.00,0.2877
1938.00,0.2878
1937.00,0.2878
1936.00,0.2878
1935.00,0.2877
1934.00,0.2877
1933.00,0.2877
1932.00,0.2878
1931.00,0.2878
1930.00,0.2878
1929.00,0.2878
1928.00,0.2879
1927.00,0.2879
1926.00,0.2878
1925.00,0.2878
1924.00,0.2880
1923.00,0.2883
1922.00,0.2886
1921.00,0.2889
1920.00,0.2893
1919.00,0.2898
1918.00,0.2902
1917.00,0.2906
1916.00,0.2907
1915.00,0.2908
1914.00,0.2908
1913.00,0.2908
1912.00,0.2908
1911.00,0.2907
1910.00,0.2906
1909.00,0.2907
1908.00,0.2907
1907.00,0.2907
1906.00,0.2906
1905.00,0.2905
1904.00,0.2904
1903.00,0.2904
1902.00,0.2904
1901.00,0.2904
1900.00,0.2904
1899.00,0.2902
1898.00,0.2901
1897.00,0.2900
1896.00,0.2901
1895.00,0.2901
1894.00,0.2901
1893.00,0.2899
1892.00,0.2898
1891.00,0.2896
1890.00,0.2897
1889.00,0.2900
1888.00,0.2904
1887.00,0.2906
1886.00,0.2907
1885.00,0.2908
1884.00,0.2909
1883.00,0.2910
1882.00,0.2910
1881.00,0.2911
1880.00,0.2911
1879.00,0.2912
1878.00,0.2912
1877.00,0.2912
1876.00,0.2913
1875.00,0.2913
1874.00,0.2911
1873.00,0.2909
1872.00,0.2905
1871.00,0.2900
1870.00,0.2897
1869.00,0.2897
1868.00,0.2900
1867.00,0.2903
1866.00,0.2905
1865.00,0.2906
1864.00,0.2906
1863.00,0.2904
1862.00,0.2901
1861.00,0.2899
1860.00,0.2897
1859.00,0.2895
1858.00,0.2892
1857.00,0.2891
1856.00,0.2890
1855.00,0.2888
1854.00,0.2886
1853.00,0.2885
1852.00,0.2883
1851.00,0.2881
1850.00,0.2877
1849.00,0.2873
1848.00,0.2869
1847.00,0.2865
1846.00,0.2864
1845.00,0.2869
1844.00,0.2875
1843.00,0.2879
1842.00,0.2881
1841.00,0.2883
1840.00,0.2883
1839.00,0.2883
1838.00,0.2882
1837.00,0.2883
1836.00,0.2885
1835.00,0.2885
1834.00,0.2882
1833.00,0.2878
1832.00,0.2873
1831.00,0.2871
1830.00,0.2871
1829.00,0.2873
1828.00,0.2874
1827.00,0.2874
1826.00,0.2876
1825.00,0.2879
1824.00,0.2882
1823.00,0.2885
1822.00,0.2886
1821.00,0.2887
1820.00,0.2888
1819.00,0.2888
1818.00,0.2888
1817.00,0.2888
1816.00,0.2889
1815.00,0.2888
1814.00,0.2886
1813.00,0.2885
1812.00,0.2885
1811.00,0.2887
1810.00,0.2890
1809.00,0.2894
1808.00,0.2898
1807.00,0.2901
1806.00,0.2902
1805.00,0.2902
1804.00,0.2902
1803.00,0.2902
1802.00,0.2903
1801.00,0.2907
1800.00,0.2913
1799.00,0.2919
1798.00,0.2922
1797.00,0.2924
1796.00,0.2924
1795.00,0.2924
1794.00,0.2926
1793.00,0.2932
1792.00,0.2942
1791.00,0.2952
1790.00,0.2960
1789.00,0.2967
1788.00,0.2972
1787.00,0.2976
1786.00,0.2981
1785.00,0.2986
1784.00,0.2991
1783.00,0.2995
1782.00,0.2998
1781.00,0.3004
1780.00,0.3012
1779.00,0.3018
1778.00,0.3021
1777.00,0.3022
1776.00,0.3021
1775.00,0.3019
1774.00,0.3020
1773.00,0.3024
1772.00,0.3032
1771.00,0.3040
1770.00,0.3047
1769.00,0.3055
1768.00,0.3065
1767.00,0.3071
1766.00,0.3075
1765.00,0.3077
1764.00,0.3082
1763.00,0.3089
1762.00,0.3099
1761.00,0.3110
1760.00,0.3121
1759.00,0.3131
1758.00,0.3145
1757.00,0.3165
1756.00,0.3184
1755.00,0.3200
1754.00,0.3214
1753.00,0.3227
1752.00,0.3242
1751.00,0.3255
1750.00,0.3267
1749.00,0.3281
1748.00,0.3296
1747.00,0.3309
1746.00,0.3319
1745.00,0.3326
1744.00,0.3331
1743.00,0.3334
1742.00,0.3337
1741.00,0.3342
1740.00,0.3346
1739.00,0.3345
1738.00,0.3338
1737.00,0.3330
1736.00,0.3326
1735.00,0.3324
1734.00,0.3325
1733.00,0.3326
1732.00,0.3326
1731.00,0.3326
1730.00,0.3328
1729.00,0.3334
1728.00,0.3339
1727.00,0.3344
1726.00,0.3348
1725.00,0.3354
1724.00,0.3363
1723.00,0.3371
1722.00,0.3377
1721.00,0.3381
1720.00,0.3387
1719.00,0.3396
1718.00,0.3412
1717.00,0.3436
1716.00,0.3463
1715.00,0.3488
1714.00,0.3512
1713.00,0.3534
1712.00,0.3554
1711.00,0.3571
1710.00,0.3587
1709.00,0.3603
1708.00,0.3619
1707.00,0.3636
1706.00,0.3655
1705.00,0.3672
1704.00,0.3683
1703.00,0.3689
1702.00,0.3694
1701.00,0.3697
1700.00,0.3690
1699.00,0.3675
1698.00,0.3663
1697.00,0.3665
1696.00,0.3676
1695.00,0.3685
1694.00,0.3687
1693.00,0.3690
1692.00,0.3694
1691.00,0.3698
1690.00,0.3702
1689.00,0.3708
1688.00,0.3712
1687.00,0.3717
1686.00,0.3724
1685.00,0.3740
1684.00,0.3764
1683.00,0.3787
1682.00,0.3804
1681.00,0.3821
1680.00,0.3839
1679.00,0.3853
1678.00,0.3867
1677.00,0.3883
1676.00,0.3903
1675.00,0.3922
1674.00,0.3936
1673.00,0.3948
1672.00,0.3961
1671.00,0.3977
1670.00,0.4000
1669.00,0.4029
1668.00,0.4055
1667.00,0.4074
1666.00,0.4088
1665.00,0.4104
1664.00,0.4122
1663.00,0.4142
1662.00,0.4163
1661.00,0.4184
1660.00,0.4204
1659.00,0.4219
1658.00,0.4229
1657.00,0.4234
1656.00,0.4241
1655.00,0.4252
1654.00,0.4279
1653.00,0.4325
1652.00,0.4363
1651.00,0.4377
1650.00,0.4382
1649.00,0.4392
1648.00,0.4414
1647.00,0.4448
1646.00,0.4489
1645.00,0.4527
1644.00,0.4557
1643.00,0.4581
1642.00,0.4604
1641.00,0.4627
1640.00,0.4648
1639.00,0.4665
1638.00,0.4685
1637.00,0.4718
1636.00,0.4769
1635.00,0.4825
1634.00,0.4873
1633.00,0.4914
1632.00,0.4953
1631.00,0.4992
1630.00,0.5034
1629.00,0.5084
1628.00,0.5141
1627.00,0.5198
1626.00,0.5255
1625.00,0.5320
1624.00,0.5400
1623.00,0.5491
1622.00,0.5584
1621.00,0.5674
1620.00,0.5762
1619.00,0.5854
1618.00,0.5970
1617.00,0.6123
1616.00,0.6299
1615.00,0.6469
1614.00,0.6632
1613.00,0.6811
1612.00,0.7017
1611.00,0.7242
1610.00,0.7473
1609.00,0.7707
1608.00,0.7937
1607.00,0.8154
1606.00,0.8365
1605.00,0.8596
1604.00,0.8873
1603.00,0.9198
1602.00,0.9569
1601.00,0.9982
1600.00,1.0417
1599.00,1.0841
1598.00,1.1244
1597.00,1.1673
1596.00,1.2177
1595.00,1.2775
1594.00,1.3483
1593.00,1.4355
1592.00,1.5445
1591.00,1.6748
1590.00,1.8254
1589.00,2.0080
1588.00,2.2407
1587.00,2.5252
1586.00,2.8102
1585.00,3.1479
1584.00,3.7960
1583.00,4.0184
1582.00,4.0840
1581.00,4.1788
1580.00,3.8519
1579.00,3.8815
1578.00,4.0532
1577.00,3.7550
1576.00,3.8825
1575.00,4.0101
1574.00,3.7640
1573.00,3.4355
1572.00,3.2473
1571.00,2.9651
1570.00,2.6652
1569.00,2.5015
1568.00,2.4445
1567.00,2.4389
1566.00,2.4609
1565.00,2.5466
1564.00,2.7283
1563.00,2.9595
1562.00,3.0930
1561.00,3.1849
1560.00,3.5701
1559.00,4.1838
1558.00,3.4042
1557.00,3.1215
1556.00,2.9344
1555.00,2.6181
1554.00,2.3085
1553.00,2.0740
1552.00,1.8868
1551.00,1.7159
1550.00,1.5632
1549.00,1.4416
1548.00,1.3490
1547.00,1.2725
1546.00,1.2034
1545.00,1.1418
1544.00,1.0896
1543.00,1.0440
1542.00,1.0011
1541.00,0.9594
1540.00,0.9200
1539.00,0.8861
1538.00,0.8604
1537.00,0.8426
1536.00,0.8295
1535.00,0.8179
1534.00,0.8078
1533.00,0.8024
1532.00,0.8031
1531.00,0.8081
1530.00,0.8160
1529.00,0.8268
1528.00,0.8397
1527.00,0.8519
1526.00,0.8618
1525.00,0.8700
1524.00,0.8782
1523.00,0.8886
1522.00,0.9044
1521.00,0.9267
1520.00,0.9500
1519.00,0.9679
1518.00,0.9782
1517.00,0.9798
1516.00,0.9700
1515.00,0.9482
1514.00,0.9178
1513.00,0.8830
1512.00,0.8476
1511.00,0.8153
1510.00,0.7880
1509.00,0.7660
1508.00,0.7487
1507.00,0.7365
1506.00,0.7307
1505.00,0.7310
1504.00,0.7352
1503.00,0.7411
1502.00,0.7476
1501.00,0.7541
1500.00,0.7597
1499.00,0.7629
1498.00,0.7634
1497.00,0.7630
1496.00,0.7630
1495.00,0.7634
1494.00,0.7648
1493.00,0.7688
1492.00,0.7764
1491.00,0.7877
1490.00,0.8034
1489.00,0.8242
1488.00,0.8493
1487.00,0.8767
1486.00,0.9058
1485.00,0.9365
1484.00,0.9688
1483.00,1.0024
1482.00,1.0384
1481.00,1.0785
1480.00,1.1228
1479.00,1.1717
1478.00,1.2290
1477.00,1.3011
1476.00,1.3921
1475.00,1.5040
1474.00,1.6475
1473.00,1.8475
1472.00,2.1274
1471.00,2.4850
1470.00,2.8924
1469.00,3.3431
1468.00,3.9426
1467.00,4.2666
1466.00,3.9342
1465.00,3.8121
1464.00,3.8168
1463.00,3.9334
1462.00,3.7167
1461.00,3.5406
1460.00,3.5487
1459.00,3.5736
1458.00,3.6297
1457.00,3.8454
1456.00,4.0630
1455.00,3.8248
1454.00,3.6597
1453.00,3.7529
1452.00,4.0392
1451.00,3.9854
1450.00,3.7119
1449.00,3.6483
1448.00,3.7170
1447.00,3.6817
1446.00,3.5599
1445.00,3.5110
1444.00,3.4700
1443.00,3.3382
1442.00,3.2059
1441.00,3.1417
1440.00,3.1031
1439.00,3.0258
1438.00,2.9108
1437.00,2.7753
1436.00,2.6066
1435.00,2.4187
1434.00,2.2422
1433.00,2.0814
1432.00,1.9300
1431.00,1.7894
1430.00,1.6671
1429.00,1.5680
1428.00,1.4917
1427.00,1.4350
1426.00,1.3946
1425.00,1.3690
1424.00,1.3579
1423.00,1.3597
1422.00,1.3709
1421.00,1.3898
1420.00,1.4163
1419.00,1.4494
1418.00,1.4874
1417.00,1.5319
1416.00,1.5860
1415.00,1.6467
1414.00,1.7003
1413.00,1.7259
1412.00,1.7073
1411.00,1.6500
1410.00,1.5761
1409.00,1.5033
1408.00,1.4360
1407.00,1.3715
1406.00,1.3074
1405.00,1.2443
1404.00,1.1855
1403.00,1.1345
1402.00,1.0917
1401.00,1.0559
1400.00,1.0261
1399.00,1.0031
1398.00,0.9869
1397.00,0.9748
1396.00,0.9627
1395.00,0.9477
1394.00,0.9290
1393.00,0.9088
1392.00,0.8898
1391.00,0.8744
1390.00,0.8646
1389.00,0.8626
1388.00,0.8715
1387.00,0.8932
1386.00,0.9279
1385.00,0.9758
1384.00,1.0402
1383.00,1.1268
1382.00,1.2397
1381.00,1.3791
1380.00,1.5367
1379.00,1.6821
1378.00,1.7541
1377.00,1.7167
1376.00,1.6088
1375.00,1.4864
1374.00,1.3814
1373.00,1.3058
1372.00,1.2581
1371.00,1.2296
1370.00,1.2116
1369.00,1.1978
1368.00,1.1841
1367.00,1.1679
1366.00,1.1474
1365.00,1.1217
1364.00,1.0907
1363.00,1.0562
1362.00,1.0223
1361.00,0.9925
1360.00,0.9685
1359.00,0.9499
1358.00,0.9362
1357.00,0.9272
1356.00,0.9225
1355.00,0.9213
1354.00,0.9224
1353.00,0.9243
1352.00,0.9254
1351.00,0.9246
1350.00,0.9222
1349.00,0.9194
1348.00,0.9183
1347.00,0.9205
1346.00,0.9274
1345.00,0.9394
1344.00,0.9550
1343.00,0.9708
1342.00,0.9819
1341.00,0.9836
1340.00,0.9735
1339.00,0.9527
1338.00,0.9247
1337.00,0.8927
1336.00,0.8595
1335.00,0.8275
1334.00,0.7987
1333.00,0.7747
1332.00,0.7560
1331.00,0.7428
1330.00,0.7360
1329.00,0.7365
1328.00,0.7460
1327.00,0.7666
1326.00,0.7980
1325.00,0.8352
1324.00,0.8665
1323.00,0.8787
1322.00,0.8679
1321.00,0.8433
1320.00,0.8177
1319.00,0.7987
1318.00,0.7879
1317.00,0.7837
1316.00,0.7841
1315.00,0.7876
1314.00,0.7936
1313.00,0.8016
1312.00,0.8110
1311.00,0.8209
1310.00,0.8306
1309.00,0.8399
1308.00,0.8493
1307.00,0.8600
1306.00,0.8733
1305.00,0.8893
1304.00,0.9045
1303.00,0.9126
1302.00,0.9091
1301.00,0.8959
1300.00,0.8810
1299.00,0.8719
1298.00,0.8713
1297.00,0.8750
1296.00,0.8745
1295.00,0.8630
1294.00,0.8405
1293.00,0.8134
1292.00,0.7886
1291.00,0.7689
1290.00,0.7538
1289.00,0.7419
1288.00,0.7316
1287.00,0.7216
1286.00,0.7109
1285.00,0.6988
1284.00,0.6857
1283.00,0.6727
1282.00,0.6605
1281.00,0.6498
1280.00,0.6411
1279.00,0.6344
1278.00,0.6292
1277.00,0.6251
1276.00,0.6221
1275.00,0.6205
1274.00,0.6205
1273.00,0.6221
1272.00,0.6255
1271.00,0.6299
1270.00,0.6340
1269.00,0.6358
1268.00,0.6339
1267.00,0.6279
1266.00,0.6189
1265.00,0.6088
1264.00,0.5997
1263.00,0.5929
1262.00,0.5886
1261.00,0.5866
1260.00,0.5864
1259.00,0.5875
1258.00,0.5890
1257.00,0.5901
1256.00,0.5902
1255.00,0.5893
1254.00,0.5876
1253.00,0.5850
1252.00,0.5819
1251.00,0.5785
1250.00,0.5749
1249.00,0.5711
1248.00,0.5672
1247.00,0.5633
1246.00,0.5595
1245.00,0.5556
1244.00,0.5513
1243.00,0.5462
1242.00,0.5403
1241.00,0.5336
1240.00,0.5269
1239.00,0.5208
1238.00,0.5158
1237.00,0.5122
1236.00,0.5100
1235.00,0.5096
1234.00,0.5109
1233.00,0.5140
1232.00,0.5190
1231.00,0.5260
1230.00,0.5342
1229.00,0.5426
1228.00,0.5501
1227.00,0.5565
1226.00,0.5618
1225.00,0.5664
1224.00,0.5707
1223.00,0.5751
1222.00,0.5793
1221.00,0.5818
1220.00,0.5808
1219.00,0.5751
1218.00,0.5658
1217.00,0.5557
1216.00,0.5478
1215.00,0.5435
1214.00,0.5417
1213.00,0.5400
1212.00,0.5357
1211.00,0.5281
1210.00,0.5181
1209.00,0.5077
1208.00,0.4993
1207.00,0.4941
1206.00,0.4916
1205.00,0.4906
1204.00,0.4899
1203.00,0.4888
1202.00,0.4875
1201.00,0.4867
1200.00,0.4872
1199.00,0.4893
1198.00,0.4929
1197.00,0.4973
1196.00,0.5024
1195.00,0.5085
1194.00,0.5159
1193.00,0.5242
1192.00,0.5326
1191.00,0.5394
1190.00,0.5429
1189.00,0.5419
1188.00,0.5368
1187.00,0.5294
1186.00,0.5215
1185.00,0.5144
1184.00,0.5085
1183.00,0.5038
1182.00,0.4999
1181.00,0.4966
1180.00,0.4935
1179.00,0.4905
1178.00,0.4870
1177.00,0.4826
1176.00,0.4774
1175.00,0.4718
1174.00,0.4660
1173.00,0.4604
1172.00,0.4553
1171.00,0.4510
1170.00,0.4475
1169.00,0.4445
1168.00,0.4420
1167.00,0.4398
1166.00,0.4381
1165.00,0.4366
1164.00,0.4356
1163.00,0.4353
1162.00,0.4359
1161.00,0.4374
1160.00,0.4401
1159.00,0.4447
1158.00,0.4520
1157.00,0.4634
1156.00,0.4814
1155.00,0.5095
1154.00,0.5488
1153.00,0.5929
1152.00,0.6268
1151.00,0.6350
1150.00,0.6173
1149.00,0.5884
1148.00,0.5632
1147.00,0.5480
1146.00,0.5419
1145.00,0.5421
1144.00,0.5470
1143.00,0.5562
1142.00,0.5699
1141.00,0.5887
1140.00,0.6130
1139.00,0.6410
1138.00,0.6686
1137.00,0.6907
1136.00,0.7040
1135.00,0.7083
1134.00,0.7048
1133.00,0.6950
1132.00,0.6795
1131.00,0.6594
1130.00,0.6368
1129.00,0.6150
1128.00,0.5966
1127.00,0.5830
1126.00,0.5743
1125.00,0.5697
1124.00,0.5685
1123.00,0.5697
1122.00,0.5722
1121.00,0.5755
1120.00,0.5798
1119.00,0.5858
1118.00,0.5945
1117.00,0.6063
1116.00,0.6203
1115.00,0.6333
1114.00,0.6406
1113.00,0.6382
1112.00,0.6259
1111.00,0.6067
1110.00,0.5851
1109.00,0.5651
1108.00,0.5488
1107.00,0.5367
1106.00,0.5284
1105.00,0.5232
1104.00,0.5205
1103.00,0.5196
1102.00,0.5196
1101.00,0.5201
1100.00,0.5208
1099.00,0.5212
1098.00,0.5209
1097.00,0.5196
1096.00,0.5177
1095.00,0.5155
1094.00,0.5133
1093.00,0.5116
1092.00,0.5110
1091.00,0.5120
1090.00,0.5149
1089.00,0.5195
1088.00,0.5260
1087.00,0.5346
1086.00,0.5452
1085.00,0.5577
1084.00,0.5719
1083.00,0.5876
1082.00,0.6042
1081.00,0.6207
1080.00,0.6360
1079.00,0.6489
1078.00,0.6580
1077.00,0.6622
1076.00,0.6612
1075.00,0.6554
1074.00,0.6459
1073.00,0.6345
1072.00,0.6227
1071.00,0.6119
1070.00,0.6025
1069.00,0.5946
1068.00,0.5883
1067.00,0.5834
1066.00,0.5795
1065.00,0.5767
1064.00,0.5751
1063.00,0.5746
1062.00,0.5752
1061.00,0.5764
1060.00,0.5781
1059.00,0.5798
1058.00,0.5810
1057.00,0.5814
1056.00,0.5811
1055.00,0.5805
1054.00,0.5796
1053.00,0.5791
1052.00,0.5797
1051.00,0.5818
1050.00,0.5853
1049.00,0.5896
1048.00,0.5941
1047.00,0.5985
1046.00,0.6021
1045.00,0.6045
1044.00,0.6059
1043.00,0.6064
1042.00,0.6067
1041.00,0.6072
1040.00,0.6079
1039.00,0.6090
1038.00,0.6100
1037.00,0.6110
1036.00,0.6125
1035.00,0.6151
1034.00,0.6193
1033.00,0.6256
1032.00,0.6342
1031.00,0.6448
1030.00,0.6563
1029.00,0.6671
1028.00,0.6755
1027.00,0.6802
1026.00,0.6805
1025.00,0.6769
1024.00,0.6705
1023.00,0.6630
1022.00,0.6558
1021.00,0.6501
1020.00,0.6468
1019.00,0.6458
1018.00,0.6468
1017.00,0.6490
1016.00,0.6521
1015.00,0.6558
1014.00,0.6597
1013.00,0.6636
1012.00,0.6677
1011.00,0.6721
1010.00,0.6772
1009.00,0.6832
1008.00,0.6899
1007.00,0.6973
1006.00,0.7049
1005.00,0.7127
1004.00,0.7203
1003.00,0.7273
1002.00,0.7333
1001.00,0.7377
1000.00,0.7401
999.00,0.7397
998.00,0.7358
997.00,0.7290
996.00,0.7199
995.00,0.7093
994.00,0.6974
993.00,0.6845
992.00,0.6710
991.00,0.6571
990.00,0.6429
989.00,0.6286
988.00,0.6148
987.00,0.6018
986.00,0.5899
985.00,0.5790
984.00,0.5688
983.00,0.5591
982.00,0.5496
981.00,0.5400
980.00,0.5305
979.00,0.5210
978.00,0.5119
977.00,0.5031
976.00,0.4950
975.00,0.4877
974.00,0.4814
973.00,0.4758
972.00,0.4711
971.00,0.4676
970.00,0.4651
969.00,0.4636
968.00,0.4629
967.00,0.4626
966.00,0.4624
965.00,0.4618
964.00,0.4603
963.00,0.4579
962.00,0.4548
961.00,0.4513
960.00,0.4479
959.00,0.4451
958.00,0.4432
957.00,0.4420
956.00,0.4415
955.00,0.4414
954.00,0.4414
953.00,0.4415
952.00,0.4417
951.00,0.4423
950.00,0.4436
949.00,0.4460
948.00,0.4497
947.00,0.4549
946.00,0.4609
945.00,0.4667
944.00,0.4715
943.00,0.4746
942.00,0.4755
941.00,0.4744
940.00,0.4721
939.00,0.4692
938.00,0.4663
937.00,0.4636
936.00,0.4612
935.00,0.4594
934.00,0.4583
933.00,0.4582
932.00,0.4594
931.00,0.4625
930.00,0.4679
929.00,0.4760
928.00,0.4874
927.00,0.5024
926.00,0.5204
925.00,0.5392
924.00,0.5561
923.00,0.5689
922.00,0.5772
921.00,0.5815
920.00,0.5823
919.00,0.5793
918.00,0.5717
917.00,0.5586
916.00,0.5402
915.00,0.5182
914.00,0.4954
913.00,0.4749
912.00,0.4583
911.00,0.4459
910.00,0.4367
909.00,0.4296
908.00,0.4242
907.00,0.4199
906.00,0.4164
905.00,0.4135
904.00,0.4113
903.00,0.4101
902.00,0.4098
901.00,0.4104
900.00,0.4118
899.00,0.4139
898.00,0.4167
897.00,0.4205
896.00,0.4252
895.00,0.4311
894.00,0.4381
893.00,0.4458
892.00,0.4537
891.00,0.4611
890.00,0.4670
889.00,0.4700
888.00,0.4698
887.00,0.4663
886.00,0.4603
885.00,0.4530
884.00,0.4460
883.00,0.4403
882.00,0.4363
881.00,0.4340
880.00,0.4329
879.00,0.4326
878.00,0.4328
877.00,0.4331
876.00,0.4338
875.00,0.4349
874.00,0.4364
873.00,0.4379
872.00,0.4396
871.00,0.4416
870.00,0.4445
869.00,0.4489
868.00,0.4552
867.00,0.4636
866.00,0.4742
865.00,0.4865
864.00,0.4996
863.00,0.5122
862.00,0.5223
861.00,0.5275
860.00,0.5267
859.00,0.5202
858.00,0.5099
857.00,0.4987
856.00,0.4888
855.00,0.4814
854.00,0.4764
853.00,0.4737
852.00,0.4728
851.00,0.4735
850.00,0.4753
849.00,0.4778
848.00,0.4809
847.00,0.4846
846.00,0.4888
845.00,0.4933
844.00,0.4983
843.00,0.5046
842.00,0.5133
841.00,0.5254
840.00,0.5413
839.00,0.5604
838.00,0.5802
837.00,0.5967
836.00,0.6054
835.00,0.6035
834.00,0.5917
833.00,0.5736
832.00,0.5544
831.00,0.5377
830.00,0.5252
829.00,0.5173
828.00,0.5138
827.00,0.5143
826.00,0.5183
825.00,0.5247
824.00,0.5325
823.00,0.5403
822.00,0.5464
821.00,0.5493
820.00,0.5482
819.00,0.5436
818.00,0.5366
817.00,0.5288
816.00,0.5212
815.00,0.5145
814.00,0.5091
813.00,0.5050
812.00,0.5020
811.00,0.4999
810.00,0.4982
809.00,0.4965
808.00,0.4945
807.00,0.4921
806.00,0.4896
805.00,0.4872
804.00,0.4854
803.00,0.4847
802.00,0.4850
801.00,0.4862
800.00,0.4883
799.00,0.4909
798.00,0.4938
797.00,0.4968
796.00,0.4999
795.00,0.5032
794.00,0.5067
793.00,0.5102
792.00,0.5138
791.00,0.5173
790.00,0.5204
789.00,0.5228
788.00,0.5248
787.00,0.5273
786.00,0.5315
785.00,0.5389
784.00,0.5499
783.00,0.5637
782.00,0.5775
781.00,0.5877
780.00,0.5909
779.00,0.5854
778.00,0.5730
777.00,0.5573
776.00,0.5423
775.00,0.5306
774.00,0.5231
773.00,0.5195
772.00,0.5195
771.00,0.5223
770.00,0.5273
769.00,0.5341
768.00,0.5423
767.00,0.5515
766.00,0.5611
765.00,0.5705
764.00,0.5791
763.00,0.5868
762.00,0.5935
761.00,0.5991
760.00,0.6032
759.00,0.6053
758.00,0.6054
757.00,0.6045
756.00,0.6039
755.00,0.6047
754.00,0.6068
753.00,0.6100
752.00,0.6142
751.00,0.6200
750.00,0.6285
749.00,0.6404
748.00,0.6557
747.00,0.6729
746.00,0.6898
745.00,0.7037
744.00,0.7131
743.00,0.7179
742.00,0.7194
741.00,0.7198
740.00,0.7213
739.00,0.7254
738.00,0.7327
737.00,0.7434
736.00,0.7575
735.00,0.7746
734.00,0.7947
733.00,0.8181
732.00,0.8461
731.00,0.8805
730.00,0.9227
729.00,0.9736
728.00,1.0341
727.00,1.1057
726.00,1.1892
725.00,1.2825
724.00,1.3764
723.00,1.4523
722.00,1.4856
721.00,1.4596
720.00,1.3818
719.00,1.2786
718.00,1.1746
717.00,1.0830
716.00,1.0077
715.00,0.9470
714.00,0.8977
713.00,0.8566
712.00,0.8218
711.00,0.7920
710.00,0.7662
709.00,0.7436
708.00,0.7239
707.00,0.7071
706.00,0.6927
705.00,0.6800
704.00,0.6685
703.00,0.6581
702.00,0.6490
701.00,0.6411
700.00,0.6343
699.00,0.6281
698.00,0.6222
697.00,0.6166
696.00,0.6116
695.00,0.6078
694.00,0.6053
693.00,0.6038
692.00,0.6030
691.00,0.6026
690.00,0.6020
689.00,0.6012
688.00,0.6007
687.00,0.6011
686.00,0.6026
685.00,0.6050
684.00,0.6082
683.00,0.6121
682.00,0.6168
681.00,0.6220
680.00,0.6277
679.00,0.6336
678.00,0.6394
677.00,0.6446
676.00,0.6492
675.00,0.6529
674.00,0.6558
673.00,0.6580
672.00,0.6595
671.00,0.6606
670.00,0.6617
669.00,0.6629
668.00,0.6642
667.00,0.6656
666.00,0.6678
665.00,0.6702
664.00,0.6716
663.00,0.6710
662.00,0.6682
661.00,0.6632
660.00,0.6567
659.00,0.6496
658.00,0.6429
657.00,0.6368
656.00,0.6319
655.00,0.6281
654.00,0.6257
653.00,0.6246
652.00,0.6246
651.00,0.6259
650.00,0.6287
649.00,0.6328
648.00,0.6381
647.00,0.6443
646.00,0.6510
645.00,0.6572
644.00,0.6623
643.00,0.6656
642.00,0.6672
641.00,0.6670
640.00,0.6648
639.00,0.6602
638.00,0.6532
637.00,0.6444
636.00,0.6348
635.00,0.6254
634.00,0.6170
633.00,0.6101
632.00,0.6048
631.00,0.6013
630.00,0.5995
629.00,0.5994
628.00,0.6010
627.00,0.6046
626.00,0.6103
625.00,0.6175
624.00,0.6260
623.00,0.6360
622.00,0.6475
621.00,0.6604
620.00,0.6735
619.00,0.6856
618.00,0.6952
617.00,0.7011
616.00,0.7022
615.00,0.6979
614.00,0.6886
613.00,0.6755
612.00,0.6605
611.00,0.6456
610.00,0.6322
609.00,0.6208
608.00,0.6113
607.00,0.6034
606.00,0.5968
605.00,0.5914
604.00,0.5874
603.00,0.5849
602.00,0.5840
601.00,0.5838
600.00,0.5838
599.00,0.5836
598.00,0.5830
597.00,0.5823
596.00,0.5816
595.00,0.5816
594.00,0.5826
593.00,0.5844
592.00,0.5866
591.00,0.5888
590.00,0.5909
589.00,0.5929
588.00,0.5950
587.00,0.5975
586.00,0.6004
585.00,0.6035
584.00,0.6065
583.00,0.6095
582.00,0.6128
581.00,0.6164
580.00,0.6203
579.00,0.6240
578.00,0.6275
577.00,0.6310
576.00,0.6352
575.00,0.6405
574.00,0.6467
573.00,0.6537
572.00,0.6615
571.00,0.6701
570.00,0.6792
569.00,0.6882
568.00,0.6975
567.00,0.7073
566.00,0.7180
565.00,0.7288
564.00,0.7385
563.00,0.7465
562.00,0.7531
561.00,0.7593
560.00,0.7657
559.00,0.7718
558.00,0.7773
557.00,0.7819
556.00,0.7849
555.00,0.7858
554.00,0.7856
553.00,0.7863
552.00,0.7889
551.00,0.7927
550.00,0.7967
