Created as New Dataset,
cm-1,A
4000.00,0.2607
3999.00,0.2604
3998.00,0.2602
3997.00,0.2599
3996.00,0.2597
3995.00,0.2594
3994.00,0.2591
3993.00,0.2589
3992.00,0.2586
3991.00,0.2584
3990.00,0.2581
3989.00,0.2577
3988.00,0.2573
3987.00,0.2569
3986.00,0.2565
3985.00,0.2561
3984.00,0.2558
3983.00,0.2554
3982.00,0.2551
3981.00,0.2547
3980.00,0.2543
3979.00,0.2540
3978.00,0.2537
3977.00,0.2534
3976.00,0.2531
3975.00,0.2528
3974.00,0.2524
3973.00,0.2521
3972.00,0.2518
3971.00,0.2516
3970.00,0.2513
3969.00,0.2511
3968.00,0.2509
3967.00,0.2506
3966.00,0.2504
3965.00,0.2502
3964.00,0.2500
3963.00,0.2499
3962.00,0.2497
3961.00,0.2495
3960.00,0.2494
3959.00,0.2492
3958.00,0.2492
3957.00,0.2491
3956.00,0.2490
3955.00,0.2489
3954.00,0.2488
3953.00,0.2488
3952.00,0.2487
3951.00,0.2487
3950.00,0.2486
3949.00,0.2484
3948.00,0.2482
3947.00,0.2480
3946.00,0.2480
3945.00,0.2480
3944.00,0.2479
3943.00,0.2478
3942.00,0.2476
3941.00,0.2474
3940.00,0.2472
3939.00,0.2471
3938.00,0.2470
3937.00,0.2469
3936.00,0.2467
3935.00,0.2467
3934.00,0.2468
3933.00,0.2468
3932.00,0.2469
3931.00,0.2470
3930.00,0.2470
3929.00,0.2470
3928.00,0.2471
3927.00,0.2472
3926.00,0.2472
3925.00,0.2471
3924.00,0.2470
3923.00,0.2470
3922.00,0.2471
3921.00,0.2473
3920.00,0.2475
3919.00,0.2476
3918.00,0.2476
3917.00,0.2476
3916.00,0.2475
3915.00,0.2474
3914.00,0.2474
3913.00,0.2472
3912.00,0.2470
3911.00,0.2467
3910.00,0.2465
3909.00,0.2464
3908.00,0.2465
3907.00,0.2468
3906.00,0.2472
3905.00,0.2475
3904.00,0.2478
3903.00,0.2481
3902.00,0.2485
3901.00,0.2490
3900.00,0.2493
3899.00,0.2491
3898.00,0.2486
3897.00,0.2480
3896.00,0.2475
3895.00,0.2471
3894.00,0.2469
3893.00,0.2468
3892.00,0.2467
3891.00,0.2465
3890.00,0.2464
3889.00,0.2464
3888.00,0.2467
3887.00,0.2469
3886.00,0.2469
3885.00,0.2466
3884.00,0.2465
3883.00,0.2466
3882.00,0.2470
3881.00,0.2473
3880.00,0.2470
3879.00,0.2465
3878.00,0.2460
3877.00,0.2458
3876.00,0.2459
3875.00,0.2458
3874.00,0.2456
3873.00,0.2454
3872.00,0.2456
3871.00,0.2459
3870.00,0.2461
3869.00,0.2460
3868.00,0.2457
3867.00,0.2457
3866.00,0.2457
3865.00,0.2456
3864.00,0.2451
3863.00,0.2446
3862.00,0.2442
3861.00,0.2438
3860.00,0.2435
3859.00,0.2433
3858.00,0.2432
3857.00,0.2434
3856.00,0.2437
3855.00,0.2441
3854.00,0.2444
3853.00,0.2445
3852.00,0.2446
3851.00,0.2447
3850.00,0.2446
3849.00,0.2442
3848.00,0.2435
3847.00,0.2427
3846.00,0.2421
3845.00,0.2417
3844.00,0.2416
3843.00,0.2417
3842.00,0.2419
3841.00,0.2423
3840.00,0.2427
3839.00,0.2431
3838.00,0.2434
3837.00,0.2435
3836.00,0.2436
3835.00,0.2436
3834.00,0.2435
3833.00,0.2432
3832.00,0.2425
3831.00,0.2418
3830.00,0.2411
3829.00,0.2407
3828.00,0.2405
3827.00,0.2403
3826.00,0.2401
3825.00,0.2400
3824.00,0.2402
3823.00,0.2406
3822.00,0.2410
3821.00,0.2410
3820.00,0.2408
3819.00,0.2408
3818.00,0.2411
3817.00,0.2412
3816.00,0.2408
3815.00,0.2399
3814.00,0.2391
3813.00,0.2387
3812.00,0.2385
3811.00,0.2382
3810.00,0.2378
3809.00,0.2376
3808.00,0.2374
3807.00,0.2373
3806.00,0.2372
3805.00,0.2372
3804.00,0.2376
3803.00,0.2381
3802.00,0.2382
3801.00,0.2379
3800.00,0.2376
3799.00,0.2374
3798.00,0.2375
3797.00,0.2372
3796.00,0.2366
3795.00,0.2357
3794.00,0.2349
3793.00,0.2344
3792.00,0.2339
3791.00,0.2335
3790.00,0.2330
3789.00,0.2325
3788.00,0.2322
3787.00,0.2320
3786.00,0.2319
3785.00,0.2318
3784.00,0.2317
3783.00,0.2316
3782.00,0.2316
3781.00,0.2317
3780.00,0.2317
3779.00,0.2315
3778.00,0.2311
3777.00,0.2309
3776.00,0.2307
3775.00,0.2306
3774.00,0.2304
3773.00,0.2302
3772.00,0.2302
3771.00,0.2302
3770.00,0.2301
3769.00,0.2301
3768.00,0.2301
3767.00,0.2303
3766.00,0.2303
3765.00,0.2301
3764.00,0.2298
3763.00,0.2295
3762.00,0.2295
3761.00,0.2294
3760.00,0.2293
3759.00,0.2290
3758.00,0.2288
3757.00,0.2288
3756.00,0.2288
3755.00,0.2289
3754.00,0.2291
3753.00,0.2291
3752.00,0.2291
3751.00,0.2293
3750.00,0.2298
3749.00,0.2303
3748.00,0.2307
3747.00,0.2312
3746.00,0.2316
3745.00,0.2315
3744.00,0.2307
3743.00,0.2296
3742.00,0.2290
3741.00,0.2288
3740.00,0.2287
3739.00,0.2283
3738.00,0.2280
3737.00,0.2277
3736.00,0.2278
3735.00,0.2281
3734.00,0.2286
3733.00,0.2289
3732.00,0.2288
3731.00,0.2282
3730.00,0.2275
3729.00,0.2270
3728.00,0.2266
3727.00,0.2262
3726.00,0.2258
3725.00,0.2255
3724.00,0.2254
3723.00,0.2254
3722.00,0.2253
3721.00,0.2251
3720.00,0.2249
3719.00,0.2246
3718.00,0.2243
3717.00,0.2240
3716.00,0.2238
3715.00,0.2238
3714.00,0.2239
3713.00,0.2240
3712.00,0.2242
3711.00,0.2245
3710.00,0.2248
3709.00,0.2249
3708.00,0.2248
3707.00,0.2245
3706.00,0.2240
3705.00,0.2237
3704.00,0.2235
3703.00,0.2233
3702.00,0.2233
3701.00,0.2232
3700.00,0.2232
3699.00,0.2232
3698.00,0.2233
3697.00,0.2233
3696.00,0.2232
3695.00,0.2232
3694.00,0.2234
3693.00,0.2237
3692.00,0.2241
3691.00,0.2245
3690.00,0.2250
3689.00,0.2254
3688.00,0.2256
3687.00,0.2256
3686.00,0.2255
3685.00,0.2253
3684.00,0.2249
3683.00,0.2244
3682.00,0.2239
3681.00,0.2236
3680.00,0.2236
3679.00,0.2239
3678.00,0.2243
3677.00,0.2250
3676.00,0.2257
3675.00,0.2261
3674.00,0.2264
3673.00,0.2269
3672.00,0.2273
3671.00,0.2275
3670.00,0.2272
3669.00,0.2267
3668.00,0.2263
3667.00,0.2261
3666.00,0.2259
3665.00,0.2256
3664.00,0.2253
3663.00,0.2250
3662.00,0.2250
3661.00,0.2252
3660.00,0.2255
3659.00,0.2259
3658.00,0.2264
3657.00,0.2269
3656.00,0.2273
3655.00,0.2277
3654.00,0.2284
3653.00,0.2292
3652.00,0.2301
3651.00,0.2308
3650.00,0.2314
3649.00,0.2322
3648.00,0.2331
3647.00,0.2337
3646.00,0.2339
3645.00,0.2337
3644.00,0.2333
3643.00,0.2330
3642.00,0.2327
3641.00,0.2326
3640.00,0.2328
3639.00,0.2333
3638.00,0.2339
3637.00,0.2347
3636.00,0.2355
3635.00,0.2365
3634.00,0.2374
3633.00,0.2384
3632.00,0.2397
3631.00,0.2416
3630.00,0.2441
3629.00,0.2470
3628.00,0.2499
3627.00,0.2523
3626.00,0.2543
3625.00,0.2557
3624.00,0.2564
3623.00,0.2564
3622.00,0.2560
3621.00,0.2551
3620.00,0.2538
3619.00,0.2521
3618.00,0.2505
3617.00,0.2490
3616.00,0.2480
3615.00,0.2472
3614.00,0.2464
3613.00,0.2458
3612.00,0.2453
3611.00,0.2452
3610.00,0.2453
3609.00,0.2454
3608.00,0.2454
3607.00,0.2454
3606.00,0.2454
3605.00,0.2453
3604.00,0.2452
3603.00,0.2449
3602.00,0.2445
3601.00,0.2442
3600.00,0.2438
3599.00,0.2436
3598.00,0.2434
3597.00,0.2431
3596.00,0.2429
3595.00,0.2425
3594.00,0.2421
3593.00,0.2418
3592.00,0.2415
3591.00,0.2414
3590.00,0.2414
3589.00,0.2414
3588.00,0.2413
3587.00,0.2414
3586.00,0.2414
3585.00,0.2414
3584.00,0.2413
3583.00,0.2410
3582.00,0.2406
3581.00,0.2400
3580.00,0.2395
3579.00,0.2391
3578.00,0.2388
3577.00,0.2387
3576.00,0.2387
3575.00,0.2387
3574.00,0.2387
3573.00,0.2388
3572.00,0.2389
3571.00,0.2391
3570.00,0.2395
3569.00,0.2399
3568.00,0.2404
3567.00,0.2410
3566.00,0.2416
3565.00,0.2421
3564.00,0.2424
3563.00,0.2426
3562.00,0.2427
3561.00,0.2428
3560.00,0.2429
3559.00,0.2430
3558.00,0.2433
3557.00,0.2437
3556.00,0.2442
3555.00,0.2448
3554.00,0.2453
3553.00,0.2459
3552.00,0.2465
3551.00,0.2471
3550.00,0.2476
3549.00,0.2482
3548.00,0.2488
3547.00,0.2495
3546.00,0.2501
3545.00,0.2508
3544.00,0.2514
3543.00,0.2518
3542.00,0.2522
3541.00,0.2526
3540.00,0.2529
3539.00,0.2532
3538.00,0.2535
3537.00,0.2539
3536.00,0.2543
3535.00,0.2547
3534.00,0.2552
3533.00,0.2556
3532.00,0.2560
3531.00,0.2565
3530.00,0.2570
3529.00,0.2576
3528.00,0.2582
3527.00,0.2589
3526.00,0.2596
3525.00,0.2603
3524.00,0.2609
3523.00,0.2615
3522.00,0.2620
3521.00,0.2626
3520.00,0.2632
3519.00,0.2638
3518.00,0.2644
3517.00,0.2651
3516.00,0.2657
3515.00,0.2664
3514.00,0.2671
3513.00,0.2678
3512.00,0.2685
3511.00,0.2693
3510.00,0.2701
3509.00,0.2709
3508.00,0.2716
3507.00,0.2724
3506.00,0.2732
3505.00,0.2740
3504.00,0.2748
3503.00,0.2755
3502.00,0.2763
3501.00,0.2770
3500.00,0.2777
3499.00,0.2785
3498.00,0.2793
3497.00,0.2801
3496.00,0.2809
3495.00,0.2819
3494.00,0.2829
3493.00,0.2839
3492.00,0.2850
3491.00,0.2860
3490.00,0.2870
3489.00,0.2881
3488.00,0.2892
3487.00,0.2902
3486.00,0.2913
3485.00,0.2923
3484.00,0.2933
3483.00,0.2943
3482.00,0.2952
3481.00,0.2962
3480.00,0.2971
3479.00,0.2979
3478.00,0.2988
3477.00,0.2996
3476.00,0.3003
3475.00,0.3011
3474.00,0.3018
3473.00,0.3025
3472.00,0.3033
3471.00,0.3042
3470.00,0.3050
3469.00,0.3058
3468.00,0.3066
3467.00,0.3074
3466.00,0.3082
3465.00,0.3091
3464.00,0.3101
3463.00,0.3110
3462.00,0.3118
3461.00,0.3127
3460.00,0.3136
3459.00,0.3145
3458.00,0.3156
3457.00,0.3166
3456.00,0.3177
3455.00,0.3188
3454.00,0.3199
3453.00,0.3211
3452.00,0.3224
3451.00,0.3237
3450.00,0.3250
3449.00,0.3263
3448.00,0.3277
3447.00,0.3291
3446.00,0.3305
3445.00,0.3319
3444.00,0.3333
3443.00,0.3347
3442.00,0.3362
3441.00,0.3376
3440.00,0.3390
3439.00,0.3404
3438.00,0.3418
3437.00,0.3433
3436.00,0.3447
3435.00,0.3460
3434.00,0.3472
3433.00,0.3485
3432.00,0.3498
3431.00,0.3512
3430.00,0.3525
3429.00,0.3538
3428.00,0.3552
3427.00,0.3565
3426.00,0.3578
3425.00,0.3592
3424.00,0.3605
3423.00,0.3619
3422.00,0.3632
3421.00,0.3646
3420.00,0.3660
3419.00,0.3674
3418.00,0.3688
3417.00,0.3702
3416.00,0.3717
3415.00,0.3731
3414.00,0.3746
3413.00,0.3761
3412.00,0.3776
3411.00,0.3791
3410.00,0.3805
3409.00,0.3819
3408.00,0.3833
3407.00,0.3846
3406.00,0.3861
3405.00,0.3875
3404.00,0.3890
3403.00,0.3904
3402.00,0.3918
3401.00,0.3932
3400.00,0.3945
3399.00,0.3958
3398.00,0.3970
3397.00,0.3982
3396.00,0.3993
3395.00,0.4004
3394.00,0.4016
3393.00,0.4027
3392.00,0.4038
3391.00,0.4048
3390.00,0.4058
3389.00,0.4067
3388.00,0.4077
3387.00,0.4086
3386.00,0.4095
3385.00,0.4103
3384.00,0.4112
3383.00,0.4120
3382.00,0.4128
3381.00,0.4136
3380.00,0.4144
3379.00,0.4153
3378.00,0.4161
3377.00,0.4168
3376.00,0.4175
3375.00,0.4183
3374.00,0.4191
3373.00,0.4199
3372.00,0.4208
3371.00,0.4216
3370.00,0.4225
3369.00,0.4234
3368.00,0.4242
3367.00,0.4250
3366.00,0.4258
3365.00,0.4266
3364.00,0.4275
3363.00,0.4284
3362.00,0.4294
3361.00,0.4303
3360.00,0.4313
3359.00,0.4322
3358.00,0.4331
3357.00,0.4341
3356.00,0.4350
3355.00,0.4359
3354.00,0.4367
3353.00,0.4376
3352.00,0.4385
3351.00,0.4394
3350.00,0.4402
3349.00,0.4411
3348.00,0.4419
3347.00,0.4426
3346.00,0.4434
3345.00,0.4442
3344.00,0.4450
3343.00,0.4457
3342.00,0.4463
3341.00,0.4471
3340.00,0.4477
3339.00,0.4484
3338.00,0.4489
3337.00,0.4493
3336.00,0.4497
3335.00,0.4500
3334.00,0.4503
3333.00,0.4505
3332.00,0.4508
3331.00,0.4510
3330.00,0.4511
3329.00,0.4511
3328.00,0.4511
3327.00,0.4510
3326.00,0.4509
3325.00,0.4507
3324.00,0.4504
3323.00,0.4501
3322.00,0.4498
3321.00,0.4496
3320.00,0.4493
3319.00,0.4489
3318.00,0.4485
3317.00,0.4480
3316.00,0.4476
3315.00,0.4471
3314.00,0.4466
3313.00,0.4461
3312.00,0.4456
3311.00,0.4451
3310.00,0.4446
3309.00,0.4441
3308.00,0.4437
3307.00,0.4434
3306.00,0.4430
3305.00,0.4426
3304.00,0.4421
3303.00,0.4416
3302.00,0.4412
3301.00,0.4408
3300.00,0.4405
3299.00,0.4402
3298.00,0.4399
3297.00,0.4397
3296.00,0.4395
3295.00,0.4393
3294.00,0.4392
3293.00,0.4390
3292.00,0.4389
3291.00,0.4387
3290.00,0.4387
3289.00,0.4387
3288.00,0.4387
3287.00,0.4388
3286.00,0.4389
3285.00,0.4390
3284.00,0.4390
3283.00,0.4391
3282.00,0.4393
3281.00,0.4395
3280.00,0.4398
3279.00,0.4401
3278.00,0.4403
3277.00,0.4406
3276.00,0.4409
3275.00,0.4412
3274.00,0.4414
3273.00,0.4417
3272.00,0.4421
3271.00,0.4423
3270.00,0.4426
3269.00,0.4429
3268.00,0.4432
3267.00,0.4435
3266.00,0.4437
3265.00,0.4439
3264.00,0.4440
3263.00,0.4442
3262.00,0.4445
3261.00,0.4447
3260.00,0.4450
3259.00,0.4452
3258.00,0.4453
3257.00,0.4454
3256.00,0.4455
3255.00,0.4455
3254.00,0.4455
3253.00,0.4455
3252.00,0.4455
3251.00,0.4455
3250.00,0.4454
3249.00,0.4454
3248.00,0.4453
3247.00,0.4452
3246.00,0.4450
3245.00,0.4447
3244.00,0.4444
3243.00,0.4441
3242.00,0.4438
3241.00,0.4434
3240.00,0.4430
3239.00,0.4425
3238.00,0.4420
3237.00,0.4415
3236.00,0.4410
3235.00,0.4405
3234.00,0.4399
3233.00,0.4393
3232.00,0.4387
3231.00,0.4380
3230.00,0.4372
3229.00,0.4365
3228.00,0.4358
3227.00,0.4351
3226.00,0.4343
3225.00,0.4334
3224.00,0.4326
3223.00,0.4318
3222.00,0.4310
3221.00,0.4301
3220.00,0.4293
3219.00,0.4284
3218.00,0.4276
3217.00,0.4268
3216.00,0.4259
3215.00,0.4250
3214.00,0.4241
3213.00,0.4232
3212.00,0.4224
3211.00,0.4215
3210.00,0.4206
3209.00,0.4197
3208.00,0.4188
3207.00,0.4180
3206.00,0.4172
3205.00,0.4164
3204.00,0.4156
3203.00,0.4147
3202.00,0.4139
3201.00,0.4131
3200.00,0.4123
3199.00,0.4115
3198.00,0.4106
3197.00,0.4098
3196.00,0.4088
3195.00,0.4079
3194.00,0.4069
3193.00,0.4060
3192.00,0.4050
3191.00,0.4040
3190.00,0.4030
3189.00,0.4020
3188.00,0.4010
3187.00,0.4000
3186.00,0.3991
3185.00,0.3981
3184.00,0.3972
3183.00,0.3961
3182.00,0.3951
3181.00,0.3940
3180.00,0.3929
3179.00,0.3918
3178.00,0.3907
3177.00,0.3897
3176.00,0.3886
3175.00,0.3876
3174.00,0.3865
3173.00,0.3855
3172.00,0.3844
3171.00,0.3834
3170.00,0.3823
3169.00,0.3812
3168.00,0.3801
3167.00,0.3790
3166.00,0.3780
3165.00,0.3770
3164.00,0.3760
3163.00,0.3750
3162.00,0.3739
3161.00,0.3728
3160.00,0.3717
3159.00,0.3706
3158.00,0.3696
3157.00,0.3686
3156.00,0.3676
3155.00,0.3666
3154.00,0.3656
3153.00,0.3646
3152.00,0.3636
3151.00,0.3627
3150.00,0.3618
3149.00,0.3609
3148.00,0.3600
3147.00,0.3591
3146.00,0.3583
3145.00,0.3574
3144.00,0.3566
3143.00,0.3559
3142.00,0.3551
3141.00,0.3544
3140.00,0.3537
3139.00,0.3530
3138.00,0.3524
3137.00,0.3518
3136.00,0.3512
3135.00,0.3507
3134.00,0.3503
3133.00,0.3498
3132.00,0.3494
3131.00,0.3489
3130.00,0.3485
3129.00,0.3481
3128.00,0.3477
3127.00,0.3474
3126.00,0.3470
3125.00,0.3467
3124.00,0.3465
3123.00,0.3462
3122.00,0.3460
3121.00,0.3459
3120.00,0.3458
3119.00,0.3457
3118.00,0.3456
3117.00,0.3457
3116.00,0.3457
3115.00,0.3458
3114.00,0.3459
3113.00,0.3461
3112.00,0.3463
3111.00,0.3466
3110.00,0.3469
3109.00,0.3473
3108.00,0.3477
3107.00,0.3482
3106.00,0.3488
3105.00,0.3494
3104.00,0.3500
3103.00,0.3507
3102.00,0.3515
3101.00,0.3523
3100.00,0.3531
3099.00,0.3540
3098.00,0.3550
3097.00,0.3561
3096.00,0.3572
3095.00,0.3584
3094.00,0.3597
3093.00,0.3611
3092.00,0.3626
3091.00,0.3642
3090.00,0.3659
3089.00,0.3678
3088.00,0.3698
3087.00,0.3719
3086.00,0.3742
3085.00,0.3766
3084.00,0.3790
3083.00,0.3816
3082.00,0.3843
3081.00,0.3872
3080.00,0.3902
3079.00,0.3933
3078.00,0.3964
3077.00,0.3996
3076.00,0.4028
3075.00,0.4059
3074.00,0.4089
3073.00,0.4118
3072.00,0.4147
3071.00,0.4176
3070.00,0.4204
3069.00,0.4231
3068.00,0.4259
3067.00,0.4287
3066.00,0.4316
3065.00,0.4346
3064.00,0.4376
3063.00,0.4406
3062.00,0.4436
3061.00,0.4466
3060.00,0.4495
3059.00,0.4525
3058.00,0.4556
3057.00,0.4586
3056.00,0.4617
3055.00,0.4649
3054.00,0.4680
3053.00,0.4712
3052.00,0.4746
3051.00,0.4779
3050.00,0.4814
3049.00,0.4850
3048.00,0.4886
3047.00,0.4924
3046.00,0.4962
3045.00,0.5002
3044.00,0.5042
3043.00,0.5083
3042.00,0.5125
3041.00,0.5168
3040.00,0.5214
3039.00,0.5261
3038.00,0.5312
3037.00,0.5365
3036.00,0.5423
3035.00,0.5483
3034.00,0.5547
3033.00,0.5614
3032.00,0.5685
3031.00,0.5762
3030.00,0.5843
3029.00,0.5928
3028.00,0.6018
3027.00,0.6111
3026.00,0.6210
3025.00,0.6315
3024.00,0.6427
3023.00,0.6545
3022.00,0.6669
3021.00,0.6800
3020.00,0.6938
3019.00,0.7085
3018.00,0.7241
3017.00,0.7408
3016.00,0.7584
3015.00,0.7772
3014.00,0.7972
3013.00,0.8184
3012.00,0.8411
3011.00,0.8654
3010.00,0.8915
3009.00,0.9195
3008.00,0.9498
3007.00,0.9825
3006.00,1.0181
3005.00,1.0565
3004.00,1.0977
3003.00,1.1415
3002.00,1.1881
3001.00,1.2375
3000.00,1.2897
2999.00,1.3448
2998.00,1.4027
2997.00,1.4631
2996.00,1.5257
2995.00,1.5901
2994.00,1.6564
2993.00,1.7242
2992.00,1.7929
2991.00,1.8621
2990.00,1.9318
2989.00,2.0027
2988.00,2.0755
2987.00,2.1510
2986.00,2.2301
2985.00,2.3134
2984.00,2.4012
2983.00,2.4947
2982.00,2.5952
2981.00,2.7047
2980.00,2.8277
2979.00,2.9746
2978.00,3.1535
2977.00,3.3489
2976.00,3.5076
2975.00,3.5905
2974.00,3.6325
2973.00,3.6795
2972.00,3.7176
2971.00,3.6971
2970.00,3.6277
2969.00,3.5773
2968.00,3.5876
2967.00,3.6557
2966.00,3.7381
2965.00,3.7814
2964.00,3.8017
2963.00,3.8624
2962.00,4.0013
2961.00,4.1389
2960.00,4.1449
2959.00,4.1443
2958.00,4.2498
2957.00,4.5698
2956.00,4.8918
2955.00,4.7872
2954.00,4.7824
2953.00,4.5725
2952.00,4.3912
2951.00,4.1881
2950.00,4.1542
2949.00,4.2439
2948.00,4.2914
2947.00,4.3721
2946.00,4.5178
2945.00,4.7043
2944.00,4.4663
2943.00,4.1026
2942.00,3.8829
2941.00,3.7766
2940.00,3.7848
2939.00,3.9216
2938.00,4.1169
2937.00,4.1854
2936.00,4.2073
2935.00,4.4068
2934.00,4.8024
2933.00,4.6989
2932.00,4.3688
2931.00,4.3177
2930.00,4.4667
2929.00,4.4458
2928.00,4.2451
2927.00,4.0821
2926.00,4.0841
2925.00,4.1876
2924.00,4.1764
2923.00,4.0571
2922.00,3.9459
2921.00,3.9039
2920.00,3.9317
2919.00,4.0313
2918.00,4.2329
2917.00,4.3360
2916.00,4.2599
2915.00,4.1497
2914.00,4.2267
2913.00,4.5889
2912.00,4.4665
2911.00,4.1991
2910.00,4.0096
2909.00,4.0719
2908.00,4.3588
2907.00,4.4016
2906.00,4.0309
2905.00,3.7420
2904.00,3.6303
2903.00,3.6512
2902.00,3.7416
2901.00,3.8786
2900.00,4.0744
2899.00,4.2493
2898.00,4.0946
2897.00,3.8982
2896.00,3.8416
2895.00,4.0120
2894.00,4.3378
2893.00,4.4171
2892.00,4.3326
2891.00,4.2897
2890.00,4.4154
2889.00,4.4167
2888.00,4.2995
2887.00,4.3005
2886.00,4.4672
2885.00,4.6927
2884.00,4.5705
2883.00,4.4267
2882.00,4.5318
2881.00,4.6527
2880.00,4.2916
2879.00,4.0030
2878.00,3.8554
2877.00,3.8336
2876.00,3.8691
2875.00,3.9175
2874.00,3.9477
2873.00,3.9397
2872.00,3.9648
2871.00,4.0292
2870.00,4.1601
2869.00,4.4202
2868.00,4.3511
2867.00,4.0062
2866.00,3.7801
2865.00,3.7117
2864.00,3.7349
2863.00,3.7907
2862.00,3.9081
2861.00,4.1531
2860.00,4.4195
2859.00,4.2078
2858.00,4.0216
2857.00,3.9701
2856.00,3.9010
2855.00,3.7774
2854.00,3.6907
2853.00,3.6620
2852.00,3.6581
2851.00,3.6943
2850.00,3.7226
2849.00,3.6879
2848.00,3.6769
2847.00,3.7792
2846.00,4.0101
2845.00,4.2185
2844.00,4.1534
2843.00,3.9857
2842.00,3.8488
2841.00,3.7235
2840.00,3.5839
2839.00,3.4207
2838.00,3.2216
2837.00,2.9978
2836.00,2.7794
2835.00,2.5814
2834.00,2.4034
2833.00,2.2426
2832.00,2.0979
2831.00,1.9691
2830.00,1.8547
2829.00,1.7527
2828.00,1.6615
2827.00,1.5801
2826.00,1.5070
2825.00,1.4410
2824.00,1.3812
2823.00,1.3272
2822.00,1.2785
2821.00,1.2339
2820.00,1.1926
2819.00,1.1539
2818.00,1.1177
2817.00,1.0841
2816.00,1.0527
2815.00,1.0234
2814.00,0.9959
2813.00,0.9699
2812.00,0.9452
2811.00,0.9216
2810.00,0.8990
2809.00,0.8773
2808.00,0.8564
2807.00,0.8363
2806.00,0.8170
2805.00,0.7984
2804.00,0.7808
2803.00,0.7641
2802.00,0.7481
2801.00,0.7329
2800.00,0.7182
2799.00,0.7042
2798.00,0.6909
2797.00,0.6783
2796.00,0.6661
2795.00,0.6545
2794.00,0.6434
2793.00,0.6326
2792.00,0.6223
2791.00,0.6123
2790.00,0.6027
2789.00,0.5932
2788.00,0.5840
2787.00,0.5750
2786.00,0.5663
2785.00,0.5578
2784.00,0.5496
2783.00,0.5415
2782.00,0.5337
2781.00,0.5262
2780.00,0.5189
2779.00,0.5120
2778.00,0.5054
2777.00,0.4991
2776.00,0.4930
2775.00,0.4873
2774.00,0.4819
2773.00,0.4768
2772.00,0.4720
2771.00,0.4675
2770.00,0.4632
2769.00,0.4592
2768.00,0.4553
2767.00,0.4518
2766.00,0.4486
2765.00,0.4456
2764.00,0.4429
2763.00,0.4405
2762.00,0.4384
2761.00,0.4366
2760.00,0.4350
2759.00,0.4336
2758.00,0.4323
2757.00,0.4311
2756.00,0.4300
2755.00,0.4292
2754.00,0.4285
2753.00,0.4280
2752.00,0.4278
2751.00,0.4278
2750.00,0.4280
2749.00,0.4284
2748.00,0.4291
2747.00,0.4299
2746.00,0.4310
2745.00,0.4324
2744.00,0.4340
2743.00,0.4360
2742.00,0.4381
2741.00,0.4405
2740.00,0.4433
2739.00,0.4463
2738.00,0.4497
2737.00,0.4533
2736.00,0.4573
2735.00,0.4614
2734.00,0.4656
2733.00,0.4696
2732.00,0.4732
2731.00,0.4761
2730.00,0.4782
2729.00,0.4794
2728.00,0.4796
2727.00,0.4791
2726.00,0.4780
2725.00,0.4765
2724.00,0.4747
2723.00,0.4726
2722.00,0.4704
2721.00,0.4680
2720.00,0.4654
2719.00,0.4625
2718.00,0.4594
2717.00,0.4561
2716.00,0.4525
2715.00,0.4487
2714.00,0.4448
2713.00,0.4409
2712.00,0.4371
2711.00,0.4336
2710.00,0.4303
2709.00,0.4273
2708.00,0.4246
2707.00,0.4222
2706.00,0.4202
2705.00,0.4184
2704.00,0.4169
2703.00,0.4156
2702.00,0.4147
2701.00,0.4140
2700.00,0.4137
2699.00,0.4136
2698.00,0.4138
2697.00,0.4143
2696.00,0.4149
2695.00,0.4157
2694.00,0.4166
2693.00,0.4176
2692.00,0.4187
2691.00,0.4199
2690.00,0.4210
2689.00,0.4221
2688.00,0.4231
2687.00,0.4239
2686.00,0.4246
2685.00,0.4252
2684.00,0.4255
2683.00,0.4257
2682.00,0.4258
2681.00,0.4259
2680.00,0.4259
2679.00,0.4259
2678.00,0.4259
2677.00,0.4258
2676.00,0.4257
2675.00,0.4255
2674.00,0.4252
2673.00,0.4247
2672.00,0.4242
2671.00,0.4235
2670.00,0.4226
2669.00,0.4216
2668.00,0.4203
2667.00,0.4187
2666.00,0.4170
2665.00,0.4151
2664.00,0.4131
2663.00,0.4111
2662.00,0.4091
2661.00,0.4071
2660.00,0.4051
2659.00,0.4032
2658.00,0.4012
2657.00,0.3993
2656.00,0.3974
2655.00,0.3957
2654.00,0.3940
2653.00,0.3923
2652.00,0.3906
2651.00,0.3890
2650.00,0.3874
2649.00,0.3859
2648.00,0.3845
2647.00,0.3831
2646.00,0.3818
2645.00,0.3805
2644.00,0.3792
2643.00,0.3779
2642.00,0.3766
2641.00,0.3754
2640.00,0.3743
2639.00,0.3732
2638.00,0.3721
2637.00,0.3711
2636.00,0.3700
2635.00,0.3690
2634.00,0.3681
2633.00,0.3672
2632.00,0.3663
2631.00,0.3653
2630.00,0.3644
2629.00,0.3634
2628.00,0.3624
2627.00,0.3614
2626.00,0.3605
2625.00,0.3595
2624.00,0.3585
2623.00,0.3575
2622.00,0.3566
2621.00,0.3556
2620.00,0.3547
2619.00,0.3538
2618.00,0.3528
2617.00,0.3519
2616.00,0.3509
2615.00,0.3499
2614.00,0.3488
2613.00,0.3477
2612.00,0.3467
2611.00,0.3455
2610.00,0.3444
2609.00,0.3433
2608.00,0.3423
2607.00,0.3413
2606.00,0.3403
2605.00,0.3393
2604.00,0.3383
2603.00,0.3372
2602.00,0.3362
2601.00,0.3351
2600.00,0.3340
2599.00,0.3328
2598.00,0.3316
2597.00,0.3303
2596.00,0.3289
2595.00,0.3274
2594.00,0.3259
2593.00,0.3243
2592.00,0.3228
2591.00,0.3213
2590.00,0.3198
2589.00,0.3183
2588.00,0.3168
2587.00,0.3153
2586.00,0.3137
2585.00,0.3121
2584.00,0.3105
2583.00,0.3088
2582.00,0.3071
2581.00,0.3055
2580.00,0.3038
2579.00,0.3021
2578.00,0.3004
2577.00,0.2988
2576.00,0.2972
2575.00,0.2956
2574.00,0.2940
2573.00,0.2925
2572.00,0.2910
2571.00,0.2895
2570.00,0.2881
2569.00,0.2867
2568.00,0.2853
2567.00,0.2840
2566.00,0.2826
2565.00,0.2813
2564.00,0.2800
2563.00,0.2788
2562.00,0.2775
2561.00,0.2763
2560.00,0.2751
2559.00,0.2740
2558.00,0.2730
2557.00,0.2720
2556.00,0.2710
2555.00,0.2699
2554.00,0.2689
2553.00,0.2679
2552.00,0.2669
2551.00,0.2659
2550.00,0.2650
2549.00,0.2642
2548.00,0.2634
2547.00,0.2626
2546.00,0.2618
2545.00,0.2611
2544.00,0.2603
2543.00,0.2596
2542.00,0.2588
2541.00,0.2581
2540.00,0.2574
2539.00,0.2568
2538.00,0.2562
2537.00,0.2556
2536.00,0.2550
2535.00,0.2544
2534.00,0.2538
2533.00,0.2532
2532.00,0.2525
2531.00,0.2518
2530.00,0.2510
2529.00,0.2502
2528.00,0.2494
2527.00,0.2485
2526.00,0.2476
2525.00,0.2467
2524.00,0.2457
2523.00,0.2448
2522.00,0.2439
2521.00,0.2430
2520.00,0.2421
2519.00,0.2413
2518.00,0.2405
2517.00,0.2397
2516.00,0.2389
2515.00,0.2382
2514.00,0.2374
2513.00,0.2367
2512.00,0.2360
2511.00,0.2353
2510.00,0.2347
2509.00,0.2341
2508.00,0.2335
2507.00,0.2329
2506.00,0.2324
2505.00,0.2319
2504.00,0.2314
2503.00,0.2309
2502.00,0.2305
2501.00,0.2301
2500.00,0.2297
2499.00,0.2294
2498.00,0.2290
2497.00,0.2286
2496.00,0.2282
2495.00,0.2278
2494.00,0.2274
2493.00,0.2271
2492.00,0.2268
2491.00,0.2264
2490.00,0.2260
2489.00,0.2256
2488.00,0.2252
2487.00,0.2248
2486.00,0.2245
2485.00,0.2241
2484.00,0.2237
2483.00,0.2233
2482.00,0.2229
2481.00,0.2226
2480.00,0.2223
2479.00,0.2220
2478.00,0.2217
2477.00,0.2214
2476.00,0.2211
2475.00,0.2208
2474.00,0.2205
2473.00,0.2202
2472.00,0.2199
2471.00,0.2197
2470.00,0.2194
2469.00,0.2191
2468.00,0.2188
2467.00,0.2185
2466.00,0.2182
2465.00,0.2180
2464.00,0.2177
2463.00,0.2175
2462.00,0.2172
2461.00,0.2169
2460.00,0.2167
2459.00,0.2164
2458.00,0.2162
2457.00,0.2160
2456.00,0.2158
2455.00,0.2156
2454.00,0.2155
2453.00,0.2154
2452.00,0.2153
2451.00,0.2152
2450.00,0.2152
2449.00,0.2152
2448.00,0.2152
2447.00,0.2152
2446.00,0.2152
2445.00,0.2152
2444.00,0.2152
2443.00,0.2153
2442.00,0.2153
2441.00,0.2154
2440.00,0.2155
2439.00,0.2156
2438.00,0.2156
2437.00,0.2157
2436.00,0.2158
2435.00,0.2158
2434.00,0.2159
2433.00,0.2159
2432.00,0.2160
2431.00,0.2161
2430.00,0.2162
2429.00,0.2162
2428.00,0.2163
2427.00,0.2163
2426.00,0.2164
2425.00,0.2164
2424.00,0.2165
2423.00,0.2165
2422.00,0.2166
2421.00,0.2167
2420.00,0.2168
2419.00,0.2168
2418.00,0.2169
2417.00,0.2169
2416.00,0.2170
2415.00,0.2171
2414.00,0.2171
2413.00,0.2172
2412.00,0.2173
2411.00,0.2174
2410.00,0.2175
2409.00,0.2176
2408.00,0.2177
2407.00,0.2178
2406.00,0.2179
2405.00,0.2179
2404.00,0.2179
2403.00,0.2179
2402.00,0.2179
2401.00,0.2179
2400.00,0.2179
2399.00,0.2179
2398.00,0.2179
2397.00,0.2178
2396.00,0.2178
2395.00,0.2178
2394.00,0.2177
2393.00,0.2177
2392.00,0.2177
2391.00,0.2177
2390.00,0.2177
2389.00,0.2177
2388.00,0.2176
2387.00,0.2176
2386.00,0.2176
2385.00,0.2176
2384.00,0.2176
2383.00,0.2177
2382.00,0.2177
2381.00,0.2178
2380.00,0.2178
2379.00,0.2178
2378.00,0.2178
2377.00,0.2178
2376.00,0.2179
2375.00,0.2180
2374.00,0.2179
2373.00,0.2179
2372.00,0.2178
2371.00,0.2177
2370.00,0.2176
2369.00,0.2176
2368.00,0.2176
2367.00,0.2176
2366.00,0.2176
2365.00,0.2176
2364.00,0.2176
2363.00,0.2176
2362.00,0.2175
2361.00,0.2175
2360.00,0.2175
2359.00,0.2175
2358.00,0.2175
2357.00,0.2176
2356.00,0.2176
2355.00,0.2175
2354.00,0.2174
2353.00,0.2174
2352.00,0.2174
2351.00,0.2173
2350.00,0.2171
2349.00,0.2169
2348.00,0.2167
2347.00,0.2166
2346.00,0.2168
2345.00,0.2173
2344.00,0.2177
2343.00,0.2180
2342.00,0.2180
2341.00,0.2178
2340.00,0.2176
2339.00,0.2173
2338.00,0.2171
2337.00,0.2169
2336.00,0.2167
2335.00,0.2165
2334.00,0.2162
2333.00,0.2160
2332.00,0.2157
2331.00,0.2155
2330.00,0.2153
2329.00,0.2150
2328.00,0.2148
2327.00,0.2145
2326.00,0.2143
2325.00,0.2142
2324.00,0.2141
2323.00,0.2139
2322.00,0.2138
2321.00,0.2136
2320.00,0.2134
2319.00,0.2132
2318.00,0.2129
2317.00,0.2127
2316.00,0.2125
2315.00,0.2124
2314.00,0.2122
2313.00,0.2120
2312.00,0.2118
2311.00,0.2116
2310.00,0.2113
2309.00,0.2110
2308.00,0.2107
2307.00,0.2103
2306.00,0.2100
2305.00,0.2097
2304.00,0.2095
2303.00,0.2092
2302.00,0.2090
2301.00,0.2088
2300.00,0.2086
2299.00,0.2084
2298.00,0.2081
2297.00,0.2079
2296.00,0.2077
2295.00,0.2075
2294.00,0.2072
2293.00,0.2070
2292.00,0.2068
2291.00,0.2065
2290.00,0.2063
2289.00,0.2060
2288.00,0.2058
2287.00,0.2055
2286.00,0.2052
2285.00,0.2049
2284.00,0.2046
2283.00,0.2043
2282.00,0.2041
2281.00,0.2038
2280.00,0.2035
2279.00,0.2032
2278.00,0.2029
2277.00,0.2026
2276.00,0.2023
2275.00,0.2020
2274.00,0.2017
2273.00,0.2014
2272.00,0.2012
2271.00,0.2009
2270.00,0.2007
2269.00,0.2005
2268.00,0.2003
2267.00,0.2001
2266.00,0.1999
2265.00,0.1997
2264.00,0.1994
2263.00,0.1992
2262.00,0.1989
2261.00,0.1986
2260.00,0.1984
2259.00,0.1981
2258.00,0.1978
2257.00,0.1975
2256.00,0.1973
2255.00,0.1971
2254.00,0.1968
2253.00,0.1966
2252.00,0.1963
2251.00,0.1961
2250.00,0.1959
2249.00,0.1958
2248.00,0.1956
2247.00,0.1954
2246.00,0.1953
2245.00,0.1951
2244.00,0.1950
2243.00,0.1948
2242.00,0.1947
2241.00,0.1945
2240.00,0.1944
2239.00,0.1943
2238.00,0.1942
2237.00,0.1941
2236.00,0.1941
2235.00,0.1939
2234.00,0.1938
2233.00,0.1937
2232.00,0.1936
2231.00,0.1935
2230.00,0.1934
2229.00,0.1932
2228.00,0.1931
2227.00,0.1930
2226.00,0.1929
2225.00,0.1927
2224.00,0.1926
2223.00,0.1925
2222.00,0.1924
2221.00,0.1923
2220.00,0.1922
2219.00,0.1922
2218.00,0.1921
2217.00,0.1920
2216.00,0.1920
2215.00,0.1920
2214.00,0.1919
2213.00,0.1919
2212.00,0.1919
2211.00,0.1919
2210.00,0.1919
2209.00,0.1920
2208.00,0.1921
2207.00,0.1922
2206.00,0.1923
2205.00,0.1923
2204.00,0.1924
2203.00,0.1924
2202.00,0.1924
2201.00,0.1924
2200.00,0.1925
2199.00,0.1925
2198.00,0.1926
2197.00,0.1927
2196.00,0.1927
2195.00,0.1928
2194.00,0.1928
2193.00,0.1929
2192.00,0.1929
2191.00,0.1929
2190.00,0.1929
2189.00,0.1929
2188.00,0.1929
2187.00,0.1929
2186.00,0.1929
2185.00,0.1930
2184.00,0.1929
2183.00,0.1929
2182.00,0.1928
2181.00,0.1926
2180.00,0.1925
2179.00,0.1924
2178.00,0.1923
2177.00,0.1922
2176.00,0.1922
2175.00,0.1922
2174.00,0.1921
2173.00,0.1921
2172.00,0.1921
2171.00,0.1920
2170.00,0.1920
2169.00,0.1920
2168.00,0.1920
2167.00,0.1919
2166.00,0.1918
2165.00,0.1917
2164.00,0.1917
2163.00,0.1917
2162.00,0.1917
2161.00,0.1916
2160.00,0.1915
2159.00,0.1914
2158.00,0.1912
2157.00,0.1911
2156.00,0.1909
2155.00,0.1907
2154.00,0.1905
2153.00,0.1904
2152.00,0.1902
2151.00,0.1900
2150.00,0.1898
2149.00,0.1895
2148.00,0.1892
2147.00,0.1888
2146.00,0.1883
2145.00,0.1879
2144.00,0.1875
2143.00,0.1870
2142.00,0.1866
2141.00,0.1862
2140.00,0.1858
2139.00,0.1854
2138.00,0.1850
2137.00,0.1847
2136.00,0.1845
2135.00,0.1842
2134.00,0.1840
2133.00,0.1839
2132.00,0.1838
2131.00,0.1836
2130.00,0.1834
2129.00,0.1833
2128.00,0.1831
2127.00,0.1829
2126.00,0.1827
2125.00,0.1826
2124.00,0.1825
2123.00,0.1824
2122.00,0.1823
2121.00,0.1822
2120.00,0.1821
2119.00,0.1819
2118.00,0.1818
2117.00,0.1817
2116.00,0.1816
2115.00,0.1815
2114.00,0.1813
2113.00,0.1812
2112.00,0.1811
2111.00,0.1809
2110.00,0.1808
2109.00,0.1807
2108.00,0.1806
2107.00,0.1806
2106.00,0.1805
2105.00,0.1804
2104.00,0.1803
2103.00,0.1802
2102.00,0.1802
2101.00,0.1801
2100.00,0.1801
2099.00,0.1801
2098.00,0.1801
2097.00,0.1801
2096.00,0.1801
2095.00,0.1801
2094.00,0.1801
2093.00,0.1801
2092.00,0.1801
2091.00,0.1801
2090.00,0.1801
2089.00,0.1801
2088.00,0.1801
2087.00,0.1801
2086.00,0.1801
2085.00,0.1801
2084.00,0.1801
2083.00,0.1801
2082.00,0.1801
2081.00,0.1800
2080.00,0.1800
2079.00,0.1800
2078.00,0.1799
2077.00,0.1799
2076.00,0.1799
2075.00,0.1799
2074.00,0.1799
2073.00,0.1799
2072.00,0.1799
2071.00,0.1799
2070.00,0.1799
2069.00,0.1800
2068.00,0.1802
2067.00,0.1803
2066.00,0.1804
2065.00,0.1805
2064.00,0.1806
2063.00,0.1806
2062.00,0.1808
2061.00,0.1809
2060.00,0.1810
2059.00,0.1811
2058.00,0.1812
2057.00,0.1814
2056.00,0.1816
2055.00,0.1817
2054.00,0.1819
2053.00,0.1820
2052.00,0.1822
2051.00,0.1824
2050.00,0.1825
2049.00,0.1827
2048.00,0.1829
2047.00,0.1830
2046.00,0.1832
2045.00,0.1833
2044.00,0.1835
2043.00,0.1837
2042.00,0.1838
2041.00,0.1839
2040.00,0.1840
2039.00,0.1841
2038.00,0.1841
2037.00,0.1843
2036.00,0.1844
2035.00,0.1845
2034.00,0.1846
2033.00,0.1847
2032.00,0.1848
2031.00,0.1848
2030.00,0.1848
2029.00,0.1849
2028.00,0.1849
2027.00,0.1849
2026.00,0.1848
2025.00,0.1848
2024.00,0.1847
2023.00,0.1845
2022.00,0.1843
2021.00,0.1840
2020.00,0.1836
2019.00,0.1831
2018.00,0.1826
2017.00,0.1819
2016.00,0.1813
2015.00,0.1806
2014.00,0.1799
2013.00,0.1792
2012.00,0.1786
2011.00,0.1779
2010.00,0.1773
2009.00,0.1768
2008.00,0.1765
2007.00,0.1761
2006.00,0.1756
2005.00,0.1753
2004.00,0.1750
2003.00,0.1747
2002.00,0.1744
2001.00,0.1743
2000.00,0.1742
1999.00,0.1740
1998.00,0.1739
1997.00,0.1738
1996.00,0.1737
1995.00,0.1737
1994.00,0.1737
1993.00,0.1737
1992.00,0.1736
1991.00,0.1734
1990.00,0.1733
1989.00,0.1732
1988.00,0.1732
1987.00,0.1731
1986.00,0.1730
1985.00,0.1729
1984.00,0.1728
1983.00,0.1727
1982.00,0.1726
1981.00,0.1726
1980.00,0.1725
1979.00,0.1724
1978.00,0.1724
1977.00,0.1723
1976.00,0.1723
1975.00,0.1722
1974.00,0.1721
1973.00,0.1721
1972.00,0.1720
1971.00,0.1720
1970.00,0.1719
1969.00,0.1720
1968.00,0.1720
1967.00,0.1719
1966.00,0.1719
1965.00,0.1719
1964.00,0.1719
1963.00,0.1720
1962.00,0.1721
1961.00,0.1721
1960.00,0.1722
1959.00,0.1724
1958.00,0.1725
1957.00,0.1727
1956.00,0.1729
1955.00,0.1730
1954.00,0.1732
1953.00,0.1733
1952.00,0.1735
1951.00,0.1736
1950.00,0.1737
1949.00,0.1738
1948.00,0.1739
1947.00,0.1740
1946.00,0.1741
1945.00,0.1743
1944.00,0.1747
1943.00,0.1750
1942.00,0.1751
1941.00,0.1752
1940.00,0.1753
1939.00,0.1755
1938.00,0.1756
1937.00,0.1755
1936.00,0.1755
1935.00,0.1754
1934.00,0.1754
1933.00,0.1754
1932.00,0.1753
1931.00,0.1753
1930.00,0.1753
1929.00,0.1754
1928.00,0.1756
1927.00,0.1757
1926.00,0.1759
1925.00,0.1762
1924.00,0.1766
1923.00,0.1768
1922.00,0.1770
1921.00,0.1775
1920.00,0.1782
1919.00,0.1788
1918.00,0.1790
1917.00,0.1790
1916.00,0.1791
1915.00,0.1793
1914.00,0.1796
1913.00,0.1798
1912.00,0.1800
1911.00,0.1800
1910.00,0.1800
1909.00,0.1801
1908.00,0.1801
1907.00,0.1802
1906.00,0.1802
1905.00,0.1802
1904.00,0.1802
1903.00,0.1801
1902.00,0.1800
1901.00,0.1800
1900.00,0.1800
1899.00,0.1800
1898.00,0.1800
1897.00,0.1801
1896.00,0.1802
1895.00,0.1802
1894.00,0.1802
1893.00,0.1803
1892.00,0.1806
1891.00,0.1809
1890.00,0.1809
1889.00,0.1808
1888.00,0.1806
1887.00,0.1805
1886.00,0.1805
1885.00,0.1806
1884.00,0.1806
1883.00,0.1807
1882.00,0.1807
1881.00,0.1808
1880.00,0.1808
1879.00,0.1808
1878.00,0.1807
1877.00,0.1806
1876.00,0.1806
1875.00,0.1805
1874.00,0.1803
1873.00,0.1803
1872.00,0.1805
1871.00,0.1807
1870.00,0.1807
1869.00,0.1804
1868.00,0.1800
1867.00,0.1796
1866.00,0.1793
1865.00,0.1793
1864.00,0.1793
1863.00,0.1791
1862.00,0.1788
1861.00,0.1787
1860.00,0.1786
1859.00,0.1784
1858.00,0.1782
1857.00,0.1780
1856.00,0.1779
1855.00,0.1778
1854.00,0.1776
1853.00,0.1775
1852.00,0.1774
1851.00,0.1773
1850.00,0.1773
1849.00,0.1773
1848.00,0.1773
1847.00,0.1775
1846.00,0.1779
1845.00,0.1780
1844.00,0.1777
1843.00,0.1771
1842.00,0.1768
1841.00,0.1769
1840.00,0.1772
1839.00,0.1773
1838.00,0.1772
1837.00,0.1772
1836.00,0.1773
1835.00,0.1773
1834.00,0.1773
1833.00,0.1775
1832.00,0.1779
1831.00,0.1781
1830.00,0.1778
1829.00,0.1774
1828.00,0.1773
1827.00,0.1777
1826.00,0.1780
1825.00,0.1780
1824.00,0.1777
1823.00,0.1773
1822.00,0.1771
1821.00,0.1771
1820.00,0.1771
1819.00,0.1772
1818.00,0.1772
1817.00,0.1773
1816.00,0.1773
1815.00,0.1773
1814.00,0.1774
1813.00,0.1775
1812.00,0.1777
1811.00,0.1779
1810.00,0.1779
1809.00,0.1781
1808.00,0.1784
1807.00,0.1787
1806.00,0.1790
1805.00,0.1795
1804.00,0.1803
1803.00,0.1809
1802.00,0.1814
1801.00,0.1818
1800.00,0.1821
1799.00,0.1824
1798.00,0.1827
1797.00,0.1831
1796.00,0.1837
1795.00,0.1844
1794.00,0.1851
1793.00,0.1857
1792.00,0.1862
1791.00,0.1865
1790.00,0.1867
1789.00,0.1871
1788.00,0.1878
1787.00,0.1884
1786.00,0.1889
1785.00,0.1894
1784.00,0.1897
1783.00,0.1901
1782.00,0.1905
1781.00,0.1909
1780.00,0.1914
1779.00,0.1919
1778.00,0.1924
1777.00,0.1930
1776.00,0.1936
1775.00,0.1940
1774.00,0.1945
1773.00,0.1949
1772.00,0.1955
1771.00,0.1964
1770.00,0.1977
1769.00,0.1990
1768.00,0.2001
1767.00,0.2008
1766.00,0.2015
1765.00,0.2027
1764.00,0.2046
1763.00,0.2067
1762.00,0.2088
1761.00,0.2110
1760.00,0.2138
1759.00,0.2175
1758.00,0.2219
1757.00,0.2270
1756.00,0.2325
1755.00,0.2380
1754.00,0.2436
1753.00,0.2498
1752.00,0.2563
1751.00,0.2628
1750.00,0.2686
1749.00,0.2734
1748.00,0.2771
1747.00,0.2793
1746.00,0.2803
1745.00,0.2804
1744.00,0.2797
1743.00,0.2782
1742.00,0.2761
1741.00,0.2736
1740.00,0.2704
1739.00,0.2666
1738.00,0.2632
1737.00,0.2609
1736.00,0.2590
1735.00,0.2560
1734.00,0.2515
1733.00,0.2476
1732.00,0.2459
1731.00,0.2455
1730.00,0.2451
1729.00,0.2444
1728.00,0.2436
1727.00,0.2431
1726.00,0.2430
1725.00,0.2432
1724.00,0.2436
1723.00,0.2440
1722.00,0.2447
1721.00,0.2458
1720.00,0.2472
1719.00,0.2481
1718.00,0.2485
1717.00,0.2498
1716.00,0.2525
1715.00,0.2556
1714.00,0.2585
1713.00,0.2611
1712.00,0.2634
1711.00,0.2656
1710.00,0.2677
1709.00,0.2698
1708.00,0.2719
1707.00,0.2736
1706.00,0.2747
1705.00,0.2750
1704.00,0.2750
1703.00,0.2750
1702.00,0.2751
1701.00,0.2737
1700.00,0.2697
1699.00,0.2651
1698.00,0.2622
1697.00,0.2606
1696.00,0.2588
1695.00,0.2564
1694.00,0.2547
1693.00,0.2544
1692.00,0.2543
1691.00,0.2535
1690.00,0.2521
1689.00,0.2506
1688.00,0.2492
1687.00,0.2479
1686.00,0.2469
1685.00,0.2460
1684.00,0.2449
1683.00,0.2443
1682.00,0.2444
1681.00,0.2447
1680.00,0.2447
1679.00,0.2444
1678.00,0.2446
1677.00,0.2452
1676.00,0.2456
1675.00,0.2452
1674.00,0.2445
1673.00,0.2445
1672.00,0.2452
1671.00,0.2459
1670.00,0.2463
1669.00,0.2465
1668.00,0.2467
1667.00,0.2470
1666.00,0.2476
1665.00,0.2487
1664.00,0.2497
1663.00,0.2504
1662.00,0.2510
1661.00,0.2518
1660.00,0.2528
1659.00,0.2540
1658.00,0.2553
1657.00,0.2566
1656.00,0.2579
1655.00,0.2589
1654.00,0.2595
1653.00,0.2600
1652.00,0.2609
1651.00,0.2629
1650.00,0.2664
1649.00,0.2698
1648.00,0.2720
1647.00,0.2734
1646.00,0.2747
1645.00,0.2763
1644.00,0.2784
1643.00,0.2804
1642.00,0.2823
1641.00,0.2839
1640.00,0.2853
1639.00,0.2864
1638.00,0.2874
1637.00,0.2887
1636.00,0.2902
1635.00,0.2918
1634.00,0.2933
1633.00,0.2953
1632.00,0.2978
1631.00,0.3001
1630.00,0.3025
1629.00,0.3052
1628.00,0.3081
1627.00,0.3108
1626.00,0.3136
1625.00,0.3169
1624.00,0.3206
1623.00,0.3243
1622.00,0.3281
1621.00,0.3321
1620.00,0.3363
1619.00,0.3405
1618.00,0.3453
1617.00,0.3517
1616.00,0.3598
1615.00,0.3680
1614.00,0.3759
1613.00,0.3839
1612.00,0.3920
1611.00,0.4001
1610.00,0.4081
1609.00,0.4164
1608.00,0.4247
1607.00,0.4323
1606.00,0.4393
1605.00,0.4465
1604.00,0.4544
1603.00,0.4628
1602.00,0.4718
1601.00,0.4818
1600.00,0.4928
1599.00,0.5040
1598.00,0.5157
1597.00,0.5293
1596.00,0.5463
1595.00,0.5672
1594.00,0.5929
1593.00,0.6253
1592.00,0.6666
1591.00,0.7183
1590.00,0.7828
1589.00,0.8647
1588.00,0.9703
1587.00,1.1036
1586.00,1.2684
1585.00,1.4734
1584.00,1.7364
1583.00,2.0674
1582.00,2.4262
1581.00,2.7652
1580.00,3.2627
1579.00,3.6772
1578.00,2.7518
1577.00,2.2161
1576.00,1.8548
1575.00,1.5849
1574.00,1.3875
1573.00,1.2433
1572.00,1.1292
1571.00,1.0287
1570.00,0.9419
1569.00,0.8817
1568.00,0.8547
1567.00,0.8570
1566.00,0.8852
1565.00,0.9415
1564.00,1.0248
1563.00,1.1233
1562.00,1.2211
1561.00,1.3088
1560.00,1.3554
1559.00,1.2803
1558.00,1.1322
1557.00,1.0098
1556.00,0.9102
1555.00,0.8121
1554.00,0.7202
1553.00,0.6462
1552.00,0.5917
1551.00,0.5481
1550.00,0.5101
1549.00,0.4788
1548.00,0.4556
1547.00,0.4384
1546.00,0.4240
1545.00,0.4109
1544.00,0.3997
1543.00,0.3902
1542.00,0.3814
1541.00,0.3726
1540.00,0.3642
1539.00,0.3574
1538.00,0.3531
1537.00,0.3517
1536.00,0.3520
1535.00,0.3522
1534.00,0.3518
1533.00,0.3520
1532.00,0.3539
1531.00,0.3568
1530.00,0.3606
1529.00,0.3652
1528.00,0.3699
1527.00,0.3736
1526.00,0.3758
1525.00,0.3773
1524.00,0.3790
1523.00,0.3812
1522.00,0.3849
1521.00,0.3906
1520.00,0.3974
1519.00,0.4038
1518.00,0.4095
1517.00,0.4144
1516.00,0.4176
1515.00,0.4184
1514.00,0.4172
1513.00,0.4153
1512.00,0.4131
1511.00,0.4111
1510.00,0.4097
1509.00,0.4097
1508.00,0.4114
1507.00,0.4158
1506.00,0.4226
1505.00,0.4301
1504.00,0.4379
1503.00,0.4461
1502.00,0.4547
1501.00,0.4641
1500.00,0.4742
1499.00,0.4845
1498.00,0.4956
1497.00,0.5096
1496.00,0.5270
1495.00,0.5461
1494.00,0.5665
1493.00,0.5898
1492.00,0.6180
1491.00,0.6523
1490.00,0.6923
1489.00,0.7350
1488.00,0.7762
1487.00,0.8139
1486.00,0.8497
1485.00,0.8857
1484.00,0.9227
1483.00,0.9624
1482.00,1.0082
1481.00,1.0619
1480.00,1.1209
1479.00,1.1832
1478.00,1.2531
1477.00,1.3371
1476.00,1.4364
1475.00,1.5495
1474.00,1.6874
1473.00,1.8765
1472.00,2.1293
1471.00,2.4183
1470.00,2.7171
1469.00,3.0563
1468.00,3.4191
1467.00,3.5682
1466.00,3.6175
1465.00,3.6836
1464.00,3.6343
1463.00,3.5770
1462.00,3.6743
1461.00,3.9196
1460.00,3.8738
1459.00,3.7254
1458.00,3.5379
1457.00,3.5419
1456.00,3.5367
1455.00,3.4031
1454.00,3.4591
1453.00,3.7338
1452.00,3.9182
1451.00,3.6152
1450.00,3.3690
1449.00,3.2577
1448.00,3.0903
1447.00,2.8956
1446.00,2.7624
1445.00,2.6548
1444.00,2.5174
1443.00,2.3626
1442.00,2.2258
1441.00,2.1086
1440.00,1.9979
1439.00,1.8876
1438.00,1.7742
1437.00,1.6534
1436.00,1.5347
1435.00,1.4329
1434.00,1.3482
1433.00,1.2701
1432.00,1.1920
1431.00,1.1155
1430.00,1.0454
1429.00,0.9851
1428.00,0.9363
1427.00,0.8985
1426.00,0.8685
1425.00,0.8428
1424.00,0.8212
1423.00,0.8050
1422.00,0.7939
1421.00,0.7851
1420.00,0.7767
1419.00,0.7687
1418.00,0.7618
1417.00,0.7565
1416.00,0.7529
1415.00,0.7511
1414.00,0.7506
1413.00,0.7510
1412.00,0.7525
1411.00,0.7549
1410.00,0.7569
1409.00,0.7568
1408.00,0.7538
1407.00,0.7474
1406.00,0.7368
1405.00,0.7223
1404.00,0.7066
1403.00,0.6928
1402.00,0.6825
1401.00,0.6757
1400.00,0.6732
1399.00,0.6766
1398.00,0.6865
1397.00,0.7030
1396.00,0.7280
1395.00,0.7629
1394.00,0.8045
1393.00,0.8465
1392.00,0.8854
1391.00,0.9218
1390.00,0.9566
1389.00,0.9912
1388.00,1.0285
1387.00,1.0702
1386.00,1.1154
1385.00,1.1635
1384.00,1.2187
1383.00,1.2881
1382.00,1.3776
1381.00,1.4911
1380.00,1.6284
1379.00,1.7763
1378.00,1.8989
1377.00,1.9515
1376.00,1.9164
1375.00,1.8134
1374.00,1.6852
1373.00,1.5726
1372.00,1.4955
1371.00,1.4575
1370.00,1.4579
1369.00,1.4937
1368.00,1.5507
1367.00,1.5938
1366.00,1.5795
1365.00,1.4950
1364.00,1.3663
1363.00,1.2291
1362.00,1.1092
1361.00,1.0169
1360.00,0.9507
1359.00,0.9048
1358.00,0.8738
1357.00,0.8537
1356.00,0.8414
1355.00,0.8344
1354.00,0.8305
1353.00,0.8281
1352.00,0.8257
1351.00,0.8223
1350.00,0.8176
1349.00,0.8120
1348.00,0.8059
1347.00,0.8000
1346.00,0.7946
1345.00,0.7899
1344.00,0.7858
1343.00,0.7818
1342.00,0.7774
1341.00,0.7714
1340.00,0.7631
1339.00,0.7524
1338.00,0.7399
1337.00,0.7261
1336.00,0.7116
1335.00,0.6974
1334.00,0.6840
1333.00,0.6717
1332.00,0.6606
1331.00,0.6508
1330.00,0.6421
1329.00,0.6345
1328.00,0.6277
1327.00,0.6220
1326.00,0.6174
1325.00,0.6137
1324.00,0.6105
1323.00,0.6076
1322.00,0.6047
1321.00,0.6017
1320.00,0.5989
1319.00,0.5968
1318.00,0.5958
1317.00,0.5958
1316.00,0.5968
1315.00,0.5988
1314.00,0.6016
1313.00,0.6049
1312.00,0.6084
1311.00,0.6117
1310.00,0.6147
1309.00,0.6169
1308.00,0.6184
1307.00,0.6189
1306.00,0.6184
1305.00,0.6168
1304.00,0.6138
1303.00,0.6098
1302.00,0.6051
1301.00,0.5998
1300.00,0.5942
1299.00,0.5881
1298.00,0.5818
1297.00,0.5751
1296.00,0.5685
1295.00,0.5624
1294.00,0.5570
1293.00,0.5524
1292.00,0.5483
1291.00,0.5444
1290.00,0.5408
1289.00,0.5373
1288.00,0.5339
1287.00,0.5305
1286.00,0.5269
1285.00,0.5229
1284.00,0.5185
1283.00,0.5143
1282.00,0.5106
1281.00,0.5076
1280.00,0.5052
1279.00,0.5031
1278.00,0.5011
1277.00,0.4988
1276.00,0.4965
1275.00,0.4943
1274.00,0.4927
1273.00,0.4916
1272.00,0.4911
1271.00,0.4911
1270.00,0.4913
1269.00,0.4909
1268.00,0.4892
1267.00,0.4860
1266.00,0.4818
1265.00,0.4772
1264.00,0.4729
1263.00,0.4697
1262.00,0.4676
1261.00,0.4664
1260.00,0.4658
1259.00,0.4657
1258.00,0.4658
1257.00,0.4657
1256.00,0.4655
1255.00,0.4652
1254.00,0.4651
1253.00,0.4655
1252.00,0.4663
1251.00,0.4676
1250.00,0.4694
1249.00,0.4713
1248.00,0.4733
1247.00,0.4757
1246.00,0.4784
1245.00,0.4816
1244.00,0.4854
1243.00,0.4900
1242.00,0.4959
1241.00,0.5036
1240.00,0.5140
1239.00,0.5279
1238.00,0.5454
1237.00,0.5659
1236.00,0.5882
1235.00,0.6107
1234.00,0.6314
1233.00,0.6483
1232.00,0.6601
1231.00,0.6665
1230.00,0.6675
1229.00,0.6635
1228.00,0.6551
1227.00,0.6434
1226.00,0.6295
1225.00,0.6147
1224.00,0.5996
1223.00,0.5852
1222.00,0.5717
1221.00,0.5595
1220.00,0.5486
1219.00,0.5390
1218.00,0.5305
1217.00,0.5232
1216.00,0.5169
1215.00,0.5112
1214.00,0.5057
1213.00,0.4999
1212.00,0.4938
1211.00,0.4876
1210.00,0.4815
1209.00,0.4756
1208.00,0.4701
1207.00,0.4651
1206.00,0.4607
1205.00,0.4569
1204.00,0.4538
1203.00,0.4516
1202.00,0.4501
1201.00,0.4494
1200.00,0.4493
1199.00,0.4497
1198.00,0.4503
1197.00,0.4508
1196.00,0.4510
1195.00,0.4513
1194.00,0.4516
1193.00,0.4519
1192.00,0.4520
1191.00,0.4519
1190.00,0.4513
1189.00,0.4501
1188.00,0.4485
1187.00,0.4468
1186.00,0.4452
1185.00,0.4438
1184.00,0.4427
1183.00,0.4421
1182.00,0.4419
1181.00,0.4420
1180.00,0.4424
1179.00,0.4430
1178.00,0.4439
1177.00,0.4451
1176.00,0.4468
1175.00,0.4492
1174.00,0.4524
1173.00,0.4562
1172.00,0.4602
1171.00,0.4640
1170.00,0.4670
1169.00,0.4690
1168.00,0.4698
1167.00,0.4699
1166.00,0.4697
1165.00,0.4694
1164.00,0.4692
1163.00,0.4692
1162.00,0.4696
1161.00,0.4701
1160.00,0.4708
1159.00,0.4715
1158.00,0.4721
1157.00,0.4726
1156.00,0.4728
1155.00,0.4726
1154.00,0.4720
1153.00,0.4710
1152.00,0.4698
1151.00,0.4684
1150.00,0.4671
1149.00,0.4658
1148.00,0.4646
1147.00,0.4638
1146.00,0.4635
1145.00,0.4636
1144.00,0.4642
1143.00,0.4655
1142.00,0.4675
1141.00,0.4704
1140.00,0.4744
1139.00,0.4793
1138.00,0.4852
1137.00,0.4920
1136.00,0.4994
1135.00,0.5063
1134.00,0.5112
1133.00,0.5125
1132.00,0.5091
1131.00,0.5018
1130.00,0.4922
1129.00,0.4820
1128.00,0.4730
1127.00,0.4661
1126.00,0.4613
1125.00,0.4584
1124.00,0.4570
1123.00,0.4568
1122.00,0.4575
1121.00,0.4587
1120.00,0.4605
1119.00,0.4637
1118.00,0.4686
1117.00,0.4755
1116.00,0.4836
1115.00,0.4913
1114.00,0.4959
1113.00,0.4952
1112.00,0.4887
1111.00,0.4782
1110.00,0.4663
1109.00,0.4554
1108.00,0.4468
1107.00,0.4408
1106.00,0.4372
1105.00,0.4355
1104.00,0.4349
1103.00,0.4349
1102.00,0.4350
1101.00,0.4349
1100.00,0.4343
1099.00,0.4332
1098.00,0.4316
1097.00,0.4299
1096.00,0.4284
1095.00,0.4276
1094.00,0.4276
1093.00,0.4282
1092.00,0.4295
1091.00,0.4317
1090.00,0.4348
1089.00,0.4387
1088.00,0.4434
1087.00,0.4490
1086.00,0.4556
1085.00,0.4631
1084.00,0.4714
1083.00,0.4804
1082.00,0.4899
1081.00,0.4993
1080.00,0.5079
1079.00,0.5149
1078.00,0.5197
1077.00,0.5214
1076.00,0.5201
1075.00,0.5160
1074.00,0.5100
1073.00,0.5034
1072.00,0.4968
1071.00,0.4909
1070.00,0.4861
1069.00,0.4821
1068.00,0.4791
1067.00,0.4768
1066.00,0.4751
1065.00,0.4741
1064.00,0.4737
1063.00,0.4740
1062.00,0.4747
1061.00,0.4754
1060.00,0.4762
1059.00,0.4769
1058.00,0.4775
1057.00,0.4777
1056.00,0.4776
1055.00,0.4771
1054.00,0.4765
1053.00,0.4763
1052.00,0.4768
1051.00,0.4784
1050.00,0.4811
1049.00,0.4845
1048.00,0.4882
1047.00,0.4919
1046.00,0.4954
1045.00,0.4985
1044.00,0.5011
1043.00,0.5036
1042.00,0.5063
1041.00,0.5094
1040.00,0.5130
1039.00,0.5168
1038.00,0.5208
1037.00,0.5248
1036.00,0.5291
1035.00,0.5337
1034.00,0.5390
1033.00,0.5447
1032.00,0.5507
1031.00,0.5569
1030.00,0.5631
1029.00,0.5686
1028.00,0.5725
1027.00,0.5742
1026.00,0.5737
1025.00,0.5711
1024.00,0.5674
1023.00,0.5634
1022.00,0.5599
1021.00,0.5571
1020.00,0.5553
1019.00,0.5544
1018.00,0.5541
1017.00,0.5544
1016.00,0.5551
1015.00,0.5564
1014.00,0.5583
1013.00,0.5607
1012.00,0.5634
1011.00,0.5664
1010.00,0.5699
1009.00,0.5741
1008.00,0.5791
1007.00,0.5846
1006.00,0.5905
1005.00,0.5965
1004.00,0.6026
1003.00,0.6085
1002.00,0.6140
1001.00,0.6184
1000.00,0.6213
999.00,0.6223
998.00,0.6211
997.00,0.6175
996.00,0.6120
995.00,0.6053
994.00,0.5977
993.00,0.5891
992.00,0.5794
991.00,0.5688
990.00,0.5578
989.00,0.5468
988.00,0.5362
987.00,0.5265
986.00,0.5177
985.00,0.5097
984.00,0.5025
983.00,0.4961
982.00,0.4904
981.00,0.4852
980.00,0.4804
979.00,0.4758
978.00,0.4716
977.00,0.4679
976.00,0.4646
975.00,0.4619
974.00,0.4598
973.00,0.4581
972.00,0.4569
971.00,0.4564
970.00,0.4565
969.00,0.4571
968.00,0.4581
967.00,0.4591
966.00,0.4598
965.00,0.4596
964.00,0.4580
963.00,0.4551
962.00,0.4511
961.00,0.4468
960.00,0.4430
959.00,0.4404
958.00,0.4395
957.00,0.4401
956.00,0.4416
955.00,0.4435
954.00,0.4449
953.00,0.4452
952.00,0.4441
951.00,0.4419
950.00,0.4391
949.00,0.4361
948.00,0.4332
947.00,0.4306
946.00,0.4285
945.00,0.4266
944.00,0.4248
943.00,0.4230
942.00,0.4213
941.00,0.4194
940.00,0.4173
939.00,0.4151
938.00,0.4129
937.00,0.4106
936.00,0.4082
935.00,0.4061
934.00,0.4042
933.00,0.4025
932.00,0.4013
931.00,0.4007
930.00,0.4010
929.00,0.4023
928.00,0.4045
927.00,0.4076
926.00,0.4115
925.00,0.4161
924.00,0.4213
923.00,0.4267
922.00,0.4312
921.00,0.4338
920.00,0.4333
919.00,0.4291
918.00,0.4217
917.00,0.4122
916.00,0.4021
915.00,0.3923
914.00,0.3834
913.00,0.3755
912.00,0.3686
911.00,0.3626
910.00,0.3574
909.00,0.3526
908.00,0.3483
907.00,0.3448
906.00,0.3420
905.00,0.3403
904.00,0.3395
903.00,0.3398
902.00,0.3411
901.00,0.3433
900.00,0.3464
899.00,0.3504
898.00,0.3554
897.00,0.3612
896.00,0.3675
895.00,0.3745
894.00,0.3816
893.00,0.3885
892.00,0.3943
891.00,0.3983
890.00,0.4001
889.00,0.3994
888.00,0.3962
887.00,0.3912
886.00,0.3853
885.00,0.3794
884.00,0.3745
883.00,0.3709
882.00,0.3689
881.00,0.3681
880.00,0.3682
879.00,0.3690
878.00,0.3701
877.00,0.3713
876.00,0.3725
875.00,0.3738
874.00,0.3752
873.00,0.3765
872.00,0.3778
871.00,0.3792
870.00,0.3810
869.00,0.3833
868.00,0.3864
867.00,0.3905
866.00,0.3957
865.00,0.4018
864.00,0.4082
863.00,0.4140
862.00,0.4183
861.00,0.4200
860.00,0.4184
859.00,0.4141
858.00,0.4082
857.00,0.4018
856.00,0.3960
855.00,0.3913
854.00,0.3878
853.00,0.3853
852.00,0.3833
851.00,0.3816
850.00,0.3798
849.00,0.3779
848.00,0.3758
847.00,0.3738
846.00,0.3720
845.00,0.3704
844.00,0.3690
843.00,0.3682
842.00,0.3685
841.00,0.3705
840.00,0.3747
839.00,0.3812
838.00,0.3892
837.00,0.3967
836.00,0.4014
835.00,0.4013
834.00,0.3961
833.00,0.3871
832.00,0.3771
831.00,0.3683
830.00,0.3619
829.00,0.3580
828.00,0.3564
827.00,0.3568
826.00,0.3587
825.00,0.3616
824.00,0.3649
823.00,0.3682
822.00,0.3712
821.00,0.3735
820.00,0.3749
819.00,0.3755
818.00,0.3754
817.00,0.3746
816.00,0.3732
815.00,0.3712
814.00,0.3685
813.00,0.3650
812.00,0.3609
811.00,0.3564
810.00,0.3518
809.00,0.3474
808.00,0.3431
807.00,0.3392
806.00,0.3356
805.00,0.3321
804.00,0.3286
803.00,0.3253
802.00,0.3223
801.00,0.3197
800.00,0.3175
799.00,0.3161
798.00,0.3154
797.00,0.3150
796.00,0.3146
795.00,0.3142
794.00,0.3139
793.00,0.3139
792.00,0.3142
791.00,0.3148
790.00,0.3154
789.00,0.3157
788.00,0.3155
787.00,0.3150
786.00,0.3147
785.00,0.3150
784.00,0.3157
783.00,0.3170
782.00,0.3185
781.00,0.3201
780.00,0.3219
779.00,0.3240
778.00,0.3265
777.00,0.3292
776.00,0.3319
775.00,0.3348
774.00,0.3379
773.00,0.3409
772.00,0.3438
771.00,0.3466
770.00,0.3493
769.00,0.3519
768.00,0.3545
767.00,0.3572
766.00,0.3602
765.00,0.3634
764.00,0.3666
763.00,0.3702
762.00,0.3744
761.00,0.3790
760.00,0.3836
759.00,0.3875
758.00,0.3902
757.00,0.3916
756.00,0.3924
755.00,0.3932
754.00,0.3948
753.00,0.3972
752.00,0.4003
751.00,0.4041
750.00,0.4086
749.00,0.4139
748.00,0.4199
747.00,0.4264
746.00,0.4331
745.00,0.4398
744.00,0.4465
743.00,0.4535
742.00,0.4611
741.00,0.4689
740.00,0.4770
739.00,0.4851
738.00,0.4935
737.00,0.5022
736.00,0.5112
735.00,0.5203
734.00,0.5295
733.00,0.5391
732.00,0.5501
731.00,0.5635
730.00,0.5803
729.00,0.6013
728.00,0.6273
727.00,0.6592
726.00,0.6974
725.00,0.7404
724.00,0.7833
723.00,0.8170
722.00,0.8309
721.00,0.8181
720.00,0.7808
719.00,0.7295
718.00,0.6755
717.00,0.6255
716.00,0.5825
715.00,0.5469
714.00,0.5176
713.00,0.4931
712.00,0.4720
711.00,0.4537
710.00,0.4378
709.00,0.4241
708.00,0.4122
707.00,0.4016
706.00,0.3921
705.00,0.3833
704.00,0.3753
703.00,0.3682
702.00,0.3619
701.00,0.3563
700.00,0.3511
699.00,0.3458
698.00,0.3401
697.00,0.3337
696.00,0.3272
695.00,0.3215
694.00,0.3172
693.00,0.3141
692.00,0.3121
691.00,0.3110
690.00,0.3106
689.00,0.3107
688.00,0.3116
687.00,0.3132
686.00,0.3155
685.00,0.3182
684.00,0.3212
683.00,0.3245
682.00,0.3282
681.00,0.3322
680.00,0.3364
679.00,0.3407
678.00,0.3447
677.00,0.3482
676.00,0.3511
675.00,0.3536
674.00,0.3556
673.00,0.3568
672.00,0.3573
671.00,0.3576
670.00,0.3577
669.00,0.3574
668.00,0.3559
667.00,0.3537
666.00,0.3519
665.00,0.3508
664.00,0.3500
663.00,0.3489
662.00,0.3474
661.00,0.3456
660.00,0.3435
659.00,0.3412
658.00,0.3387
657.00,0.3361
656.00,0.3334
655.00,0.3308
654.00,0.3281
653.00,0.3253
652.00,0.3224
651.00,0.3198
650.00,0.3176
649.00,0.3158
648.00,0.3142
647.00,0.3133
646.00,0.3129
645.00,0.3126
644.00,0.3121
643.00,0.3116
642.00,0.3112
641.00,0.3109
640.00,0.3105
639.00,0.3102
638.00,0.3101
637.00,0.3099
636.00,0.3095
635.00,0.3089
634.00,0.3084
633.00,0.3081
632.00,0.3081
631.00,0.3087
630.00,0.3099
629.00,0.3114
628.00,0.3131
627.00,0.3150
626.00,0.3173
625.00,0.3197
624.00,0.3219
623.00,0.3238
622.00,0.3256
621.00,0.3270
620.00,0.3281
619.00,0.3290
618.00,0.3297
617.00,0.3303
616.00,0.3307
615.00,0.3307
614.00,0.3303
613.00,0.3294
612.00,0.3280
611.00,0.3264
610.00,0.3248
609.00,0.3231
608.00,0.3214
607.00,0.3201
606.00,0.3193
605.00,0.3187
604.00,0.3181
603.00,0.3178
602.00,0.3176
601.00,0.3175
600.00,0.3176
599.00,0.3182
598.00,0.3193
597.00,0.3208
596.00,0.3223
595.00,0.3240
594.00,0.3258
593.00,0.3278
592.00,0.3299
591.00,0.3321
590.00,0.3345
589.00,0.3371
588.00,0.3397
587.00,0.3427
586.00,0.3460
585.00,0.3493
584.00,0.3524
583.00,0.3554
582.00,0.3583
581.00,0.3610
580.00,0.3637
579.00,0.3667
578.00,0.3696
577.00,0.3722
576.00,0.3743
575.00,0.3765
574.00,0.3790
573.00,0.3817
572.00,0.3843
571.00,0.3868
570.00,0.3894
569.00,0.3921
568.00,0.3948
567.00,0.3972
566.00,0.3995
565.00,0.4013
564.00,0.4027
563.00,0.4038
562.00,0.4049
561.00,0.4062
560.00,0.4075
559.00,0.4088
558.00,0.4102
557.00,0.4114
556.00,0.4125
555.00,0.4137
554.00,0.4150
553.00,0.4162
552.00,0.4171
551.00,0.4181
550.00,0.4197
