Created as New Dataset,
cm-1,A
4000.00,0.0858
3999.00,0.0855
3998.00,0.0851
3997.00,0.0849
3996.00,0.0848
3995.00,0.0846
3994.00,0.0843
3993.00,0.0839
3992.00,0.0834
3991.00,0.0829
3990.00,0.0826
3989.00,0.0823
3988.00,0.0821
3987.00,0.0817
3986.00,0.0813
3985.00,0.0807
3984.00,0.0801
3983.00,0.0797
3982.00,0.0794
3981.00,0.0792
3980.00,0.0790
3979.00,0.0787
3978.00,0.0784
3977.00,0.0782
3976.00,0.0780
3975.00,0.0777
3974.00,0.0774
3973.00,0.0769
3972.00,0.0764
3971.00,0.0760
3970.00,0.0757
3969.00,0.0755
3968.00,0.0752
3967.00,0.0750
3966.00,0.0749
3965.00,0.0747
3964.00,0.0746
3963.00,0.0745
3962.00,0.0744
3961.00,0.0743
3960.00,0.0740
3959.00,0.0736
3958.00,0.0732
3957.00,0.0729
3956.00,0.0727
3955.00,0.0727
3954.00,0.0728
3953.00,0.0728
3952.00,0.0727
3951.00,0.0724
3950.00,0.0722
3949.00,0.0721
3948.00,0.0721
3947.00,0.0721
3946.00,0.0720
3945.00,0.0719
3944.00,0.0718
3943.00,0.0717
3942.00,0.0717
3941.00,0.0717
3940.00,0.0718
3939.00,0.0717
3938.00,0.0714
3937.00,0.0712
3936.00,0.0711
3935.00,0.0712
3934.00,0.0714
3933.00,0.0715
3932.00,0.0716
3931.00,0.0717
3930.00,0.0717
3929.00,0.0716
3928.00,0.0716
3927.00,0.0716
3926.00,0.0716
3925.00,0.0716
3924.00,0.0714
3923.00,0.0713
3922.00,0.0713
3921.00,0.0713
3920.00,0.0714
3919.00,0.0714
3918.00,0.0713
3917.00,0.0710
3916.00,0.0706
3915.00,0.0703
3914.00,0.0702
3913.00,0.0701
3912.00,0.0699
3911.00,0.0699
3910.00,0.0700
3909.00,0.0701
3908.00,0.0701
3907.00,0.0699
3906.00,0.0697
3905.00,0.0698
3904.00,0.0702
3903.00,0.0707
3902.00,0.0711
3901.00,0.0710
3900.00,0.0706
3899.00,0.0701
3898.00,0.0699
3897.00,0.0699
3896.00,0.0699
3895.00,0.0696
3894.00,0.0692
3893.00,0.0691
3892.00,0.0692
3891.00,0.0693
3890.00,0.0692
3889.00,0.0692
3888.00,0.0693
3887.00,0.0692
3886.00,0.0690
3885.00,0.0688
3884.00,0.0689
3883.00,0.0691
3882.00,0.0689
3881.00,0.0684
3880.00,0.0682
3879.00,0.0684
3878.00,0.0688
3877.00,0.0689
3876.00,0.0684
3875.00,0.0678
3874.00,0.0676
3873.00,0.0678
3872.00,0.0683
3871.00,0.0684
3870.00,0.0680
3869.00,0.0675
3868.00,0.0676
3867.00,0.0682
3866.00,0.0682
3865.00,0.0675
3864.00,0.0669
3863.00,0.0669
3862.00,0.0671
3861.00,0.0670
3860.00,0.0667
3859.00,0.0663
3858.00,0.0662
3857.00,0.0664
3856.00,0.0671
3855.00,0.0681
3854.00,0.0689
3853.00,0.0684
3852.00,0.0675
3851.00,0.0680
3850.00,0.0690
3849.00,0.0686
3848.00,0.0673
3847.00,0.0665
3846.00,0.0663
3845.00,0.0662
3844.00,0.0661
3843.00,0.0662
3842.00,0.0663
3841.00,0.0667
3840.00,0.0669
3839.00,0.0669
3838.00,0.0667
3837.00,0.0664
3836.00,0.0662
3835.00,0.0662
3834.00,0.0660
3833.00,0.0658
3832.00,0.0656
3831.00,0.0655
3830.00,0.0654
3829.00,0.0653
3828.00,0.0650
3827.00,0.0647
3826.00,0.0644
3825.00,0.0646
3824.00,0.0652
3823.00,0.0656
3822.00,0.0656
3821.00,0.0652
3820.00,0.0648
3819.00,0.0651
3818.00,0.0658
3817.00,0.0657
3816.00,0.0648
3815.00,0.0643
3814.00,0.0644
3813.00,0.0647
3812.00,0.0644
3811.00,0.0634
3810.00,0.0627
3809.00,0.0628
3808.00,0.0629
3807.00,0.0624
3806.00,0.0618
3805.00,0.0619
3804.00,0.0624
3803.00,0.0627
3802.00,0.0624
3801.00,0.0621
3800.00,0.0621
3799.00,0.0626
3798.00,0.0627
3797.00,0.0620
3796.00,0.0610
3795.00,0.0608
3794.00,0.0609
3793.00,0.0608
3792.00,0.0602
3791.00,0.0596
3790.00,0.0594
3789.00,0.0596
3788.00,0.0598
3787.00,0.0598
3786.00,0.0598
3785.00,0.0597
3784.00,0.0594
3783.00,0.0592
3782.00,0.0592
3781.00,0.0591
3780.00,0.0590
3779.00,0.0589
3778.00,0.0587
3777.00,0.0586
3776.00,0.0583
3775.00,0.0578
3774.00,0.0573
3773.00,0.0573
3772.00,0.0575
3771.00,0.0577
3770.00,0.0576
3769.00,0.0573
3768.00,0.0574
3767.00,0.0576
3766.00,0.0576
3765.00,0.0572
3764.00,0.0568
3763.00,0.0567
3762.00,0.0565
3761.00,0.0560
3760.00,0.0555
3759.00,0.0554
3758.00,0.0555
3757.00,0.0555
3756.00,0.0554
3755.00,0.0553
3754.00,0.0552
3753.00,0.0553
3752.00,0.0556
3751.00,0.0559
3750.00,0.0556
3749.00,0.0553
3748.00,0.0554
3747.00,0.0557
3746.00,0.0558
3745.00,0.0556
3744.00,0.0551
3743.00,0.0546
3742.00,0.0551
3741.00,0.0557
3740.00,0.0550
3739.00,0.0540
3738.00,0.0542
3737.00,0.0549
3736.00,0.0550
3735.00,0.0544
3734.00,0.0541
3733.00,0.0542
3732.00,0.0542
3731.00,0.0539
3730.00,0.0536
3729.00,0.0533
3728.00,0.0528
3727.00,0.0523
3726.00,0.0521
3725.00,0.0522
3724.00,0.0524
3723.00,0.0523
3722.00,0.0520
3721.00,0.0519
3720.00,0.0519
3719.00,0.0519
3718.00,0.0515
3717.00,0.0510
3716.00,0.0507
3715.00,0.0507
3714.00,0.0509
3713.00,0.0510
3712.00,0.0510
3711.00,0.0509
3710.00,0.0510
3709.00,0.0513
3708.00,0.0516
3707.00,0.0516
3706.00,0.0514
3705.00,0.0512
3704.00,0.0509
3703.00,0.0506
3702.00,0.0504
3701.00,0.0503
3700.00,0.0504
3699.00,0.0506
3698.00,0.0507
3697.00,0.0505
3696.00,0.0502
3695.00,0.0503
3694.00,0.0505
3693.00,0.0505
3692.00,0.0505
3691.00,0.0504
3690.00,0.0504
3689.00,0.0503
3688.00,0.0500
3687.00,0.0500
3686.00,0.0503
3685.00,0.0504
3684.00,0.0500
3683.00,0.0494
3682.00,0.0491
3681.00,0.0492
3680.00,0.0492
3679.00,0.0493
3678.00,0.0496
3677.00,0.0502
3676.00,0.0504
3675.00,0.0501
3674.00,0.0499
3673.00,0.0506
3672.00,0.0512
3671.00,0.0506
3670.00,0.0499
3669.00,0.0496
3668.00,0.0498
3667.00,0.0500
3666.00,0.0498
3665.00,0.0493
3664.00,0.0491
3663.00,0.0491
3662.00,0.0491
3661.00,0.0491
3660.00,0.0492
3659.00,0.0495
3658.00,0.0497
3657.00,0.0497
3656.00,0.0493
3655.00,0.0491
3654.00,0.0493
3653.00,0.0497
3652.00,0.0499
3651.00,0.0504
3650.00,0.0512
3649.00,0.0514
3648.00,0.0510
3647.00,0.0509
3646.00,0.0510
3645.00,0.0512
3644.00,0.0510
3643.00,0.0507
3642.00,0.0503
3641.00,0.0500
3640.00,0.0499
3639.00,0.0497
3638.00,0.0494
3637.00,0.0492
3636.00,0.0491
3635.00,0.0492
3634.00,0.0491
3633.00,0.0492
3632.00,0.0495
3631.00,0.0500
3630.00,0.0505
3629.00,0.0506
3628.00,0.0503
3627.00,0.0503
3626.00,0.0507
3625.00,0.0507
3624.00,0.0501
3623.00,0.0500
3622.00,0.0503
3621.00,0.0507
3620.00,0.0506
3619.00,0.0503
3618.00,0.0503
3617.00,0.0506
3616.00,0.0510
3615.00,0.0511
3614.00,0.0509
3613.00,0.0506
3612.00,0.0503
3611.00,0.0501
3610.00,0.0497
3609.00,0.0492
3608.00,0.0488
3607.00,0.0485
3606.00,0.0483
3605.00,0.0480
3604.00,0.0475
3603.00,0.0470
3602.00,0.0465
3601.00,0.0459
3600.00,0.0451
3599.00,0.0442
3598.00,0.0434
3597.00,0.0427
3596.00,0.0420
3595.00,0.0414
3594.00,0.0407
3593.00,0.0400
3592.00,0.0396
3591.00,0.0392
3590.00,0.0388
3589.00,0.0384
3588.00,0.0381
3587.00,0.0377
3586.00,0.0373
3585.00,0.0370
3584.00,0.0367
3583.00,0.0363
3582.00,0.0361
3581.00,0.0361
3580.00,0.0361
3579.00,0.0358
3578.00,0.0353
3577.00,0.0350
3576.00,0.0348
3575.00,0.0349
3574.00,0.0349
3573.00,0.0348
3572.00,0.0345
3571.00,0.0344
3570.00,0.0345
3569.00,0.0346
3568.00,0.0348
3567.00,0.0347
3566.00,0.0347
3565.00,0.0348
3564.00,0.0349
3563.00,0.0346
3562.00,0.0342
3561.00,0.0339
3560.00,0.0338
3559.00,0.0339
3558.00,0.0338
3557.00,0.0336
3556.00,0.0334
3555.00,0.0332
3554.00,0.0332
3553.00,0.0334
3552.00,0.0336
3551.00,0.0337
3550.00,0.0337
3549.00,0.0336
3548.00,0.0335
3547.00,0.0336
3546.00,0.0337
3545.00,0.0339
3544.00,0.0339
3543.00,0.0339
3542.00,0.0337
3541.00,0.0335
3540.00,0.0333
3539.00,0.0332
3538.00,0.0332
3537.00,0.0333
3536.00,0.0332
3535.00,0.0331
3534.00,0.0331
3533.00,0.0332
3532.00,0.0332
3531.00,0.0331
3530.00,0.0330
3529.00,0.0328
3528.00,0.0329
3527.00,0.0331
3526.00,0.0334
3525.00,0.0335
3524.00,0.0336
3523.00,0.0336
3522.00,0.0337
3521.00,0.0339
3520.00,0.0341
3519.00,0.0343
3518.00,0.0344
3517.00,0.0346
3516.00,0.0348
3515.00,0.0349
3514.00,0.0349
3513.00,0.0349
3512.00,0.0350
3511.00,0.0351
3510.00,0.0352
3509.00,0.0353
3508.00,0.0353
3507.00,0.0352
3506.00,0.0353
3505.00,0.0354
3504.00,0.0356
3503.00,0.0358
3502.00,0.0360
3501.00,0.0361
3500.00,0.0362
3499.00,0.0363
3498.00,0.0365
3497.00,0.0367
3496.00,0.0368
3495.00,0.0369
3494.00,0.0370
3493.00,0.0371
3492.00,0.0372
3491.00,0.0372
3490.00,0.0373
3489.00,0.0375
3488.00,0.0377
3487.00,0.0380
3486.00,0.0382
3485.00,0.0384
3484.00,0.0386
3483.00,0.0389
3482.00,0.0390
3481.00,0.0390
3480.00,0.0388
3479.00,0.0387
3478.00,0.0387
3477.00,0.0390
3476.00,0.0391
3475.00,0.0392
3474.00,0.0392
3473.00,0.0393
3472.00,0.0395
3471.00,0.0398
3470.00,0.0400
3469.00,0.0401
3468.00,0.0401
3467.00,0.0400
3466.00,0.0401
3465.00,0.0403
3464.00,0.0406
3463.00,0.0407
3462.00,0.0407
3461.00,0.0407
3460.00,0.0409
3459.00,0.0412
3458.00,0.0415
3457.00,0.0416
3456.00,0.0415
3455.00,0.0414
3454.00,0.0414
3453.00,0.0415
3452.00,0.0418
3451.00,0.0421
3450.00,0.0423
3449.00,0.0424
3448.00,0.0425
3447.00,0.0426
3446.00,0.0429
3445.00,0.0433
3444.00,0.0436
3443.00,0.0438
3442.00,0.0438
3441.00,0.0437
3440.00,0.0437
3439.00,0.0436
3438.00,0.0436
3437.00,0.0435
3436.00,0.0436
3435.00,0.0436
3434.00,0.0437
3433.00,0.0437
3432.00,0.0438
3431.00,0.0440
3430.00,0.0443
3429.00,0.0445
3428.00,0.0447
3427.00,0.0447
3426.00,0.0446
3425.00,0.0446
3424.00,0.0448
3423.00,0.0449
3422.00,0.0451
3421.00,0.0453
3420.00,0.0454
3419.00,0.0454
3418.00,0.0454
3417.00,0.0453
3416.00,0.0453
3415.00,0.0453
3414.00,0.0454
3413.00,0.0454
3412.00,0.0455
3411.00,0.0457
3410.00,0.0460
3409.00,0.0462
3408.00,0.0462
3407.00,0.0462
3406.00,0.0461
3405.00,0.0461
3404.00,0.0462
3403.00,0.0464
3402.00,0.0465
3401.00,0.0466
3400.00,0.0468
3399.00,0.0470
3398.00,0.0472
3397.00,0.0474
3396.00,0.0475
3395.00,0.0475
3394.00,0.0476
3393.00,0.0476
3392.00,0.0477
3391.00,0.0478
3390.00,0.0479
3389.00,0.0480
3388.00,0.0482
3387.00,0.0485
3386.00,0.0488
3385.00,0.0491
3384.00,0.0494
3383.00,0.0494
3382.00,0.0493
3381.00,0.0493
3380.00,0.0494
3379.00,0.0496
3378.00,0.0498
3377.00,0.0500
3376.00,0.0501
3375.00,0.0503
3374.00,0.0505
3373.00,0.0505
3372.00,0.0505
3371.00,0.0505
3370.00,0.0506
3369.00,0.0507
3368.00,0.0507
3367.00,0.0506
3366.00,0.0505
3365.00,0.0504
3364.00,0.0504
3363.00,0.0504
3362.00,0.0503
3361.00,0.0503
3360.00,0.0504
3359.00,0.0507
3358.00,0.0511
3357.00,0.0513
3356.00,0.0513
3355.00,0.0511
3354.00,0.0510
3353.00,0.0511
3352.00,0.0512
3351.00,0.0511
3350.00,0.0510
3349.00,0.0509
3348.00,0.0511
3347.00,0.0514
3346.00,0.0517
3345.00,0.0519
3344.00,0.0519
3343.00,0.0517
3342.00,0.0516
3341.00,0.0516
3340.00,0.0517
3339.00,0.0519
3338.00,0.0520
3337.00,0.0519
3336.00,0.0518
3335.00,0.0517
3334.00,0.0518
3333.00,0.0519
3332.00,0.0520
3331.00,0.0519
3330.00,0.0519
3329.00,0.0518
3328.00,0.0517
3327.00,0.0516
3326.00,0.0517
3325.00,0.0518
3324.00,0.0519
3323.00,0.0520
3322.00,0.0519
3321.00,0.0518
3320.00,0.0518
3319.00,0.0517
3318.00,0.0517
3317.00,0.0516
3316.00,0.0516
3315.00,0.0517
3314.00,0.0518
3313.00,0.0518
3312.00,0.0519
3311.00,0.0520
3310.00,0.0521
3309.00,0.0522
3308.00,0.0522
3307.00,0.0521
3306.00,0.0520
3305.00,0.0520
3304.00,0.0520
3303.00,0.0521
3302.00,0.0523
3301.00,0.0524
3300.00,0.0524
3299.00,0.0522
3298.00,0.0521
3297.00,0.0521
3296.00,0.0522
3295.00,0.0523
3294.00,0.0523
3293.00,0.0523
3292.00,0.0523
3291.00,0.0524
3290.00,0.0524
3289.00,0.0526
3288.00,0.0528
3287.00,0.0528
3286.00,0.0527
3285.00,0.0526
3284.00,0.0526
3283.00,0.0530
3282.00,0.0534
3281.00,0.0538
3280.00,0.0539
3279.00,0.0540
3278.00,0.0541
3277.00,0.0543
3276.00,0.0546
3275.00,0.0548
3274.00,0.0550
3273.00,0.0551
3272.00,0.0552
3271.00,0.0554
3270.00,0.0557
3269.00,0.0559
3268.00,0.0561
3267.00,0.0562
3266.00,0.0563
3265.00,0.0564
3264.00,0.0566
3263.00,0.0569
3262.00,0.0571
3261.00,0.0573
3260.00,0.0575
3259.00,0.0578
3258.00,0.0582
3257.00,0.0586
3256.00,0.0588
3255.00,0.0590
3254.00,0.0592
3253.00,0.0595
3252.00,0.0598
3251.00,0.0601
3250.00,0.0604
3249.00,0.0608
3248.00,0.0612
3247.00,0.0616
3246.00,0.0618
3245.00,0.0620
3244.00,0.0622
3243.00,0.0626
3242.00,0.0632
3241.00,0.0638
3240.00,0.0643
3239.00,0.0647
3238.00,0.0651
3237.00,0.0654
3236.00,0.0660
3235.00,0.0666
3234.00,0.0672
3233.00,0.0678
3232.00,0.0683
3231.00,0.0688
3230.00,0.0694
3229.00,0.0702
3228.00,0.0710
3227.00,0.0716
3226.00,0.0722
3225.00,0.0728
3224.00,0.0733
3223.00,0.0740
3222.00,0.0749
3221.00,0.0759
3220.00,0.0769
3219.00,0.0779
3218.00,0.0788
3217.00,0.0796
3216.00,0.0805
3215.00,0.0816
3214.00,0.0826
3213.00,0.0837
3212.00,0.0847
3211.00,0.0857
3210.00,0.0868
3209.00,0.0880
3208.00,0.0892
3207.00,0.0902
3206.00,0.0912
3205.00,0.0923
3204.00,0.0935
3203.00,0.0945
3202.00,0.0955
3201.00,0.0963
3200.00,0.0973
3199.00,0.0983
3198.00,0.0995
3197.00,0.1006
3196.00,0.1016
3195.00,0.1026
3194.00,0.1035
3193.00,0.1044
3192.00,0.1053
3191.00,0.1061
3190.00,0.1068
3189.00,0.1074
3188.00,0.1080
3187.00,0.1086
3186.00,0.1093
3185.00,0.1099
3184.00,0.1106
3183.00,0.1113
3182.00,0.1119
3181.00,0.1124
3180.00,0.1129
3179.00,0.1134
3178.00,0.1139
3177.00,0.1144
3176.00,0.1146
3175.00,0.1146
3174.00,0.1147
3173.00,0.1148
3172.00,0.1151
3171.00,0.1154
3170.00,0.1157
3169.00,0.1159
3168.00,0.1161
3167.00,0.1164
3166.00,0.1167
3165.00,0.1170
3164.00,0.1172
3163.00,0.1174
3162.00,0.1175
3161.00,0.1178
3160.00,0.1180
3159.00,0.1181
3158.00,0.1180
3157.00,0.1180
3156.00,0.1182
3155.00,0.1185
3154.00,0.1186
3153.00,0.1187
3152.00,0.1187
3151.00,0.1188
3150.00,0.1191
3149.00,0.1194
3148.00,0.1196
3147.00,0.1198
3146.00,0.1197
3145.00,0.1196
3144.00,0.1194
3143.00,0.1194
3142.00,0.1196
3141.00,0.1199
3140.00,0.1203
3139.00,0.1206
3138.00,0.1208
3137.00,0.1209
3136.00,0.1211
3135.00,0.1213
3134.00,0.1216
3133.00,0.1219
3132.00,0.1222
3131.00,0.1225
3130.00,0.1229
3129.00,0.1234
3128.00,0.1239
3127.00,0.1243
3126.00,0.1247
3125.00,0.1252
3124.00,0.1258
3123.00,0.1264
3122.00,0.1270
3121.00,0.1276
3120.00,0.1283
3119.00,0.1290
3118.00,0.1296
3117.00,0.1302
3116.00,0.1308
3115.00,0.1315
3114.00,0.1323
3113.00,0.1331
3112.00,0.1339
3111.00,0.1346
3110.00,0.1355
3109.00,0.1366
3108.00,0.1378
3107.00,0.1391
3106.00,0.1403
3105.00,0.1414
3104.00,0.1424
3103.00,0.1437
3102.00,0.1449
3101.00,0.1461
3100.00,0.1472
3099.00,0.1483
3098.00,0.1498
3097.00,0.1515
3096.00,0.1533
3095.00,0.1550
3094.00,0.1567
3093.00,0.1585
3092.00,0.1605
3091.00,0.1627
3090.00,0.1651
3089.00,0.1677
3088.00,0.1705
3087.00,0.1735
3086.00,0.1766
3085.00,0.1800
3084.00,0.1836
3083.00,0.1873
3082.00,0.1910
3081.00,0.1948
3080.00,0.1988
3079.00,0.2031
3078.00,0.2074
3077.00,0.2117
3076.00,0.2159
3075.00,0.2201
3074.00,0.2244
3073.00,0.2288
3072.00,0.2330
3071.00,0.2370
3070.00,0.2411
3069.00,0.2453
3068.00,0.2496
3067.00,0.2542
3066.00,0.2587
3065.00,0.2629
3064.00,0.2668
3063.00,0.2704
3062.00,0.2739
3061.00,0.2772
3060.00,0.2805
3059.00,0.2836
3058.00,0.2864
3057.00,0.2891
3056.00,0.2917
3055.00,0.2944
3054.00,0.2972
3053.00,0.3003
3052.00,0.3037
3051.00,0.3072
3050.00,0.3109
3049.00,0.3147
3048.00,0.3186
3047.00,0.3228
3046.00,0.3273
3045.00,0.3320
3044.00,0.3367
3043.00,0.3413
3042.00,0.3459
3041.00,0.3504
3040.00,0.3550
3039.00,0.3595
3038.00,0.3643
3037.00,0.3693
3036.00,0.3746
3035.00,0.3802
3034.00,0.3861
3033.00,0.3923
3032.00,0.3989
3031.00,0.4059
3030.00,0.4132
3029.00,0.4211
3028.00,0.4293
3027.00,0.4378
3026.00,0.4469
3025.00,0.4567
3024.00,0.4672
3023.00,0.4779
3022.00,0.4887
3021.00,0.4998
3020.00,0.5112
3019.00,0.5232
3018.00,0.5355
3017.00,0.5476
3016.00,0.5596
3015.00,0.5716
3014.00,0.5837
3013.00,0.5958
3012.00,0.6079
3011.00,0.6203
3010.00,0.6334
3009.00,0.6473
3008.00,0.6622
3007.00,0.6778
3006.00,0.6943
3005.00,0.7118
3004.00,0.7301
3003.00,0.7491
3002.00,0.7689
3001.00,0.7894
3000.00,0.8108
2999.00,0.8330
2998.00,0.8561
2997.00,0.8802
2996.00,0.9060
2995.00,0.9346
2994.00,0.9674
2993.00,1.0046
2992.00,1.0456
2991.00,1.0894
2990.00,1.1365
2989.00,1.1880
2988.00,1.2451
2987.00,1.3082
2986.00,1.3772
2985.00,1.4523
2984.00,1.5350
2983.00,1.6267
2982.00,1.7266
2981.00,1.8304
2980.00,1.9340
2979.00,2.0396
2978.00,2.1503
2977.00,2.2574
2976.00,2.3395
2975.00,2.3907
2974.00,2.4323
2973.00,2.4793
2972.00,2.5240
2971.00,2.5555
2970.00,2.5788
2969.00,2.6022
2968.00,2.6189
2967.00,2.6262
2966.00,2.6412
2965.00,2.6817
2964.00,2.7358
2963.00,2.7614
2962.00,2.7354
2961.00,2.6801
2960.00,2.6328
2959.00,2.6155
2958.00,2.6343
2957.00,2.6724
2956.00,2.6927
2955.00,2.6703
2954.00,2.6252
2953.00,2.5935
2952.00,2.5896
2951.00,2.5995
2950.00,2.6004
2949.00,2.5923
2948.00,2.5997
2947.00,2.6337
2946.00,2.6605
2945.00,2.6333
2944.00,2.5730
2943.00,2.5384
2942.00,2.5495
2941.00,2.5794
2940.00,2.5902
2939.00,2.5852
2938.00,2.5944
2937.00,2.6228
2936.00,2.6468
2935.00,2.6582
2934.00,2.6869
2933.00,2.7600
2932.00,2.8687
2931.00,2.9623
2930.00,2.9867
2929.00,2.9404
2928.00,2.8622
2927.00,2.7895
2926.00,2.7346
2925.00,2.6823
2924.00,2.6198
2923.00,2.5678
2922.00,2.5527
2921.00,2.5731
2920.00,2.5973
2919.00,2.6022
2918.00,2.6006
2917.00,2.6099
2916.00,2.6238
2915.00,2.6307
2914.00,2.6353
2913.00,2.6461
2912.00,2.6580
2911.00,2.6580
2910.00,2.6412
2909.00,2.6153
2908.00,2.5965
2907.00,2.5959
2906.00,2.6066
2905.00,2.6102
2904.00,2.6066
2903.00,2.6212
2902.00,2.6659
2901.00,2.7032
2900.00,2.6846
2899.00,2.6239
2898.00,2.5730
2897.00,2.5588
2896.00,2.5788
2895.00,2.6116
2894.00,2.6231
2893.00,2.6056
2892.00,2.5873
2891.00,2.5896
2890.00,2.5964
2889.00,2.5767
2888.00,2.5356
2887.00,2.5096
2886.00,2.5183
2885.00,2.5481
2884.00,2.5722
2883.00,2.5801
2882.00,2.5765
2881.00,2.5591
2880.00,2.5244
2879.00,2.4876
2878.00,2.4699
2877.00,2.4782
2876.00,2.5052
2875.00,2.5378
2874.00,2.5615
2873.00,2.5653
2872.00,2.5572
2871.00,2.5621
2870.00,2.5956
2869.00,2.6454
2868.00,2.6831
2867.00,2.6991
2866.00,2.7096
2865.00,2.7210
2864.00,2.7193
2863.00,2.7042
2862.00,2.6955
2861.00,2.6979
2860.00,2.6923
2859.00,2.6730
2858.00,2.6605
2857.00,2.6631
2856.00,2.6667
2855.00,2.6636
2854.00,2.6652
2853.00,2.6760
2852.00,2.6818
2851.00,2.6708
2850.00,2.6503
2849.00,2.6331
2848.00,2.6251
2847.00,2.6281
2846.00,2.6364
2845.00,2.6371
2844.00,2.6288
2843.00,2.6279
2842.00,2.6413
2841.00,2.6417
2840.00,2.5924
2839.00,2.5034
2838.00,2.4127
2837.00,2.3333
2836.00,2.2525
2835.00,2.1572
2834.00,2.0467
2833.00,1.9279
2832.00,1.8091
2831.00,1.6985
2830.00,1.6006
2829.00,1.5145
2828.00,1.4370
2827.00,1.3657
2826.00,1.2993
2825.00,1.2374
2824.00,1.1801
2823.00,1.1282
2822.00,1.0820
2821.00,1.0402
2820.00,1.0018
2819.00,0.9660
2818.00,0.9327
2817.00,0.9015
2816.00,0.8719
2815.00,0.8437
2814.00,0.8169
2813.00,0.7918
2812.00,0.7679
2811.00,0.7450
2810.00,0.7230
2809.00,0.7019
2808.00,0.6819
2807.00,0.6629
2806.00,0.6451
2805.00,0.6281
2804.00,0.6115
2803.00,0.5953
2802.00,0.5798
2801.00,0.5650
2800.00,0.5510
2799.00,0.5377
2798.00,0.5251
2797.00,0.5130
2796.00,0.5013
2795.00,0.4900
2794.00,0.4790
2793.00,0.4685
2792.00,0.4584
2791.00,0.4486
2790.00,0.4389
2789.00,0.4294
2788.00,0.4201
2787.00,0.4111
2786.00,0.4022
2785.00,0.3935
2784.00,0.3850
2783.00,0.3767
2782.00,0.3689
2781.00,0.3614
2780.00,0.3541
2779.00,0.3470
2778.00,0.3401
2777.00,0.3335
2776.00,0.3273
2775.00,0.3217
2774.00,0.3165
2773.00,0.3117
2772.00,0.3071
2771.00,0.3027
2770.00,0.2988
2769.00,0.2952
2768.00,0.2919
2767.00,0.2889
2766.00,0.2862
2765.00,0.2841
2764.00,0.2824
2763.00,0.2811
2762.00,0.2799
2761.00,0.2785
2760.00,0.2770
2759.00,0.2757
2758.00,0.2744
2757.00,0.2734
2756.00,0.2725
2755.00,0.2718
2754.00,0.2710
2753.00,0.2705
2752.00,0.2703
2751.00,0.2704
2750.00,0.2706
2749.00,0.2707
2748.00,0.2707
2747.00,0.2711
2746.00,0.2719
2745.00,0.2732
2744.00,0.2747
2743.00,0.2764
2742.00,0.2783
2741.00,0.2805
2740.00,0.2831
2739.00,0.2862
2738.00,0.2899
2737.00,0.2942
2736.00,0.2990
2735.00,0.3043
2734.00,0.3097
2733.00,0.3150
2732.00,0.3198
2731.00,0.3240
2730.00,0.3272
2729.00,0.3291
2728.00,0.3298
2727.00,0.3293
2726.00,0.3278
2725.00,0.3256
2724.00,0.3230
2723.00,0.3203
2722.00,0.3174
2721.00,0.3145
2720.00,0.3114
2719.00,0.3081
2718.00,0.3044
2717.00,0.3003
2716.00,0.2958
2715.00,0.2913
2714.00,0.2870
2713.00,0.2830
2712.00,0.2791
2711.00,0.2753
2710.00,0.2718
2709.00,0.2686
2708.00,0.2659
2707.00,0.2638
2706.00,0.2624
2705.00,0.2613
2704.00,0.2605
2703.00,0.2599
2702.00,0.2596
2701.00,0.2594
2700.00,0.2596
2699.00,0.2601
2698.00,0.2607
2697.00,0.2614
2696.00,0.2621
2695.00,0.2629
2694.00,0.2641
2693.00,0.2656
2692.00,0.2672
2691.00,0.2687
2690.00,0.2701
2689.00,0.2713
2688.00,0.2725
2687.00,0.2736
2686.00,0.2746
2685.00,0.2753
2684.00,0.2758
2683.00,0.2759
2682.00,0.2757
2681.00,0.2755
2680.00,0.2755
2679.00,0.2755
2678.00,0.2755
2677.00,0.2753
2676.00,0.2749
2675.00,0.2746
2674.00,0.2744
2673.00,0.2740
2672.00,0.2735
2671.00,0.2727
2670.00,0.2719
2669.00,0.2710
2668.00,0.2700
2667.00,0.2685
2666.00,0.2666
2665.00,0.2643
2664.00,0.2621
2663.00,0.2600
2662.00,0.2578
2661.00,0.2557
2660.00,0.2535
2659.00,0.2515
2658.00,0.2496
2657.00,0.2478
2656.00,0.2460
2655.00,0.2443
2654.00,0.2428
2653.00,0.2413
2652.00,0.2398
2651.00,0.2383
2650.00,0.2368
2649.00,0.2355
2648.00,0.2344
2647.00,0.2334
2646.00,0.2322
2645.00,0.2310
2644.00,0.2298
2643.00,0.2289
2642.00,0.2281
2641.00,0.2273
2640.00,0.2264
2639.00,0.2255
2638.00,0.2245
2637.00,0.2236
2636.00,0.2228
2635.00,0.2220
2634.00,0.2213
2633.00,0.2208
2632.00,0.2203
2631.00,0.2198
2630.00,0.2192
2629.00,0.2184
2628.00,0.2176
2627.00,0.2168
2626.00,0.2161
2625.00,0.2153
2624.00,0.2145
2623.00,0.2138
2622.00,0.2130
2621.00,0.2122
2620.00,0.2114
2619.00,0.2106
2618.00,0.2098
2617.00,0.2090
2616.00,0.2082
2615.00,0.2074
2614.00,0.2065
2613.00,0.2056
2612.00,0.2048
2611.00,0.2040
2610.00,0.2032
2609.00,0.2022
2608.00,0.2010
2607.00,0.1998
2606.00,0.1986
2605.00,0.1974
2604.00,0.1964
2603.00,0.1953
2602.00,0.1942
2601.00,0.1931
2600.00,0.1919
2599.00,0.1908
2598.00,0.1896
2597.00,0.1884
2596.00,0.1871
2595.00,0.1856
2594.00,0.1842
2593.00,0.1828
2592.00,0.1815
2591.00,0.1802
2590.00,0.1788
2589.00,0.1773
2588.00,0.1757
2587.00,0.1741
2586.00,0.1725
2585.00,0.1709
2584.00,0.1693
2583.00,0.1677
2582.00,0.1660
2581.00,0.1642
2580.00,0.1625
2579.00,0.1606
2578.00,0.1588
2577.00,0.1570
2576.00,0.1552
2575.00,0.1535
2574.00,0.1520
2573.00,0.1505
2572.00,0.1490
2571.00,0.1472
2570.00,0.1454
2569.00,0.1438
2568.00,0.1426
2567.00,0.1414
2566.00,0.1401
2565.00,0.1387
2564.00,0.1372
2563.00,0.1359
2562.00,0.1344
2561.00,0.1331
2560.00,0.1318
2559.00,0.1306
2558.00,0.1293
2557.00,0.1281
2556.00,0.1269
2555.00,0.1259
2554.00,0.1249
2553.00,0.1241
2552.00,0.1232
2551.00,0.1224
2550.00,0.1215
2549.00,0.1205
2548.00,0.1194
2547.00,0.1185
2546.00,0.1176
2545.00,0.1169
2544.00,0.1161
2543.00,0.1154
2542.00,0.1147
2541.00,0.1139
2540.00,0.1131
2539.00,0.1124
2538.00,0.1117
2537.00,0.1110
2536.00,0.1104
2535.00,0.1097
2534.00,0.1092
2533.00,0.1087
2532.00,0.1082
2531.00,0.1077
2530.00,0.1070
2529.00,0.1062
2528.00,0.1052
2527.00,0.1043
2526.00,0.1034
2525.00,0.1026
2524.00,0.1017
2523.00,0.1009
2522.00,0.1002
2521.00,0.0994
2520.00,0.0986
2519.00,0.0978
2518.00,0.0969
2517.00,0.0961
2516.00,0.0952
2515.00,0.0944
2514.00,0.0937
2513.00,0.0929
2512.00,0.0921
2511.00,0.0913
2510.00,0.0904
2509.00,0.0897
2508.00,0.0890
2507.00,0.0884
2506.00,0.0879
2505.00,0.0874
2504.00,0.0868
2503.00,0.0861
2502.00,0.0854
2501.00,0.0850
2500.00,0.0846
2499.00,0.0842
2498.00,0.0837
2497.00,0.0831
2496.00,0.0826
2495.00,0.0822
2494.00,0.0819
2493.00,0.0815
2492.00,0.0811
2491.00,0.0807
2490.00,0.0804
2489.00,0.0801
2488.00,0.0798
2487.00,0.0794
2486.00,0.0790
2485.00,0.0787
2484.00,0.0785
2483.00,0.0784
2482.00,0.0782
2481.00,0.0780
2480.00,0.0777
2479.00,0.0774
2478.00,0.0772
2477.00,0.0771
2476.00,0.0771
2475.00,0.0769
2474.00,0.0766
2473.00,0.0763
2472.00,0.0761
2471.00,0.0759
2470.00,0.0756
2469.00,0.0754
2468.00,0.0753
2467.00,0.0753
2466.00,0.0752
2465.00,0.0750
2464.00,0.0747
2463.00,0.0745
2462.00,0.0744
2461.00,0.0744
2460.00,0.0746
2459.00,0.0747
2458.00,0.0747
2457.00,0.0746
2456.00,0.0745
2455.00,0.0746
2454.00,0.0747
2453.00,0.0747
2452.00,0.0746
2451.00,0.0745
2450.00,0.0745
2449.00,0.0745
2448.00,0.0745
2447.00,0.0746
2446.00,0.0747
2445.00,0.0747
2444.00,0.0748
2443.00,0.0748
2442.00,0.0748
2441.00,0.0748
2440.00,0.0748
2439.00,0.0748
2438.00,0.0748
2437.00,0.0749
2436.00,0.0749
2435.00,0.0749
2434.00,0.0749
2433.00,0.0750
2432.00,0.0752
2431.00,0.0753
2430.00,0.0754
2429.00,0.0755
2428.00,0.0757
2427.00,0.0758
2426.00,0.0760
2425.00,0.0762
2424.00,0.0763
2423.00,0.0765
2422.00,0.0766
2421.00,0.0767
2420.00,0.0768
2419.00,0.0769
2418.00,0.0771
2417.00,0.0773
2416.00,0.0776
2415.00,0.0779
2414.00,0.0781
2413.00,0.0782
2412.00,0.0783
2411.00,0.0782
2410.00,0.0782
2409.00,0.0783
2408.00,0.0784
2407.00,0.0785
2406.00,0.0785
2405.00,0.0785
2404.00,0.0785
2403.00,0.0785
2402.00,0.0784
2401.00,0.0782
2400.00,0.0779
2399.00,0.0777
2398.00,0.0775
2397.00,0.0774
2396.00,0.0773
2395.00,0.0772
2394.00,0.0771
2393.00,0.0771
2392.00,0.0770
2391.00,0.0768
2390.00,0.0766
2389.00,0.0764
2388.00,0.0763
2387.00,0.0762
2386.00,0.0762
2385.00,0.0762
2384.00,0.0763
2383.00,0.0763
2382.00,0.0763
2381.00,0.0764
2380.00,0.0765
2379.00,0.0765
2378.00,0.0765
2377.00,0.0765
2376.00,0.0767
2375.00,0.0768
2374.00,0.0769
2373.00,0.0769
2372.00,0.0769
2371.00,0.0769
2370.00,0.0769
2369.00,0.0768
2368.00,0.0768
2367.00,0.0767
2366.00,0.0767
2365.00,0.0766
2364.00,0.0766
2363.00,0.0767
2362.00,0.0769
2361.00,0.0773
2360.00,0.0775
2359.00,0.0775
2358.00,0.0773
2357.00,0.0772
2356.00,0.0771
2355.00,0.0771
2354.00,0.0770
2353.00,0.0771
2352.00,0.0772
2351.00,0.0773
2350.00,0.0773
2349.00,0.0772
2348.00,0.0772
2347.00,0.0772
2346.00,0.0771
2345.00,0.0769
2344.00,0.0769
2343.00,0.0772
2342.00,0.0775
2341.00,0.0777
2340.00,0.0777
2339.00,0.0776
2338.00,0.0774
2337.00,0.0774
2336.00,0.0774
2335.00,0.0774
2334.00,0.0774
2333.00,0.0772
2332.00,0.0768
2331.00,0.0764
2330.00,0.0761
2329.00,0.0760
2328.00,0.0759
2327.00,0.0756
2326.00,0.0753
2325.00,0.0750
2324.00,0.0748
2323.00,0.0748
2322.00,0.0748
2321.00,0.0746
2320.00,0.0744
2319.00,0.0742
2318.00,0.0740
2317.00,0.0739
2316.00,0.0738
2315.00,0.0736
2314.00,0.0733
2313.00,0.0729
2312.00,0.0725
2311.00,0.0723
2310.00,0.0720
2309.00,0.0718
2308.00,0.0717
2307.00,0.0716
2306.00,0.0714
2305.00,0.0711
2304.00,0.0706
2303.00,0.0701
2302.00,0.0697
2301.00,0.0694
2300.00,0.0691
2299.00,0.0689
2298.00,0.0688
2297.00,0.0686
2296.00,0.0683
2295.00,0.0680
2294.00,0.0676
2293.00,0.0672
2292.00,0.0669
2291.00,0.0666
2290.00,0.0664
2289.00,0.0663
2288.00,0.0662
2287.00,0.0660
2286.00,0.0657
2285.00,0.0655
2284.00,0.0653
2283.00,0.0651
2282.00,0.0650
2281.00,0.0648
2280.00,0.0646
2279.00,0.0644
2278.00,0.0642
2277.00,0.0640
2276.00,0.0639
2275.00,0.0637
2274.00,0.0636
2273.00,0.0635
2272.00,0.0634
2271.00,0.0633
2270.00,0.0631
2269.00,0.0628
2268.00,0.0626
2267.00,0.0625
2266.00,0.0623
2265.00,0.0622
2264.00,0.0620
2263.00,0.0618
2262.00,0.0615
2261.00,0.0613
2260.00,0.0611
2259.00,0.0608
2258.00,0.0606
2257.00,0.0602
2256.00,0.0599
2255.00,0.0596
2254.00,0.0593
2253.00,0.0591
2252.00,0.0590
2251.00,0.0588
2250.00,0.0586
2249.00,0.0584
2248.00,0.0581
2247.00,0.0578
2246.00,0.0575
2245.00,0.0573
2244.00,0.0571
2243.00,0.0570
2242.00,0.0569
2241.00,0.0568
2240.00,0.0568
2239.00,0.0566
2238.00,0.0564
2237.00,0.0562
2236.00,0.0561
2235.00,0.0560
2234.00,0.0559
2233.00,0.0556
2232.00,0.0555
2231.00,0.0554
2230.00,0.0553
2229.00,0.0553
2228.00,0.0554
2227.00,0.0554
2226.00,0.0554
2225.00,0.0555
2224.00,0.0556
2223.00,0.0556
2222.00,0.0556
2221.00,0.0555
2220.00,0.0556
2219.00,0.0556
2218.00,0.0556
2217.00,0.0556
2216.00,0.0556
2215.00,0.0556
2214.00,0.0556
2213.00,0.0556
2212.00,0.0557
2211.00,0.0558
2210.00,0.0559
2209.00,0.0560
2208.00,0.0561
2207.00,0.0562
2206.00,0.0562
2205.00,0.0562
2204.00,0.0561
2203.00,0.0560
2202.00,0.0559
2201.00,0.0558
2200.00,0.0558
2199.00,0.0558
2198.00,0.0559
2197.00,0.0560
2196.00,0.0559
2195.00,0.0558
2194.00,0.0557
2193.00,0.0556
2192.00,0.0555
2191.00,0.0554
2190.00,0.0554
2189.00,0.0555
2188.00,0.0556
2187.00,0.0555
2186.00,0.0554
2185.00,0.0554
2184.00,0.0555
2183.00,0.0555
2182.00,0.0554
2181.00,0.0554
2180.00,0.0554
2179.00,0.0554
2178.00,0.0554
2177.00,0.0553
2176.00,0.0551
2175.00,0.0550
2174.00,0.0549
2173.00,0.0548
2172.00,0.0547
2171.00,0.0547
2170.00,0.0546
2169.00,0.0545
2168.00,0.0545
2167.00,0.0546
2166.00,0.0547
2165.00,0.0548
2164.00,0.0548
2163.00,0.0547
2162.00,0.0546
2161.00,0.0545
2160.00,0.0544
2159.00,0.0542
2158.00,0.0540
2157.00,0.0539
2156.00,0.0539
2155.00,0.0539
2154.00,0.0539
2153.00,0.0539
2152.00,0.0538
2151.00,0.0536
2150.00,0.0533
2149.00,0.0530
2148.00,0.0528
2147.00,0.0525
2146.00,0.0522
2145.00,0.0519
2144.00,0.0513
2143.00,0.0507
2142.00,0.0500
2141.00,0.0495
2140.00,0.0491
2139.00,0.0488
2138.00,0.0484
2137.00,0.0479
2136.00,0.0474
2135.00,0.0469
2134.00,0.0466
2133.00,0.0463
2132.00,0.0461
2131.00,0.0459
2130.00,0.0455
2129.00,0.0451
2128.00,0.0447
2127.00,0.0445
2126.00,0.0442
2125.00,0.0441
2124.00,0.0439
2123.00,0.0437
2122.00,0.0435
2121.00,0.0435
2120.00,0.0435
2119.00,0.0436
2118.00,0.0437
2117.00,0.0438
2116.00,0.0439
2115.00,0.0440
2114.00,0.0440
2113.00,0.0441
2112.00,0.0442
2111.00,0.0443
2110.00,0.0443
2109.00,0.0444
2108.00,0.0445
2107.00,0.0447
2106.00,0.0447
2105.00,0.0447
2104.00,0.0448
2103.00,0.0448
2102.00,0.0448
2101.00,0.0449
2100.00,0.0449
2099.00,0.0450
2098.00,0.0450
2097.00,0.0449
2096.00,0.0448
2095.00,0.0446
2094.00,0.0445
2093.00,0.0444
2092.00,0.0443
2091.00,0.0440
2090.00,0.0438
2089.00,0.0436
2088.00,0.0436
2087.00,0.0435
2086.00,0.0434
2085.00,0.0433
2084.00,0.0432
2083.00,0.0432
2082.00,0.0432
2081.00,0.0432
2080.00,0.0432
2079.00,0.0432
2078.00,0.0432
2077.00,0.0432
2076.00,0.0434
2075.00,0.0435
2074.00,0.0435
2073.00,0.0436
2072.00,0.0437
2071.00,0.0439
2070.00,0.0441
2069.00,0.0442
2068.00,0.0443
2067.00,0.0444
2066.00,0.0445
2065.00,0.0446
2064.00,0.0447
2063.00,0.0449
2062.00,0.0450
2061.00,0.0452
2060.00,0.0454
2059.00,0.0455
2058.00,0.0457
2057.00,0.0459
2056.00,0.0461
2055.00,0.0463
2054.00,0.0463
2053.00,0.0464
2052.00,0.0465
2051.00,0.0467
2050.00,0.0469
2049.00,0.0473
2048.00,0.0476
2047.00,0.0480
2046.00,0.0483
2045.00,0.0486
2044.00,0.0488
2043.00,0.0490
2042.00,0.0493
2041.00,0.0496
2040.00,0.0499
2039.00,0.0502
2038.00,0.0504
2037.00,0.0507
2036.00,0.0510
2035.00,0.0511
2034.00,0.0512
2033.00,0.0512
2032.00,0.0512
2031.00,0.0511
2030.00,0.0510
2029.00,0.0508
2028.00,0.0507
2027.00,0.0504
2026.00,0.0502
2025.00,0.0499
2024.00,0.0495
2023.00,0.0489
2022.00,0.0483
2021.00,0.0477
2020.00,0.0472
2019.00,0.0465
2018.00,0.0457
2017.00,0.0449
2016.00,0.0441
2015.00,0.0432
2014.00,0.0423
2013.00,0.0416
2012.00,0.0410
2011.00,0.0405
2010.00,0.0401
2009.00,0.0397
2008.00,0.0393
2007.00,0.0390
2006.00,0.0388
2005.00,0.0387
2004.00,0.0385
2003.00,0.0384
2002.00,0.0382
2001.00,0.0381
2000.00,0.0380
1999.00,0.0380
1998.00,0.0379
1997.00,0.0379
1996.00,0.0380
1995.00,0.0380
1994.00,0.0379
1993.00,0.0379
1992.00,0.0378
1991.00,0.0378
1990.00,0.0378
1989.00,0.0378
1988.00,0.0379
1987.00,0.0380
1986.00,0.0379
1985.00,0.0379
1984.00,0.0378
1983.00,0.0377
1982.00,0.0375
1981.00,0.0373
1980.00,0.0371
1979.00,0.0369
1978.00,0.0367
1977.00,0.0365
1976.00,0.0365
1975.00,0.0364
1974.00,0.0362
1973.00,0.0361
1972.00,0.0361
1971.00,0.0361
1970.00,0.0362
1969.00,0.0362
1968.00,0.0362
1967.00,0.0361
1966.00,0.0360
1965.00,0.0359
1964.00,0.0360
1963.00,0.0361
1962.00,0.0361
1961.00,0.0361
1960.00,0.0360
1959.00,0.0360
1958.00,0.0360
1957.00,0.0362
1956.00,0.0365
1955.00,0.0367
1954.00,0.0368
1953.00,0.0369
1952.00,0.0370
1951.00,0.0371
1950.00,0.0372
1949.00,0.0372
1948.00,0.0374
1947.00,0.0377
1946.00,0.0380
1945.00,0.0384
1944.00,0.0388
1943.00,0.0393
1942.00,0.0397
1941.00,0.0402
1940.00,0.0406
1939.00,0.0408
1938.00,0.0408
1937.00,0.0408
1936.00,0.0407
1935.00,0.0406
1934.00,0.0404
1933.00,0.0403
1932.00,0.0403
1931.00,0.0405
1930.00,0.0407
1929.00,0.0409
1928.00,0.0411
1927.00,0.0413
1926.00,0.0415
1925.00,0.0416
1924.00,0.0419
1923.00,0.0422
1922.00,0.0426
1921.00,0.0429
1920.00,0.0433
1919.00,0.0439
1918.00,0.0444
1917.00,0.0449
1916.00,0.0452
1915.00,0.0454
1914.00,0.0456
1913.00,0.0459
1912.00,0.0463
1911.00,0.0465
1910.00,0.0467
1909.00,0.0468
1908.00,0.0469
1907.00,0.0470
1906.00,0.0470
1905.00,0.0469
1904.00,0.0468
1903.00,0.0466
1902.00,0.0464
1901.00,0.0460
1900.00,0.0457
1899.00,0.0455
1898.00,0.0455
1897.00,0.0455
1896.00,0.0457
1895.00,0.0458
1894.00,0.0459
1893.00,0.0460
1892.00,0.0461
1891.00,0.0462
1890.00,0.0465
1889.00,0.0468
1888.00,0.0472
1887.00,0.0476
1886.00,0.0479
1885.00,0.0480
1884.00,0.0481
1883.00,0.0481
1882.00,0.0482
1881.00,0.0483
1880.00,0.0484
1879.00,0.0485
1878.00,0.0484
1877.00,0.0483
1876.00,0.0482
1875.00,0.0482
1874.00,0.0482
1873.00,0.0481
1872.00,0.0480
1871.00,0.0478
1870.00,0.0477
1869.00,0.0475
1868.00,0.0473
1867.00,0.0470
1866.00,0.0466
1865.00,0.0462
1864.00,0.0459
1863.00,0.0456
1862.00,0.0454
1861.00,0.0452
1860.00,0.0450
1859.00,0.0449
1858.00,0.0448
1857.00,0.0447
1856.00,0.0447
1855.00,0.0446
1854.00,0.0444
1853.00,0.0443
1852.00,0.0443
1851.00,0.0443
1850.00,0.0442
1849.00,0.0441
1848.00,0.0440
1847.00,0.0439
1846.00,0.0437
1845.00,0.0437
1844.00,0.0438
1843.00,0.0439
1842.00,0.0439
1841.00,0.0438
1840.00,0.0438
1839.00,0.0438
1838.00,0.0437
1837.00,0.0437
1836.00,0.0437
1835.00,0.0437
1834.00,0.0437
1833.00,0.0435
1832.00,0.0435
1831.00,0.0435
1830.00,0.0436
1829.00,0.0436
1828.00,0.0433
1827.00,0.0430
1826.00,0.0428
1825.00,0.0428
1824.00,0.0428
1823.00,0.0427
1822.00,0.0425
1821.00,0.0425
1820.00,0.0426
1819.00,0.0427
1818.00,0.0428
1817.00,0.0429
1816.00,0.0431
1815.00,0.0433
1814.00,0.0434
1813.00,0.0435
1812.00,0.0437
1811.00,0.0440
1810.00,0.0444
1809.00,0.0448
1808.00,0.0452
1807.00,0.0454
1806.00,0.0456
1805.00,0.0459
1804.00,0.0462
1803.00,0.0466
1802.00,0.0470
1801.00,0.0474
1800.00,0.0479
1799.00,0.0484
1798.00,0.0488
1797.00,0.0491
1796.00,0.0494
1795.00,0.0496
1794.00,0.0498
1793.00,0.0501
1792.00,0.0505
1791.00,0.0507
1790.00,0.0507
1789.00,0.0507
1788.00,0.0508
1787.00,0.0509
1786.00,0.0511
1785.00,0.0512
1784.00,0.0512
1783.00,0.0513
1782.00,0.0514
1781.00,0.0517
1780.00,0.0520
1779.00,0.0522
1778.00,0.0525
1777.00,0.0527
1776.00,0.0530
1775.00,0.0529
1774.00,0.0528
1773.00,0.0531
1772.00,0.0535
1771.00,0.0537
1770.00,0.0536
1769.00,0.0535
1768.00,0.0535
1767.00,0.0535
1766.00,0.0535
1765.00,0.0534
1764.00,0.0534
1763.00,0.0534
1762.00,0.0534
1761.00,0.0535
1760.00,0.0537
1759.00,0.0539
1758.00,0.0543
1757.00,0.0549
1756.00,0.0555
1755.00,0.0557
1754.00,0.0559
1753.00,0.0563
1752.00,0.0570
1751.00,0.0576
1750.00,0.0582
1749.00,0.0590
1748.00,0.0600
1747.00,0.0610
1746.00,0.0619
1745.00,0.0631
1744.00,0.0645
1743.00,0.0657
1742.00,0.0669
1741.00,0.0684
1740.00,0.0703
1739.00,0.0721
1738.00,0.0731
1737.00,0.0735
1736.00,0.0740
1735.00,0.0750
1734.00,0.0760
1733.00,0.0769
1732.00,0.0776
1731.00,0.0782
1730.00,0.0787
1729.00,0.0793
1728.00,0.0799
1727.00,0.0803
1726.00,0.0806
1725.00,0.0810
1724.00,0.0813
1723.00,0.0815
1722.00,0.0814
1721.00,0.0814
1720.00,0.0815
1719.00,0.0817
1718.00,0.0819
1717.00,0.0822
1716.00,0.0828
1715.00,0.0839
1714.00,0.0852
1713.00,0.0863
1712.00,0.0871
1711.00,0.0878
1710.00,0.0885
1709.00,0.0891
1708.00,0.0894
1707.00,0.0894
1706.00,0.0891
1705.00,0.0884
1704.00,0.0874
1703.00,0.0861
1702.00,0.0851
1701.00,0.0841
1700.00,0.0828
1699.00,0.0813
1698.00,0.0800
1697.00,0.0789
1696.00,0.0779
1695.00,0.0770
1694.00,0.0764
1693.00,0.0761
1692.00,0.0758
1691.00,0.0755
1690.00,0.0750
1689.00,0.0745
1688.00,0.0740
1687.00,0.0732
1686.00,0.0724
1685.00,0.0720
1684.00,0.0719
1683.00,0.0718
1682.00,0.0717
1681.00,0.0716
1680.00,0.0717
1679.00,0.0715
1678.00,0.0710
1677.00,0.0708
1676.00,0.0710
1675.00,0.0711
1674.00,0.0710
1673.00,0.0708
1672.00,0.0706
1671.00,0.0706
1670.00,0.0706
1669.00,0.0707
1668.00,0.0709
1667.00,0.0708
1666.00,0.0705
1665.00,0.0705
1664.00,0.0708
1663.00,0.0712
1662.00,0.0712
1661.00,0.0713
1660.00,0.0715
1659.00,0.0716
1658.00,0.0717
1657.00,0.0720
1656.00,0.0724
1655.00,0.0730
1654.00,0.0740
1653.00,0.0756
1652.00,0.0773
1651.00,0.0783
1650.00,0.0786
1649.00,0.0793
1648.00,0.0801
1647.00,0.0803
1646.00,0.0796
1645.00,0.0790
1644.00,0.0788
1643.00,0.0786
1642.00,0.0786
1641.00,0.0788
1640.00,0.0792
1639.00,0.0795
1638.00,0.0798
1637.00,0.0805
1636.00,0.0815
1635.00,0.0824
1634.00,0.0829
1633.00,0.0833
1632.00,0.0836
1631.00,0.0841
1630.00,0.0847
1629.00,0.0857
1628.00,0.0869
1627.00,0.0880
1626.00,0.0887
1625.00,0.0897
1624.00,0.0912
1623.00,0.0928
1622.00,0.0945
1621.00,0.0963
1620.00,0.0985
1619.00,0.1011
1618.00,0.1044
1617.00,0.1091
1616.00,0.1147
1615.00,0.1197
1614.00,0.1237
1613.00,0.1273
1612.00,0.1312
1611.00,0.1350
1610.00,0.1384
1609.00,0.1417
1608.00,0.1450
1607.00,0.1478
1606.00,0.1496
1605.00,0.1506
1604.00,0.1509
1603.00,0.1503
1602.00,0.1485
1601.00,0.1462
1600.00,0.1438
1599.00,0.1413
1598.00,0.1385
1597.00,0.1359
1596.00,0.1337
1595.00,0.1317
1594.00,0.1300
1593.00,0.1287
1592.00,0.1282
1591.00,0.1278
1590.00,0.1273
1589.00,0.1269
1588.00,0.1265
1587.00,0.1257
1586.00,0.1245
1585.00,0.1234
1584.00,0.1227
1583.00,0.1221
1582.00,0.1215
1581.00,0.1214
1580.00,0.1215
1579.00,0.1215
1578.00,0.1211
1577.00,0.1204
1576.00,0.1195
1575.00,0.1183
1574.00,0.1171
1573.00,0.1162
1572.00,0.1155
1571.00,0.1148
1570.00,0.1135
1569.00,0.1122
1568.00,0.1111
1567.00,0.1100
1566.00,0.1090
1565.00,0.1082
1564.00,0.1077
1563.00,0.1068
1562.00,0.1057
1561.00,0.1051
1560.00,0.1057
1559.00,0.1058
1558.00,0.1055
1557.00,0.1061
1556.00,0.1068
1555.00,0.1072
1554.00,0.1074
1553.00,0.1077
1552.00,0.1082
1551.00,0.1086
1550.00,0.1092
1549.00,0.1100
1548.00,0.1109
1547.00,0.1117
1546.00,0.1125
1545.00,0.1137
1544.00,0.1152
1543.00,0.1166
1542.00,0.1179
1541.00,0.1197
1540.00,0.1217
1539.00,0.1229
1538.00,0.1233
1537.00,0.1235
1536.00,0.1238
1535.00,0.1241
1534.00,0.1242
1533.00,0.1244
1532.00,0.1248
1531.00,0.1250
1530.00,0.1253
1529.00,0.1261
1528.00,0.1274
1527.00,0.1288
1526.00,0.1299
1525.00,0.1314
1524.00,0.1332
1523.00,0.1350
1522.00,0.1371
1521.00,0.1404
1520.00,0.1442
1519.00,0.1477
1518.00,0.1516
1517.00,0.1567
1516.00,0.1623
1515.00,0.1669
1514.00,0.1705
1513.00,0.1743
1512.00,0.1786
1511.00,0.1827
1510.00,0.1865
1509.00,0.1913
1508.00,0.1989
1507.00,0.2101
1506.00,0.2238
1505.00,0.2366
1504.00,0.2463
1503.00,0.2537
1502.00,0.2604
1501.00,0.2675
1500.00,0.2742
1499.00,0.2799
1498.00,0.2857
1497.00,0.2940
1496.00,0.3046
1495.00,0.3148
1494.00,0.3244
1493.00,0.3347
1492.00,0.3466
1491.00,0.3594
1490.00,0.3732
1489.00,0.3884
1488.00,0.4040
1487.00,0.4195
1486.00,0.4366
1485.00,0.4571
1484.00,0.4809
1483.00,0.5081
1482.00,0.5415
1481.00,0.5829
1480.00,0.6299
1479.00,0.6799
1478.00,0.7375
1477.00,0.8102
1476.00,0.8986
1475.00,0.9984
1474.00,1.1193
1473.00,1.2903
1472.00,1.5271
1471.00,1.7952
1470.00,2.0461
1469.00,2.2759
1468.00,2.4468
1467.00,2.4955
1466.00,2.5036
1465.00,2.5591
1464.00,2.5760
1463.00,2.5129
1462.00,2.4971
1461.00,2.5677
1460.00,2.6462
1459.00,2.6370
1458.00,2.6354
1457.00,2.6978
1456.00,2.6225
1455.00,2.4675
1454.00,2.4064
1453.00,2.4006
1452.00,2.3435
1451.00,2.2391
1450.00,2.1671
1449.00,2.1286
1448.00,2.0615
1447.00,1.9621
1446.00,1.8788
1445.00,1.8147
1444.00,1.7410
1443.00,1.6539
1442.00,1.5718
1441.00,1.5001
1440.00,1.4305
1439.00,1.3578
1438.00,1.2797
1437.00,1.1896
1436.00,1.0921
1435.00,1.0039
1434.00,0.9287
1433.00,0.8575
1432.00,0.7836
1431.00,0.7092
1430.00,0.6398
1429.00,0.5795
1428.00,0.5301
1427.00,0.4917
1426.00,0.4608
1425.00,0.4336
1424.00,0.4095
1423.00,0.3904
1422.00,0.3764
1421.00,0.3644
1420.00,0.3522
1419.00,0.3403
1418.00,0.3303
1417.00,0.3220
1416.00,0.3146
1415.00,0.3085
1414.00,0.3034
1413.00,0.2985
1412.00,0.2941
1411.00,0.2906
1410.00,0.2879
1409.00,0.2850
1408.00,0.2822
1407.00,0.2801
1406.00,0.2788
1405.00,0.2773
1404.00,0.2759
1403.00,0.2756
1402.00,0.2763
1401.00,0.2776
1400.00,0.2795
1399.00,0.2828
1398.00,0.2871
1397.00,0.2920
1396.00,0.2986
1395.00,0.3089
1394.00,0.3230
1393.00,0.3403
1392.00,0.3617
1391.00,0.3896
1390.00,0.4255
1389.00,0.4717
1388.00,0.5319
1387.00,0.6083
1386.00,0.6964
1385.00,0.7905
1384.00,0.8925
1383.00,1.0097
1382.00,1.1463
1381.00,1.3027
1380.00,1.4792
1379.00,1.6645
1378.00,1.8080
1377.00,1.8488
1376.00,1.7904
1375.00,1.6659
1374.00,1.5083
1373.00,1.3562
1372.00,1.2317
1371.00,1.1359
1370.00,1.0645
1369.00,1.0161
1368.00,0.9873
1367.00,0.9679
1366.00,0.9441
1365.00,0.9061
1364.00,0.8522
1363.00,0.7894
1362.00,0.7286
1361.00,0.6781
1360.00,0.6394
1359.00,0.6104
1358.00,0.5886
1357.00,0.5728
1356.00,0.5620
1355.00,0.5550
1354.00,0.5503
1353.00,0.5462
1352.00,0.5414
1351.00,0.5348
1350.00,0.5263
1349.00,0.5167
1348.00,0.5072
1347.00,0.4986
1346.00,0.4915
1345.00,0.4861
1344.00,0.4824
1343.00,0.4797
1342.00,0.4770
1341.00,0.4727
1340.00,0.4659
1339.00,0.4566
1338.00,0.4458
1337.00,0.4344
1336.00,0.4232
1335.00,0.4128
1334.00,0.4034
1333.00,0.3949
1332.00,0.3874
1331.00,0.3808
1330.00,0.3752
1329.00,0.3704
1328.00,0.3663
1327.00,0.3629
1326.00,0.3605
1325.00,0.3590
1324.00,0.3583
1323.00,0.3586
1322.00,0.3597
1321.00,0.3619
1320.00,0.3648
1319.00,0.3684
1318.00,0.3722
1317.00,0.3762
1316.00,0.3801
1315.00,0.3839
1314.00,0.3875
1313.00,0.3908
1312.00,0.3939
1311.00,0.3969
1310.00,0.3999
1309.00,0.4026
1308.00,0.4048
1307.00,0.4063
1306.00,0.4073
1305.00,0.4076
1304.00,0.4070
1303.00,0.4055
1302.00,0.4032
1301.00,0.4001
1300.00,0.3962
1299.00,0.3913
1298.00,0.3857
1297.00,0.3796
1296.00,0.3735
1295.00,0.3675
1294.00,0.3616
1293.00,0.3559
1292.00,0.3505
1291.00,0.3454
1290.00,0.3409
1289.00,0.3366
1288.00,0.3326
1287.00,0.3291
1286.00,0.3260
1285.00,0.3232
1284.00,0.3206
1283.00,0.3180
1282.00,0.3156
1281.00,0.3134
1280.00,0.3113
1279.00,0.3096
1278.00,0.3083
1277.00,0.3072
1276.00,0.3061
1275.00,0.3047
1274.00,0.3030
1273.00,0.3012
1272.00,0.2996
1271.00,0.2980
1270.00,0.2962
1269.00,0.2941
1268.00,0.2918
1267.00,0.2898
1266.00,0.2881
1265.00,0.2869
1264.00,0.2860
1263.00,0.2851
1262.00,0.2838
1261.00,0.2821
1260.00,0.2799
1259.00,0.2777
1258.00,0.2758
1257.00,0.2741
1256.00,0.2725
1255.00,0.2709
1254.00,0.2692
1253.00,0.2675
1252.00,0.2657
1251.00,0.2641
1250.00,0.2626
1249.00,0.2610
1248.00,0.2595
1247.00,0.2582
1246.00,0.2570
1245.00,0.2559
1244.00,0.2546
1243.00,0.2532
1242.00,0.2517
1241.00,0.2501
1240.00,0.2485
1239.00,0.2472
1238.00,0.2461
1237.00,0.2452
1236.00,0.2441
1235.00,0.2430
1234.00,0.2418
1233.00,0.2407
1232.00,0.2396
1231.00,0.2387
1230.00,0.2379
1229.00,0.2371
1228.00,0.2365
1227.00,0.2362
1226.00,0.2360
1225.00,0.2359
1224.00,0.2356
1223.00,0.2352
1222.00,0.2348
1221.00,0.2345
1220.00,0.2343
1219.00,0.2345
1218.00,0.2349
1217.00,0.2353
1216.00,0.2357
1215.00,0.2360
1214.00,0.2364
1213.00,0.2367
1212.00,0.2370
1211.00,0.2375
1210.00,0.2382
1209.00,0.2386
1208.00,0.2386
1207.00,0.2381
1206.00,0.2371
1205.00,0.2358
1204.00,0.2342
1203.00,0.2327
1202.00,0.2317
1201.00,0.2308
1200.00,0.2300
1199.00,0.2292
1198.00,0.2284
1197.00,0.2274
1196.00,0.2263
1195.00,0.2252
1194.00,0.2243
1193.00,0.2235
1192.00,0.2227
1191.00,0.2217
1190.00,0.2208
1189.00,0.2199
1188.00,0.2193
1187.00,0.2190
1186.00,0.2191
1185.00,0.2194
1184.00,0.2198
1183.00,0.2202
1182.00,0.2206
1181.00,0.2210
1180.00,0.2215
1179.00,0.2224
1178.00,0.2238
1177.00,0.2258
1176.00,0.2283
1175.00,0.2316
1174.00,0.2356
1173.00,0.2402
1172.00,0.2451
1171.00,0.2497
1170.00,0.2533
1169.00,0.2553
1168.00,0.2559
1167.00,0.2557
1166.00,0.2553
1165.00,0.2550
1164.00,0.2549
1163.00,0.2553
1162.00,0.2565
1161.00,0.2584
1160.00,0.2607
1159.00,0.2632
1158.00,0.2654
1157.00,0.2670
1156.00,0.2677
1155.00,0.2676
1154.00,0.2668
1153.00,0.2651
1152.00,0.2625
1151.00,0.2594
1150.00,0.2560
1149.00,0.2529
1148.00,0.2499
1147.00,0.2468
1146.00,0.2434
1145.00,0.2397
1144.00,0.2362
1143.00,0.2330
1142.00,0.2300
1141.00,0.2270
1140.00,0.2239
1139.00,0.2209
1138.00,0.2184
1137.00,0.2164
1136.00,0.2147
1135.00,0.2133
1134.00,0.2118
1133.00,0.2100
1132.00,0.2080
1131.00,0.2062
1130.00,0.2047
1129.00,0.2034
1128.00,0.2023
1127.00,0.2016
1126.00,0.2013
1125.00,0.2012
1124.00,0.2013
1123.00,0.2015
1122.00,0.2021
1121.00,0.2030
1120.00,0.2043
1119.00,0.2060
1118.00,0.2080
1117.00,0.2101
1116.00,0.2124
1115.00,0.2146
1114.00,0.2163
1113.00,0.2170
1112.00,0.2165
1111.00,0.2151
1110.00,0.2130
1109.00,0.2103
1108.00,0.2071
1107.00,0.2038
1106.00,0.2007
1105.00,0.1981
1104.00,0.1960
1103.00,0.1946
1102.00,0.1938
1101.00,0.1936
1100.00,0.1937
1099.00,0.1942
1098.00,0.1951
1097.00,0.1965
1096.00,0.1985
1095.00,0.2008
1094.00,0.2031
1093.00,0.2052
1092.00,0.2070
1091.00,0.2087
1090.00,0.2104
1089.00,0.2118
1088.00,0.2127
1087.00,0.2134
1086.00,0.2142
1085.00,0.2152
1084.00,0.2166
1083.00,0.2185
1082.00,0.2204
1081.00,0.2222
1080.00,0.2238
1079.00,0.2253
1078.00,0.2268
1077.00,0.2280
1076.00,0.2287
1075.00,0.2289
1074.00,0.2290
1073.00,0.2290
1072.00,0.2289
1071.00,0.2290
1070.00,0.2293
1069.00,0.2297
1068.00,0.2302
1067.00,0.2307
1066.00,0.2315
1065.00,0.2323
1064.00,0.2330
1063.00,0.2335
1062.00,0.2337
1061.00,0.2333
1060.00,0.2324
1059.00,0.2309
1058.00,0.2292
1057.00,0.2275
1056.00,0.2260
1055.00,0.2249
1054.00,0.2242
1053.00,0.2237
1052.00,0.2234
1051.00,0.2231
1050.00,0.2229
1049.00,0.2228
1048.00,0.2231
1047.00,0.2238
1046.00,0.2246
1045.00,0.2255
1044.00,0.2263
1043.00,0.2270
1042.00,0.2278
1041.00,0.2286
1040.00,0.2294
1039.00,0.2303
1038.00,0.2313
1037.00,0.2322
1036.00,0.2330
1035.00,0.2336
1034.00,0.2336
1033.00,0.2326
1032.00,0.2305
1031.00,0.2276
1030.00,0.2243
1029.00,0.2210
1028.00,0.2176
1027.00,0.2145
1026.00,0.2116
1025.00,0.2088
1024.00,0.2061
1023.00,0.2038
1022.00,0.2021
1021.00,0.2008
1020.00,0.1995
1019.00,0.1980
1018.00,0.1963
1017.00,0.1947
1016.00,0.1936
1015.00,0.1931
1014.00,0.1929
1013.00,0.1925
1012.00,0.1918
1011.00,0.1909
1010.00,0.1903
1009.00,0.1900
1008.00,0.1897
1007.00,0.1893
1006.00,0.1886
1005.00,0.1879
1004.00,0.1871
1003.00,0.1863
1002.00,0.1853
1001.00,0.1842
1000.00,0.1829
999.00,0.1817
998.00,0.1807
997.00,0.1799
996.00,0.1793
995.00,0.1789
994.00,0.1786
993.00,0.1782
992.00,0.1778
991.00,0.1776
990.00,0.1779
989.00,0.1784
988.00,0.1791
987.00,0.1800
986.00,0.1813
985.00,0.1828
984.00,0.1849
983.00,0.1873
982.00,0.1903
981.00,0.1936
980.00,0.1974
979.00,0.2016
978.00,0.2057
977.00,0.2095
976.00,0.2127
975.00,0.2154
974.00,0.2178
973.00,0.2197
972.00,0.2208
971.00,0.2212
970.00,0.2213
969.00,0.2213
968.00,0.2215
967.00,0.2218
966.00,0.2220
965.00,0.2217
964.00,0.2208
963.00,0.2192
962.00,0.2172
961.00,0.2150
960.00,0.2130
959.00,0.2112
958.00,0.2096
957.00,0.2081
956.00,0.2067
955.00,0.2052
954.00,0.2039
953.00,0.2025
952.00,0.2012
951.00,0.1998
950.00,0.1984
949.00,0.1972
948.00,0.1962
947.00,0.1956
946.00,0.1952
945.00,0.1949
944.00,0.1946
943.00,0.1945
942.00,0.1945
941.00,0.1946
940.00,0.1946
939.00,0.1945
938.00,0.1943
937.00,0.1940
936.00,0.1935
935.00,0.1927
934.00,0.1917
933.00,0.1904
932.00,0.1887
931.00,0.1868
930.00,0.1845
929.00,0.1821
928.00,0.1799
927.00,0.1783
926.00,0.1774
925.00,0.1770
924.00,0.1772
923.00,0.1780
922.00,0.1792
921.00,0.1802
920.00,0.1810
919.00,0.1813
918.00,0.1810
917.00,0.1800
916.00,0.1784
915.00,0.1765
914.00,0.1746
913.00,0.1729
912.00,0.1714
911.00,0.1704
910.00,0.1698
909.00,0.1697
908.00,0.1701
907.00,0.1708
906.00,0.1719
905.00,0.1731
904.00,0.1749
903.00,0.1776
902.00,0.1813
901.00,0.1858
900.00,0.1906
899.00,0.1960
898.00,0.2018
897.00,0.2076
896.00,0.2129
895.00,0.2175
894.00,0.2212
893.00,0.2234
892.00,0.2236
891.00,0.2217
890.00,0.2181
889.00,0.2137
888.00,0.2092
887.00,0.2050
886.00,0.2010
885.00,0.1974
884.00,0.1944
883.00,0.1924
882.00,0.1915
881.00,0.1915
880.00,0.1917
879.00,0.1920
878.00,0.1920
877.00,0.1920
876.00,0.1920
875.00,0.1922
874.00,0.1925
873.00,0.1929
872.00,0.1933
871.00,0.1936
870.00,0.1937
869.00,0.1933
868.00,0.1925
867.00,0.1916
866.00,0.1907
865.00,0.1898
864.00,0.1887
863.00,0.1873
862.00,0.1858
861.00,0.1842
860.00,0.1827
859.00,0.1814
858.00,0.1805
857.00,0.1798
856.00,0.1793
855.00,0.1790
854.00,0.1788
853.00,0.1786
852.00,0.1784
851.00,0.1782
850.00,0.1778
849.00,0.1769
848.00,0.1754
847.00,0.1737
846.00,0.1722
845.00,0.1707
844.00,0.1690
843.00,0.1670
842.00,0.1646
841.00,0.1619
840.00,0.1595
839.00,0.1580
838.00,0.1576
837.00,0.1578
836.00,0.1585
835.00,0.1597
834.00,0.1616
833.00,0.1641
832.00,0.1674
831.00,0.1715
830.00,0.1759
829.00,0.1805
828.00,0.1851
827.00,0.1901
826.00,0.1956
825.00,0.2015
824.00,0.2076
823.00,0.2139
822.00,0.2202
821.00,0.2262
820.00,0.2321
819.00,0.2381
818.00,0.2442
817.00,0.2495
816.00,0.2530
815.00,0.2543
814.00,0.2535
813.00,0.2508
812.00,0.2467
811.00,0.2418
810.00,0.2370
809.00,0.2329
808.00,0.2295
807.00,0.2267
806.00,0.2236
805.00,0.2196
804.00,0.2143
803.00,0.2078
802.00,0.2009
801.00,0.1941
800.00,0.1882
799.00,0.1836
798.00,0.1800
797.00,0.1774
796.00,0.1755
795.00,0.1744
794.00,0.1741
793.00,0.1742
792.00,0.1748
791.00,0.1760
790.00,0.1778
789.00,0.1801
788.00,0.1827
787.00,0.1854
786.00,0.1882
785.00,0.1913
784.00,0.1949
783.00,0.1988
782.00,0.2027
781.00,0.2061
780.00,0.2092
779.00,0.2124
778.00,0.2160
777.00,0.2199
776.00,0.2235
775.00,0.2267
774.00,0.2294
773.00,0.2313
772.00,0.2328
771.00,0.2344
770.00,0.2363
769.00,0.2383
768.00,0.2397
767.00,0.2402
766.00,0.2400
765.00,0.2399
764.00,0.2404
763.00,0.2417
762.00,0.2434
761.00,0.2453
760.00,0.2477
759.00,0.2511
758.00,0.2559
757.00,0.2616
756.00,0.2680
755.00,0.2752
754.00,0.2832
753.00,0.2914
752.00,0.2991
751.00,0.3058
750.00,0.3111
749.00,0.3147
748.00,0.3170
747.00,0.3187
746.00,0.3208
745.00,0.3236
744.00,0.3271
743.00,0.3313
742.00,0.3361
741.00,0.3411
740.00,0.3457
739.00,0.3494
738.00,0.3523
737.00,0.3552
736.00,0.3588
735.00,0.3644
734.00,0.3726
733.00,0.3836
732.00,0.3970
731.00,0.4126
730.00,0.4299
729.00,0.4484
728.00,0.4683
727.00,0.4900
726.00,0.5139
725.00,0.5389
724.00,0.5621
723.00,0.5790
722.00,0.5844
721.00,0.5735
720.00,0.5451
719.00,0.5034
718.00,0.4558
717.00,0.4086
716.00,0.3661
715.00,0.3298
714.00,0.2991
713.00,0.2724
712.00,0.2487
711.00,0.2280
710.00,0.2106
709.00,0.1960
708.00,0.1838
707.00,0.1732
706.00,0.1637
705.00,0.1547
704.00,0.1459
703.00,0.1376
702.00,0.1305
701.00,0.1248
700.00,0.1197
699.00,0.1143
698.00,0.1074
697.00,0.0990
696.00,0.0901
695.00,0.0822
694.00,0.0762
693.00,0.0720
692.00,0.0690
691.00,0.0666
690.00,0.0644
689.00,0.0619
688.00,0.0594
687.00,0.0578
686.00,0.0571
685.00,0.0567
684.00,0.0561
683.00,0.0550
682.00,0.0537
681.00,0.0528
680.00,0.0524
679.00,0.0527
678.00,0.0532
677.00,0.0532
676.00,0.0524
675.00,0.0513
674.00,0.0503
673.00,0.0498
672.00,0.0498
671.00,0.0503
670.00,0.0510
669.00,0.0515
668.00,0.0515
667.00,0.0505
666.00,0.0485
665.00,0.0466
664.00,0.0453
663.00,0.0448
662.00,0.0449
661.00,0.0452
660.00,0.0452
659.00,0.0448
658.00,0.0444
657.00,0.0443
656.00,0.0444
655.00,0.0447
654.00,0.0450
653.00,0.0449
652.00,0.0446
651.00,0.0444
650.00,0.0446
649.00,0.0452
648.00,0.0460
647.00,0.0469
646.00,0.0479
645.00,0.0488
644.00,0.0498
643.00,0.0509
642.00,0.0520
641.00,0.0530
640.00,0.0534
639.00,0.0536
638.00,0.0538
637.00,0.0541
636.00,0.0543
635.00,0.0542
634.00,0.0540
633.00,0.0539
632.00,0.0544
631.00,0.0554
630.00,0.0566
629.00,0.0573
628.00,0.0575
627.00,0.0575
626.00,0.0580
625.00,0.0594
624.00,0.0613
623.00,0.0632
622.00,0.0647
621.00,0.0655
620.00,0.0657
619.00,0.0657
618.00,0.0656
617.00,0.0654
616.00,0.0649
615.00,0.0643
614.00,0.0634
613.00,0.0620
612.00,0.0601
611.00,0.0577
610.00,0.0555
609.00,0.0537
608.00,0.0521
607.00,0.0511
606.00,0.0506
605.00,0.0507
604.00,0.0506
603.00,0.0498
602.00,0.0483
601.00,0.0464
600.00,0.0448
599.00,0.0440
598.00,0.0440
597.00,0.0451
596.00,0.0467
595.00,0.0483
594.00,0.0495
593.00,0.0501
592.00,0.0506
591.00,0.0514
590.00,0.0527
589.00,0.0543
588.00,0.0562
587.00,0.0582
586.00,0.0598
585.00,0.0610
584.00,0.0621
583.00,0.0631
582.00,0.0637
581.00,0.0643
580.00,0.0658
579.00,0.0683
578.00,0.0704
577.00,0.0707
576.00,0.0697
575.00,0.0691
574.00,0.0700
573.00,0.0715
572.00,0.0724
571.00,0.0725
570.00,0.0720
569.00,0.0713
568.00,0.0710
567.00,0.0719
566.00,0.0736
565.00,0.0746
564.00,0.0736
563.00,0.0709
562.00,0.0683
561.00,0.0668
560.00,0.0668
559.00,0.0676
558.00,0.0680
557.00,0.0673
556.00,0.0654
555.00,0.0635
554.00,0.0622
553.00,0.0615
552.00,0.0609
551.00,0.0607
550.00,0.0611
