Created as New Dataset,
cm-1,A
4000.00,0.6677
3999.00,0.6676
3998.00,0.6672
3997.00,0.6666
3996.00,0.6660
3995.00,0.6657
3994.00,0.6655
3993.00,0.6655
3992.00,0.6655
3991.00,0.6654
3990.00,0.6649
3989.00,0.6642
3988.00,0.6634
3987.00,0.6630
3986.00,0.6628
3985.00,0.6626
3984.00,0.6621
3983.00,0.6610
3982.00,0.6599
3981.00,0.6590
3980.00,0.6588
3979.00,0.6590
3978.00,0.6593
3977.00,0.6593
3976.00,0.6588
3975.00,0.6581
3974.00,0.6574
3973.00,0.6569
3972.00,0.6567
3971.00,0.6566
3970.00,0.6565
3969.00,0.6561
3968.00,0.6554
3967.00,0.6545
3966.00,0.6538
3965.00,0.6535
3964.00,0.6535
3963.00,0.6537
3962.00,0.6538
3961.00,0.6539
3960.00,0.6539
3959.00,0.6537
3958.00,0.6534
3957.00,0.6531
3956.00,0.6528
3955.00,0.6527
3954.00,0.6526
3953.00,0.6524
3952.00,0.6521
3951.00,0.6517
3950.00,0.6514
3949.00,0.6513
3948.00,0.6512
3947.00,0.6512
3946.00,0.6511
3945.00,0.6509
3944.00,0.6509
3943.00,0.6512
3942.00,0.6517
3941.00,0.6521
3940.00,0.6522
3939.00,0.6518
3938.00,0.6510
3937.00,0.6502
3936.00,0.6496
3935.00,0.6494
3934.00,0.6496
3933.00,0.6498
3932.00,0.6499
3931.00,0.6500
3930.00,0.6501
3929.00,0.6501
3928.00,0.6501
3927.00,0.6501
3926.00,0.6500
3925.00,0.6499
3924.00,0.6496
3923.00,0.6495
3922.00,0.6494
3921.00,0.6495
3920.00,0.6494
3919.00,0.6493
3918.00,0.6493
3917.00,0.6493
3916.00,0.6494
3915.00,0.6494
3914.00,0.6493
3913.00,0.6491
3912.00,0.6489
3911.00,0.6488
3910.00,0.6487
3909.00,0.6485
3908.00,0.6482
3907.00,0.6480
3906.00,0.6480
3905.00,0.6483
3904.00,0.6486
3903.00,0.6488
3902.00,0.6487
3901.00,0.6488
3900.00,0.6489
3899.00,0.6489
3898.00,0.6487
3897.00,0.6482
3896.00,0.6478
3895.00,0.6476
3894.00,0.6474
3893.00,0.6473
3892.00,0.6471
3891.00,0.6468
3890.00,0.6464
3889.00,0.6459
3888.00,0.6459
3887.00,0.6462
3886.00,0.6466
3885.00,0.6466
3884.00,0.6463
3883.00,0.6461
3882.00,0.6463
3881.00,0.6467
3880.00,0.6470
3879.00,0.6472
3878.00,0.6472
3877.00,0.6472
3876.00,0.6473
3875.00,0.6469
3874.00,0.6460
3873.00,0.6449
3872.00,0.6443
3871.00,0.6443
3870.00,0.6446
3869.00,0.6446
3868.00,0.6447
3867.00,0.6450
3866.00,0.6455
3865.00,0.6458
3864.00,0.6457
3863.00,0.6454
3862.00,0.6451
3861.00,0.6447
3860.00,0.6441
3859.00,0.6436
3858.00,0.6432
3857.00,0.6430
3856.00,0.6428
3855.00,0.6427
3854.00,0.6425
3853.00,0.6424
3852.00,0.6425
3851.00,0.6426
3850.00,0.6427
3849.00,0.6427
3848.00,0.6424
3847.00,0.6419
3846.00,0.6416
3845.00,0.6415
3844.00,0.6414
3843.00,0.6411
3842.00,0.6408
3841.00,0.6409
3840.00,0.6415
3839.00,0.6423
3838.00,0.6427
3837.00,0.6424
3836.00,0.6418
3835.00,0.6416
3834.00,0.6417
3833.00,0.6418
3832.00,0.6416
3831.00,0.6411
3830.00,0.6407
3829.00,0.6404
3828.00,0.6402
3827.00,0.6399
3826.00,0.6394
3825.00,0.6388
3824.00,0.6384
3823.00,0.6385
3822.00,0.6387
3821.00,0.6389
3820.00,0.6390
3819.00,0.6391
3818.00,0.6391
3817.00,0.6390
3816.00,0.6385
3815.00,0.6377
3814.00,0.6372
3813.00,0.6371
3812.00,0.6371
3811.00,0.6369
3810.00,0.6365
3809.00,0.6361
3808.00,0.6359
3807.00,0.6356
3806.00,0.6350
3805.00,0.6344
3804.00,0.6343
3803.00,0.6349
3802.00,0.6357
3801.00,0.6361
3800.00,0.6359
3799.00,0.6354
3798.00,0.6353
3797.00,0.6354
3796.00,0.6352
3795.00,0.6345
3794.00,0.6336
3793.00,0.6329
3792.00,0.6325
3791.00,0.6323
3790.00,0.6321
3789.00,0.6317
3788.00,0.6311
3787.00,0.6306
3786.00,0.6304
3785.00,0.6304
3784.00,0.6306
3783.00,0.6308
3782.00,0.6309
3781.00,0.6308
3780.00,0.6305
3779.00,0.6299
3778.00,0.6293
3777.00,0.6287
3776.00,0.6284
3775.00,0.6284
3774.00,0.6287
3773.00,0.6290
3772.00,0.6293
3771.00,0.6291
3770.00,0.6284
3769.00,0.6277
3768.00,0.6275
3767.00,0.6279
3766.00,0.6284
3765.00,0.6287
3764.00,0.6286
3763.00,0.6283
3762.00,0.6280
3761.00,0.6277
3760.00,0.6274
3759.00,0.6272
3758.00,0.6273
3757.00,0.6274
3756.00,0.6271
3755.00,0.6262
3754.00,0.6251
3753.00,0.6242
3752.00,0.6241
3751.00,0.6248
3750.00,0.6258
3749.00,0.6261
3748.00,0.6258
3747.00,0.6258
3746.00,0.6264
3745.00,0.6272
3744.00,0.6271
3743.00,0.6259
3742.00,0.6246
3741.00,0.6240
3740.00,0.6241
3739.00,0.6243
3738.00,0.6243
3737.00,0.6240
3736.00,0.6237
3735.00,0.6237
3734.00,0.6242
3733.00,0.6248
3732.00,0.6247
3731.00,0.6240
3730.00,0.6231
3729.00,0.6228
3728.00,0.6229
3727.00,0.6229
3726.00,0.6225
3725.00,0.6219
3724.00,0.6214
3723.00,0.6213
3722.00,0.6216
3721.00,0.6221
3720.00,0.6224
3719.00,0.6222
3718.00,0.6217
3717.00,0.6209
3716.00,0.6201
3715.00,0.6198
3714.00,0.6200
3713.00,0.6206
3712.00,0.6210
3711.00,0.6210
3710.00,0.6208
3709.00,0.6207
3708.00,0.6207
3707.00,0.6209
3706.00,0.6208
3705.00,0.6205
3704.00,0.6201
3703.00,0.6198
3702.00,0.6198
3701.00,0.6202
3700.00,0.6205
3699.00,0.6205
3698.00,0.6201
3697.00,0.6196
3696.00,0.6193
3695.00,0.6193
3694.00,0.6198
3693.00,0.6203
3692.00,0.6206
3691.00,0.6205
3690.00,0.6206
3689.00,0.6210
3688.00,0.6215
3687.00,0.6217
3686.00,0.6215
3685.00,0.6211
3684.00,0.6207
3683.00,0.6203
3682.00,0.6202
3681.00,0.6204
3680.00,0.6206
3679.00,0.6205
3678.00,0.6204
3677.00,0.6207
3676.00,0.6215
3675.00,0.6224
3674.00,0.6227
3673.00,0.6224
3672.00,0.6222
3671.00,0.6224
3670.00,0.6228
3669.00,0.6232
3668.00,0.6233
3667.00,0.6230
3666.00,0.6225
3665.00,0.6220
3664.00,0.6217
3663.00,0.6215
3662.00,0.6214
3661.00,0.6214
3660.00,0.6215
3659.00,0.6220
3658.00,0.6228
3657.00,0.6234
3656.00,0.6237
3655.00,0.6239
3654.00,0.6241
3653.00,0.6246
3652.00,0.6252
3651.00,0.6257
3650.00,0.6260
3649.00,0.6267
3648.00,0.6275
3647.00,0.6282
3646.00,0.6284
3645.00,0.6285
3644.00,0.6284
3643.00,0.6285
3642.00,0.6287
3641.00,0.6292
3640.00,0.6299
3639.00,0.6306
3638.00,0.6311
3637.00,0.6315
3636.00,0.6320
3635.00,0.6326
3634.00,0.6334
3633.00,0.6344
3632.00,0.6357
3631.00,0.6374
3630.00,0.6396
3629.00,0.6421
3628.00,0.6445
3627.00,0.6464
3626.00,0.6480
3625.00,0.6496
3624.00,0.6510
3623.00,0.6516
3622.00,0.6511
3621.00,0.6496
3620.00,0.6474
3619.00,0.6450
3618.00,0.6430
3617.00,0.6414
3616.00,0.6400
3615.00,0.6388
3614.00,0.6377
3613.00,0.6370
3612.00,0.6368
3611.00,0.6370
3610.00,0.6373
3609.00,0.6375
3608.00,0.6373
3607.00,0.6370
3606.00,0.6368
3605.00,0.6369
3604.00,0.6369
3603.00,0.6369
3602.00,0.6367
3601.00,0.6363
3600.00,0.6359
3599.00,0.6353
3598.00,0.6347
3597.00,0.6341
3596.00,0.6334
3595.00,0.6327
3594.00,0.6321
3593.00,0.6320
3592.00,0.6322
3591.00,0.6322
3590.00,0.6319
3589.00,0.6313
3588.00,0.6307
3587.00,0.6304
3586.00,0.6306
3585.00,0.6307
3584.00,0.6307
3583.00,0.6308
3582.00,0.6307
3581.00,0.6305
3580.00,0.6301
3579.00,0.6295
3578.00,0.6291
3577.00,0.6289
3576.00,0.6287
3575.00,0.6286
3574.00,0.6283
3573.00,0.6281
3572.00,0.6282
3571.00,0.6285
3570.00,0.6290
3569.00,0.6292
3568.00,0.6290
3567.00,0.6287
3566.00,0.6288
3565.00,0.6293
3564.00,0.6300
3563.00,0.6305
3562.00,0.6307
3561.00,0.6309
3560.00,0.6311
3559.00,0.6315
3558.00,0.6318
3557.00,0.6321
3556.00,0.6322
3555.00,0.6322
3554.00,0.6325
3553.00,0.6330
3552.00,0.6336
3551.00,0.6340
3550.00,0.6342
3549.00,0.6343
3548.00,0.6346
3547.00,0.6352
3546.00,0.6360
3545.00,0.6367
3544.00,0.6373
3543.00,0.6379
3542.00,0.6385
3541.00,0.6390
3540.00,0.6392
3539.00,0.6392
3538.00,0.6393
3537.00,0.6396
3536.00,0.6402
3535.00,0.6407
3534.00,0.6412
3533.00,0.6416
3532.00,0.6422
3531.00,0.6429
3530.00,0.6435
3529.00,0.6441
3528.00,0.6446
3527.00,0.6451
3526.00,0.6456
3525.00,0.6459
3524.00,0.6461
3523.00,0.6465
3522.00,0.6472
3521.00,0.6479
3520.00,0.6486
3519.00,0.6491
3518.00,0.6497
3517.00,0.6506
3516.00,0.6517
3515.00,0.6528
3514.00,0.6536
3513.00,0.6540
3512.00,0.6543
3511.00,0.6547
3510.00,0.6552
3509.00,0.6558
3508.00,0.6563
3507.00,0.6569
3506.00,0.6576
3505.00,0.6585
3504.00,0.6595
3503.00,0.6604
3502.00,0.6613
3501.00,0.6621
3500.00,0.6629
3499.00,0.6638
3498.00,0.6646
3497.00,0.6653
3496.00,0.6662
3495.00,0.6671
3494.00,0.6680
3493.00,0.6686
3492.00,0.6693
3491.00,0.6700
3490.00,0.6710
3489.00,0.6723
3488.00,0.6735
3487.00,0.6743
3486.00,0.6749
3485.00,0.6754
3484.00,0.6760
3483.00,0.6769
3482.00,0.6777
3481.00,0.6785
3480.00,0.6792
3479.00,0.6800
3478.00,0.6812
3477.00,0.6824
3476.00,0.6835
3475.00,0.6843
3474.00,0.6849
3473.00,0.6856
3472.00,0.6865
3471.00,0.6874
3470.00,0.6882
3469.00,0.6890
3468.00,0.6898
3467.00,0.6906
3466.00,0.6914
3465.00,0.6922
3464.00,0.6931
3463.00,0.6944
3462.00,0.6958
3461.00,0.6971
3460.00,0.6983
3459.00,0.6994
3458.00,0.7004
3457.00,0.7014
3456.00,0.7025
3455.00,0.7037
3454.00,0.7050
3453.00,0.7063
3452.00,0.7076
3451.00,0.7089
3450.00,0.7103
3449.00,0.7119
3448.00,0.7134
3447.00,0.7148
3446.00,0.7162
3445.00,0.7178
3444.00,0.7200
3443.00,0.7225
3442.00,0.7249
3441.00,0.7271
3440.00,0.7291
3439.00,0.7311
3438.00,0.7332
3437.00,0.7351
3436.00,0.7367
3435.00,0.7378
3434.00,0.7386
3433.00,0.7394
3432.00,0.7402
3431.00,0.7411
3430.00,0.7423
3429.00,0.7438
3428.00,0.7456
3427.00,0.7474
3426.00,0.7489
3425.00,0.7502
3424.00,0.7514
3423.00,0.7524
3422.00,0.7534
3421.00,0.7544
3420.00,0.7553
3419.00,0.7562
3418.00,0.7572
3417.00,0.7583
3416.00,0.7597
3415.00,0.7611
3414.00,0.7626
3413.00,0.7641
3412.00,0.7657
3411.00,0.7673
3410.00,0.7690
3409.00,0.7705
3408.00,0.7719
3407.00,0.7729
3406.00,0.7737
3405.00,0.7743
3404.00,0.7750
3403.00,0.7759
3402.00,0.7769
3401.00,0.7781
3400.00,0.7794
3399.00,0.7811
3398.00,0.7829
3397.00,0.7848
3396.00,0.7865
3395.00,0.7878
3394.00,0.7888
3393.00,0.7895
3392.00,0.7899
3391.00,0.7902
3390.00,0.7903
3389.00,0.7905
3388.00,0.7910
3387.00,0.7918
3386.00,0.7927
3385.00,0.7936
3384.00,0.7946
3383.00,0.7955
3382.00,0.7960
3381.00,0.7964
3380.00,0.7968
3379.00,0.7974
3378.00,0.7982
3377.00,0.7990
3376.00,0.7994
3375.00,0.7996
3374.00,0.7998
3373.00,0.8002
3372.00,0.8009
3371.00,0.8016
3370.00,0.8023
3369.00,0.8027
3368.00,0.8031
3367.00,0.8036
3366.00,0.8041
3365.00,0.8049
3364.00,0.8060
3363.00,0.8072
3362.00,0.8082
3361.00,0.8088
3360.00,0.8091
3359.00,0.8096
3358.00,0.8103
3357.00,0.8110
3356.00,0.8118
3355.00,0.8127
3354.00,0.8139
3353.00,0.8153
3352.00,0.8167
3351.00,0.8176
3350.00,0.8179
3349.00,0.8179
3348.00,0.8180
3347.00,0.8184
3346.00,0.8189
3345.00,0.8195
3344.00,0.8199
3343.00,0.8205
3342.00,0.8214
3341.00,0.8225
3340.00,0.8233
3339.00,0.8236
3338.00,0.8236
3337.00,0.8237
3336.00,0.8242
3335.00,0.8248
3334.00,0.8251
3333.00,0.8252
3332.00,0.8253
3331.00,0.8257
3330.00,0.8260
3329.00,0.8259
3328.00,0.8254
3327.00,0.8247
3326.00,0.8243
3325.00,0.8242
3324.00,0.8245
3323.00,0.8249
3322.00,0.8247
3321.00,0.8239
3320.00,0.8227
3319.00,0.8216
3318.00,0.8211
3317.00,0.8209
3316.00,0.8209
3315.00,0.8209
3314.00,0.8208
3313.00,0.8206
3312.00,0.8203
3311.00,0.8198
3310.00,0.8192
3309.00,0.8185
3308.00,0.8177
3307.00,0.8169
3306.00,0.8164
3305.00,0.8160
3304.00,0.8155
3303.00,0.8149
3302.00,0.8146
3301.00,0.8143
3300.00,0.8140
3299.00,0.8133
3298.00,0.8127
3297.00,0.8125
3296.00,0.8124
3295.00,0.8120
3294.00,0.8115
3293.00,0.8112
3292.00,0.8114
3291.00,0.8119
3290.00,0.8120
3289.00,0.8117
3288.00,0.8113
3287.00,0.8112
3286.00,0.8112
3285.00,0.8109
3284.00,0.8106
3283.00,0.8105
3282.00,0.8107
3281.00,0.8111
3280.00,0.8114
3279.00,0.8117
3278.00,0.8121
3277.00,0.8126
3276.00,0.8130
3275.00,0.8131
3274.00,0.8132
3273.00,0.8135
3272.00,0.8140
3271.00,0.8146
3270.00,0.8150
3269.00,0.8151
3268.00,0.8150
3267.00,0.8148
3266.00,0.8144
3265.00,0.8141
3264.00,0.8141
3263.00,0.8145
3262.00,0.8150
3261.00,0.8154
3260.00,0.8154
3259.00,0.8152
3258.00,0.8151
3257.00,0.8155
3256.00,0.8161
3255.00,0.8163
3254.00,0.8158
3253.00,0.8149
3252.00,0.8144
3251.00,0.8144
3250.00,0.8148
3249.00,0.8151
3248.00,0.8152
3247.00,0.8148
3246.00,0.8141
3245.00,0.8132
3244.00,0.8125
3243.00,0.8120
3242.00,0.8117
3241.00,0.8115
3240.00,0.8114
3239.00,0.8112
3238.00,0.8110
3237.00,0.8105
3236.00,0.8098
3235.00,0.8092
3234.00,0.8087
3233.00,0.8084
3232.00,0.8081
3231.00,0.8077
3230.00,0.8068
3229.00,0.8057
3228.00,0.8047
3227.00,0.8039
3226.00,0.8032
3225.00,0.8024
3224.00,0.8015
3223.00,0.8006
3222.00,0.7999
3221.00,0.7991
3220.00,0.7981
3219.00,0.7972
3218.00,0.7967
3217.00,0.7965
3216.00,0.7963
3215.00,0.7958
3214.00,0.7951
3213.00,0.7941
3212.00,0.7930
3211.00,0.7919
3210.00,0.7911
3209.00,0.7907
3208.00,0.7905
3207.00,0.7903
3206.00,0.7896
3205.00,0.7886
3204.00,0.7877
3203.00,0.7869
3202.00,0.7862
3201.00,0.7854
3200.00,0.7844
3199.00,0.7835
3198.00,0.7829
3197.00,0.7825
3196.00,0.7822
3195.00,0.7815
3194.00,0.7805
3193.00,0.7795
3192.00,0.7789
3191.00,0.7783
3190.00,0.7773
3189.00,0.7758
3188.00,0.7742
3187.00,0.7731
3186.00,0.7725
3185.00,0.7723
3184.00,0.7718
3183.00,0.7710
3182.00,0.7696
3181.00,0.7682
3180.00,0.7669
3179.00,0.7659
3178.00,0.7651
3177.00,0.7644
3176.00,0.7637
3175.00,0.7630
3174.00,0.7621
3173.00,0.7607
3172.00,0.7589
3171.00,0.7574
3170.00,0.7563
3169.00,0.7556
3168.00,0.7550
3167.00,0.7542
3166.00,0.7533
3165.00,0.7524
3164.00,0.7514
3163.00,0.7503
3162.00,0.7491
3161.00,0.7478
3160.00,0.7468
3159.00,0.7460
3158.00,0.7451
3157.00,0.7438
3156.00,0.7424
3155.00,0.7413
3154.00,0.7406
3153.00,0.7400
3152.00,0.7390
3151.00,0.7379
3150.00,0.7368
3149.00,0.7358
3148.00,0.7349
3147.00,0.7340
3146.00,0.7333
3145.00,0.7325
3144.00,0.7316
3143.00,0.7307
3142.00,0.7301
3141.00,0.7295
3140.00,0.7289
3139.00,0.7283
3138.00,0.7277
3137.00,0.7273
3136.00,0.7269
3135.00,0.7262
3134.00,0.7254
3133.00,0.7248
3132.00,0.7244
3131.00,0.7243
3130.00,0.7240
3129.00,0.7235
3128.00,0.7229
3127.00,0.7225
3126.00,0.7223
3125.00,0.7222
3124.00,0.7220
3123.00,0.7218
3122.00,0.7217
3121.00,0.7216
3120.00,0.7214
3119.00,0.7211
3118.00,0.7211
3117.00,0.7216
3116.00,0.7223
3115.00,0.7228
3114.00,0.7228
3113.00,0.7226
3112.00,0.7224
3111.00,0.7225
3110.00,0.7229
3109.00,0.7236
3108.00,0.7245
3107.00,0.7254
3106.00,0.7262
3105.00,0.7269
3104.00,0.7273
3103.00,0.7278
3102.00,0.7285
3101.00,0.7296
3100.00,0.7309
3099.00,0.7318
3098.00,0.7323
3097.00,0.7327
3096.00,0.7333
3095.00,0.7342
3094.00,0.7353
3093.00,0.7364
3092.00,0.7377
3091.00,0.7391
3090.00,0.7406
3089.00,0.7422
3088.00,0.7437
3087.00,0.7454
3086.00,0.7473
3085.00,0.7497
3084.00,0.7525
3083.00,0.7553
3082.00,0.7581
3081.00,0.7607
3080.00,0.7632
3079.00,0.7660
3078.00,0.7693
3077.00,0.7729
3076.00,0.7766
3075.00,0.7800
3074.00,0.7833
3073.00,0.7865
3072.00,0.7898
3071.00,0.7932
3070.00,0.7970
3069.00,0.8014
3068.00,0.8060
3067.00,0.8106
3066.00,0.8149
3065.00,0.8188
3064.00,0.8226
3063.00,0.8263
3062.00,0.8297
3061.00,0.8328
3060.00,0.8358
3059.00,0.8387
3058.00,0.8417
3057.00,0.8447
3056.00,0.8474
3055.00,0.8497
3054.00,0.8519
3053.00,0.8545
3052.00,0.8574
3051.00,0.8604
3050.00,0.8636
3049.00,0.8668
3048.00,0.8700
3047.00,0.8733
3046.00,0.8768
3045.00,0.8806
3044.00,0.8844
3043.00,0.8881
3042.00,0.8916
3041.00,0.8953
3040.00,0.8996
3039.00,0.9045
3038.00,0.9097
3037.00,0.9150
3036.00,0.9203
3035.00,0.9257
3034.00,0.9314
3033.00,0.9374
3032.00,0.9439
3031.00,0.9511
3030.00,0.9594
3029.00,0.9683
3028.00,0.9772
3027.00,0.9856
3026.00,0.9939
3025.00,1.0024
3024.00,1.0112
3023.00,1.0205
3022.00,1.0305
3021.00,1.0411
3020.00,1.0521
3019.00,1.0631
3018.00,1.0745
3017.00,1.0867
3016.00,1.0997
3015.00,1.1133
3014.00,1.1271
3013.00,1.1409
3012.00,1.1552
3011.00,1.1707
3010.00,1.1878
3009.00,1.2062
3008.00,1.2254
3007.00,1.2452
3006.00,1.2661
3005.00,1.2883
3004.00,1.3118
3003.00,1.3364
3002.00,1.3630
3001.00,1.3922
3000.00,1.4237
2999.00,1.4567
2998.00,1.4912
2997.00,1.5281
2996.00,1.5670
2995.00,1.6067
2994.00,1.6470
2993.00,1.6906
2992.00,1.7396
2991.00,1.7928
2990.00,1.8466
2989.00,1.9008
2988.00,1.9597
2987.00,2.0273
2986.00,2.1025
2985.00,2.1806
2984.00,2.2619
2983.00,2.3548
2982.00,2.4697
2981.00,2.6110
2980.00,2.7756
2979.00,2.9571
2978.00,3.1416
2977.00,3.3029
2976.00,3.4088
2975.00,3.4673
2974.00,3.5334
2973.00,3.6550
2972.00,3.8246
2971.00,3.8667
2970.00,3.7778
2969.00,3.6145
2968.00,3.4510
2967.00,3.3315
2966.00,3.3047
2965.00,3.4218
2964.00,3.8641
2963.00,4.1357
2962.00,3.4786
2961.00,3.2497
2960.00,3.3196
2959.00,3.8416
2958.00,3.7771
2957.00,3.4815
2956.00,3.3179
2955.00,3.4391
2954.00,3.5266
2953.00,3.6159
2952.00,3.5842
2951.00,3.6032
2950.00,3.5955
2949.00,3.6581
2948.00,3.7234
2947.00,3.7380
2946.00,3.7849
2945.00,3.8518
2944.00,3.7050
2943.00,3.5154
2942.00,3.4247
2941.00,3.5469
2940.00,3.8978
2939.00,4.4016
2938.00,4.2657
2937.00,4.0934
2936.00,4.1703
2935.00,4.1826
2934.00,3.9108
2933.00,3.8068
2932.00,3.7163
2931.00,3.6161
2930.00,3.5270
2929.00,3.5475
2928.00,3.5942
2927.00,3.5175
2926.00,3.3575
2925.00,3.2622
2924.00,3.2842
2923.00,3.4255
2922.00,3.7196
2921.00,3.9474
2920.00,3.7288
2919.00,3.5774
2918.00,3.6908
2917.00,4.5249
2916.00,4.4698
2915.00,3.8022
2914.00,3.5103
2913.00,3.5519
2912.00,3.6166
2911.00,3.5736
2910.00,3.4288
2909.00,3.3388
2908.00,3.3254
2907.00,3.3793
2906.00,3.5198
2905.00,3.7481
2904.00,3.8888
2903.00,3.7933
2902.00,3.7116
2901.00,3.6484
2900.00,3.5122
2899.00,3.4004
2898.00,3.4761
2897.00,4.0505
2896.00,4.5304
2895.00,3.9364
2894.00,3.6235
2893.00,3.8092
2892.00,3.8653
2891.00,3.7532
2890.00,3.7664
2889.00,3.9327
2888.00,3.8939
2887.00,3.6673
2886.00,3.4996
2885.00,3.4155
2884.00,3.4109
2883.00,3.5430
2882.00,3.9850
2881.00,8.0000
2880.00,5.5741
2879.00,4.3001
2878.00,3.7981
2877.00,3.7550
2876.00,3.8224
2875.00,4.0008
2874.00,3.7523
2873.00,3.6215
2872.00,3.8100
2871.00,4.7266
2870.00,4.0513
2869.00,3.5794
2868.00,3.4031
2867.00,3.4913
2866.00,3.9029
2865.00,4.0465
2864.00,3.5047
2863.00,3.2382
2862.00,3.2548
2861.00,3.5002
2860.00,3.8275
2859.00,3.9758
2858.00,3.9103
2857.00,4.0976
2856.00,4.4735
2855.00,4.1105
2854.00,3.7256
2853.00,3.5731
2852.00,3.5893
2851.00,3.6715
2850.00,3.9754
2849.00,3.9172
2848.00,3.6510
2847.00,3.4668
2846.00,3.5537
2845.00,3.6842
2844.00,3.7201
2843.00,3.7380
2842.00,3.8648
2841.00,3.8239
2840.00,3.5596
2839.00,3.3432
2838.00,3.2220
2837.00,3.1395
2836.00,3.0465
2835.00,2.8946
2834.00,2.7181
2833.00,2.5595
2832.00,2.4321
2831.00,2.3216
2830.00,2.2134
2829.00,2.1030
2828.00,1.9981
2827.00,1.9067
2826.00,1.8308
2825.00,1.7665
2824.00,1.7092
2823.00,1.6572
2822.00,1.6101
2821.00,1.5665
2820.00,1.5244
2819.00,1.4836
2818.00,1.4456
2817.00,1.4121
2816.00,1.3825
2815.00,1.3553
2814.00,1.3289
2813.00,1.3032
2812.00,1.2783
2811.00,1.2546
2810.00,1.2317
2809.00,1.2097
2808.00,1.1887
2807.00,1.1687
2806.00,1.1498
2805.00,1.1316
2804.00,1.1141
2803.00,1.0973
2802.00,1.0815
2801.00,1.0668
2800.00,1.0532
2799.00,1.0406
2798.00,1.0286
2797.00,1.0167
2796.00,1.0046
2795.00,0.9925
2794.00,0.9809
2793.00,0.9699
2792.00,0.9596
2791.00,0.9497
2790.00,0.9401
2789.00,0.9307
2788.00,0.9214
2787.00,0.9124
2786.00,0.9038
2785.00,0.8956
2784.00,0.8877
2783.00,0.8797
2782.00,0.8718
2781.00,0.8640
2780.00,0.8566
2779.00,0.8494
2778.00,0.8422
2777.00,0.8354
2776.00,0.8294
2775.00,0.8240
2774.00,0.8190
2773.00,0.8142
2772.00,0.8094
2771.00,0.8049
2770.00,0.8008
2769.00,0.7973
2768.00,0.7942
2767.00,0.7912
2766.00,0.7881
2765.00,0.7851
2764.00,0.7825
2763.00,0.7806
2762.00,0.7791
2761.00,0.7779
2760.00,0.7766
2759.00,0.7753
2758.00,0.7740
2757.00,0.7726
2756.00,0.7713
2755.00,0.7701
2754.00,0.7691
2753.00,0.7681
2752.00,0.7675
2751.00,0.7674
2750.00,0.7677
2749.00,0.7682
2748.00,0.7687
2747.00,0.7690
2746.00,0.7695
2745.00,0.7705
2744.00,0.7718
2743.00,0.7734
2742.00,0.7750
2741.00,0.7769
2740.00,0.7793
2739.00,0.7822
2738.00,0.7856
2737.00,0.7894
2736.00,0.7933
2735.00,0.7971
2734.00,0.8009
2733.00,0.8048
2732.00,0.8088
2731.00,0.8124
2730.00,0.8151
2729.00,0.8169
2728.00,0.8176
2727.00,0.8172
2726.00,0.8156
2725.00,0.8134
2724.00,0.8109
2723.00,0.8086
2722.00,0.8062
2721.00,0.8035
2720.00,0.8005
2719.00,0.7973
2718.00,0.7939
2717.00,0.7903
2716.00,0.7863
2715.00,0.7822
2714.00,0.7780
2713.00,0.7739
2712.00,0.7699
2711.00,0.7662
2710.00,0.7629
2709.00,0.7601
2708.00,0.7581
2707.00,0.7565
2706.00,0.7551
2705.00,0.7534
2704.00,0.7516
2703.00,0.7501
2702.00,0.7491
2701.00,0.7486
2700.00,0.7482
2699.00,0.7479
2698.00,0.7479
2697.00,0.7483
2696.00,0.7491
2695.00,0.7503
2694.00,0.7518
2693.00,0.7535
2692.00,0.7552
2691.00,0.7566
2690.00,0.7577
2689.00,0.7585
2688.00,0.7590
2687.00,0.7595
2686.00,0.7601
2685.00,0.7607
2684.00,0.7612
2683.00,0.7615
2682.00,0.7617
2681.00,0.7616
2680.00,0.7614
2679.00,0.7612
2678.00,0.7610
2677.00,0.7609
2676.00,0.7607
2675.00,0.7603
2674.00,0.7598
2673.00,0.7593
2672.00,0.7589
2671.00,0.7584
2670.00,0.7575
2669.00,0.7564
2668.00,0.7550
2667.00,0.7533
2666.00,0.7514
2665.00,0.7494
2664.00,0.7472
2663.00,0.7451
2662.00,0.7430
2661.00,0.7409
2660.00,0.7388
2659.00,0.7369
2658.00,0.7351
2657.00,0.7336
2656.00,0.7321
2655.00,0.7304
2654.00,0.7286
2653.00,0.7268
2652.00,0.7251
2651.00,0.7234
2650.00,0.7217
2649.00,0.7202
2648.00,0.7187
2647.00,0.7172
2646.00,0.7158
2645.00,0.7146
2644.00,0.7136
2643.00,0.7127
2642.00,0.7117
2641.00,0.7107
2640.00,0.7097
2639.00,0.7086
2638.00,0.7074
2637.00,0.7064
2636.00,0.7056
2635.00,0.7049
2634.00,0.7040
2633.00,0.7028
2632.00,0.7014
2631.00,0.7002
2630.00,0.6992
2629.00,0.6983
2628.00,0.6976
2627.00,0.6969
2626.00,0.6961
2625.00,0.6951
2624.00,0.6940
2623.00,0.6930
2622.00,0.6920
2621.00,0.6909
2620.00,0.6898
2619.00,0.6886
2618.00,0.6874
2617.00,0.6862
2616.00,0.6851
2615.00,0.6841
2614.00,0.6832
2613.00,0.6823
2612.00,0.6815
2611.00,0.6805
2610.00,0.6793
2609.00,0.6780
2608.00,0.6768
2607.00,0.6757
2606.00,0.6749
2605.00,0.6741
2604.00,0.6731
2603.00,0.6720
2602.00,0.6707
2601.00,0.6693
2600.00,0.6681
2599.00,0.6668
2598.00,0.6654
2597.00,0.6639
2596.00,0.6625
2595.00,0.6612
2594.00,0.6599
2593.00,0.6585
2592.00,0.6569
2591.00,0.6553
2590.00,0.6536
2589.00,0.6520
2588.00,0.6505
2587.00,0.6489
2586.00,0.6473
2585.00,0.6456
2584.00,0.6439
2583.00,0.6423
2582.00,0.6406
2581.00,0.6389
2580.00,0.6372
2579.00,0.6358
2578.00,0.6345
2577.00,0.6330
2576.00,0.6314
2575.00,0.6296
2574.00,0.6281
2573.00,0.6266
2572.00,0.6251
2571.00,0.6236
2570.00,0.6221
2569.00,0.6208
2568.00,0.6196
2567.00,0.6182
2566.00,0.6168
2565.00,0.6152
2564.00,0.6137
2563.00,0.6122
2562.00,0.6107
2561.00,0.6094
2560.00,0.6083
2559.00,0.6072
2558.00,0.6062
2557.00,0.6052
2556.00,0.6042
2555.00,0.6032
2554.00,0.6019
2553.00,0.6005
2552.00,0.5993
2551.00,0.5986
2550.00,0.5981
2549.00,0.5975
2548.00,0.5966
2547.00,0.5955
2546.00,0.5944
2545.00,0.5936
2544.00,0.5928
2543.00,0.5922
2542.00,0.5915
2541.00,0.5908
2540.00,0.5900
2539.00,0.5894
2538.00,0.5890
2537.00,0.5887
2536.00,0.5883
2535.00,0.5878
2534.00,0.5873
2533.00,0.5868
2532.00,0.5860
2531.00,0.5850
2530.00,0.5838
2529.00,0.5826
2528.00,0.5816
2527.00,0.5808
2526.00,0.5800
2525.00,0.5790
2524.00,0.5779
2523.00,0.5768
2522.00,0.5756
2521.00,0.5746
2520.00,0.5735
2519.00,0.5725
2518.00,0.5716
2517.00,0.5708
2516.00,0.5700
2515.00,0.5691
2514.00,0.5681
2513.00,0.5672
2512.00,0.5664
2511.00,0.5657
2510.00,0.5651
2509.00,0.5645
2508.00,0.5639
2507.00,0.5632
2506.00,0.5625
2505.00,0.5618
2504.00,0.5613
2503.00,0.5609
2502.00,0.5607
2501.00,0.5605
2500.00,0.5603
2499.00,0.5600
2498.00,0.5595
2497.00,0.5588
2496.00,0.5580
2495.00,0.5574
2494.00,0.5570
2493.00,0.5566
2492.00,0.5561
2491.00,0.5555
2490.00,0.5548
2489.00,0.5543
2488.00,0.5538
2487.00,0.5534
2486.00,0.5530
2485.00,0.5525
2484.00,0.5521
2483.00,0.5515
2482.00,0.5510
2481.00,0.5506
2480.00,0.5501
2479.00,0.5496
2478.00,0.5492
2477.00,0.5487
2476.00,0.5484
2475.00,0.5480
2474.00,0.5478
2473.00,0.5477
2472.00,0.5476
2471.00,0.5472
2470.00,0.5467
2469.00,0.5461
2468.00,0.5456
2467.00,0.5452
2466.00,0.5449
2465.00,0.5448
2464.00,0.5447
2463.00,0.5446
2462.00,0.5443
2461.00,0.5439
2460.00,0.5434
2459.00,0.5431
2458.00,0.5430
2457.00,0.5430
2456.00,0.5428
2455.00,0.5427
2454.00,0.5424
2453.00,0.5421
2452.00,0.5416
2451.00,0.5412
2450.00,0.5410
2449.00,0.5410
2448.00,0.5411
2447.00,0.5412
2446.00,0.5410
2445.00,0.5408
2444.00,0.5408
2443.00,0.5409
2442.00,0.5410
2441.00,0.5409
2440.00,0.5407
2439.00,0.5404
2438.00,0.5404
2437.00,0.5405
2436.00,0.5409
2435.00,0.5411
2434.00,0.5413
2433.00,0.5413
2432.00,0.5413
2431.00,0.5412
2430.00,0.5411
2429.00,0.5409
2428.00,0.5408
2427.00,0.5409
2426.00,0.5411
2425.00,0.5413
2424.00,0.5413
2423.00,0.5413
2422.00,0.5413
2421.00,0.5414
2420.00,0.5414
2419.00,0.5413
2418.00,0.5411
2417.00,0.5410
2416.00,0.5411
2415.00,0.5413
2414.00,0.5414
2413.00,0.5415
2412.00,0.5416
2411.00,0.5416
2410.00,0.5416
2409.00,0.5416
2408.00,0.5416
2407.00,0.5417
2406.00,0.5419
2405.00,0.5419
2404.00,0.5419
2403.00,0.5417
2402.00,0.5416
2401.00,0.5415
2400.00,0.5414
2399.00,0.5413
2398.00,0.5412
2397.00,0.5411
2396.00,0.5409
2395.00,0.5405
2394.00,0.5402
2393.00,0.5402
2392.00,0.5404
2391.00,0.5407
2390.00,0.5407
2389.00,0.5406
2388.00,0.5404
2387.00,0.5404
2386.00,0.5406
2385.00,0.5408
2384.00,0.5409
2383.00,0.5408
2382.00,0.5407
2381.00,0.5406
2380.00,0.5405
2379.00,0.5404
2378.00,0.5403
2377.00,0.5401
2376.00,0.5401
2375.00,0.5402
2374.00,0.5402
2373.00,0.5402
2372.00,0.5401
2371.00,0.5400
2370.00,0.5398
2369.00,0.5395
2368.00,0.5393
2367.00,0.5391
2366.00,0.5391
2365.00,0.5391
2364.00,0.5392
2363.00,0.5395
2362.00,0.5397
2361.00,0.5398
2360.00,0.5396
2359.00,0.5393
2358.00,0.5392
2357.00,0.5393
2356.00,0.5394
2355.00,0.5393
2354.00,0.5391
2353.00,0.5389
2352.00,0.5387
2351.00,0.5386
2350.00,0.5384
2349.00,0.5383
2348.00,0.5382
2347.00,0.5381
2346.00,0.5379
2345.00,0.5377
2344.00,0.5376
2343.00,0.5375
2342.00,0.5374
2341.00,0.5375
2340.00,0.5375
2339.00,0.5374
2338.00,0.5371
2337.00,0.5367
2336.00,0.5364
2335.00,0.5363
2334.00,0.5364
2333.00,0.5366
2332.00,0.5365
2331.00,0.5362
2330.00,0.5356
2329.00,0.5351
2328.00,0.5348
2327.00,0.5347
2326.00,0.5346
2325.00,0.5344
2324.00,0.5340
2323.00,0.5336
2322.00,0.5333
2321.00,0.5331
2320.00,0.5328
2319.00,0.5325
2318.00,0.5322
2317.00,0.5318
2316.00,0.5314
2315.00,0.5311
2314.00,0.5309
2313.00,0.5308
2312.00,0.5306
2311.00,0.5302
2310.00,0.5298
2309.00,0.5293
2308.00,0.5290
2307.00,0.5286
2306.00,0.5281
2305.00,0.5276
2304.00,0.5271
2303.00,0.5267
2302.00,0.5264
2301.00,0.5261
2300.00,0.5257
2299.00,0.5253
2298.00,0.5250
2297.00,0.5247
2296.00,0.5244
2295.00,0.5239
2294.00,0.5232
2293.00,0.5226
2292.00,0.5222
2291.00,0.5218
2290.00,0.5215
2289.00,0.5211
2288.00,0.5208
2287.00,0.5206
2286.00,0.5203
2285.00,0.5201
2284.00,0.5199
2283.00,0.5195
2282.00,0.5191
2281.00,0.5185
2280.00,0.5180
2279.00,0.5175
2278.00,0.5171
2277.00,0.5168
2276.00,0.5164
2275.00,0.5160
2274.00,0.5158
2273.00,0.5156
2272.00,0.5155
2271.00,0.5154
2270.00,0.5154
2269.00,0.5152
2268.00,0.5150
2267.00,0.5145
2266.00,0.5140
2265.00,0.5136
2264.00,0.5134
2263.00,0.5133
2262.00,0.5132
2261.00,0.5130
2260.00,0.5127
2259.00,0.5122
2258.00,0.5117
2257.00,0.5112
2256.00,0.5108
2255.00,0.5105
2254.00,0.5101
2253.00,0.5097
2252.00,0.5093
2251.00,0.5090
2250.00,0.5087
2249.00,0.5084
2248.00,0.5081
2247.00,0.5077
2246.00,0.5073
2245.00,0.5070
2244.00,0.5067
2243.00,0.5064
2242.00,0.5060
2241.00,0.5058
2240.00,0.5056
2239.00,0.5054
2238.00,0.5053
2237.00,0.5052
2236.00,0.5051
2235.00,0.5049
2234.00,0.5047
2233.00,0.5045
2232.00,0.5045
2231.00,0.5045
2230.00,0.5043
2229.00,0.5040
2228.00,0.5037
2227.00,0.5035
2226.00,0.5034
2225.00,0.5034
2224.00,0.5034
2223.00,0.5031
2222.00,0.5027
2221.00,0.5024
2220.00,0.5023
2219.00,0.5024
2218.00,0.5024
2217.00,0.5022
2216.00,0.5018
2215.00,0.5015
2214.00,0.5013
2213.00,0.5012
2212.00,0.5012
2211.00,0.5012
2210.00,0.5011
2209.00,0.5011
2208.00,0.5011
2207.00,0.5011
2206.00,0.5010
2205.00,0.5008
2204.00,0.5006
2203.00,0.5005
2202.00,0.5005
2201.00,0.5006
2200.00,0.5007
2199.00,0.5007
2198.00,0.5007
2197.00,0.5007
2196.00,0.5008
2195.00,0.5009
2194.00,0.5008
2193.00,0.5008
2192.00,0.5007
2191.00,0.5007
2190.00,0.5006
2189.00,0.5005
2188.00,0.5004
2187.00,0.5003
2186.00,0.5001
2185.00,0.5001
2184.00,0.5000
2183.00,0.5000
2182.00,0.4999
2181.00,0.4997
2180.00,0.4994
2179.00,0.4990
2178.00,0.4987
2177.00,0.4987
2176.00,0.4988
2175.00,0.4988
2174.00,0.4987
2173.00,0.4984
2172.00,0.4982
2171.00,0.4978
2170.00,0.4975
2169.00,0.4973
2168.00,0.4973
2167.00,0.4973
2166.00,0.4971
2165.00,0.4969
2164.00,0.4968
2163.00,0.4968
2162.00,0.4967
2161.00,0.4967
2160.00,0.4967
2159.00,0.4967
2158.00,0.4966
2157.00,0.4965
2156.00,0.4963
2155.00,0.4960
2154.00,0.4957
2153.00,0.4954
2152.00,0.4951
2151.00,0.4948
2150.00,0.4944
2149.00,0.4939
2148.00,0.4934
2147.00,0.4930
2146.00,0.4927
2145.00,0.4923
2144.00,0.4918
2143.00,0.4911
2142.00,0.4904
2141.00,0.4897
2140.00,0.4890
2139.00,0.4884
2138.00,0.4879
2137.00,0.4876
2136.00,0.4873
2135.00,0.4870
2134.00,0.4866
2133.00,0.4863
2132.00,0.4861
2131.00,0.4860
2130.00,0.4859
2129.00,0.4858
2128.00,0.4856
2127.00,0.4853
2126.00,0.4849
2125.00,0.4847
2124.00,0.4845
2123.00,0.4843
2122.00,0.4843
2121.00,0.4842
2120.00,0.4841
2119.00,0.4839
2118.00,0.4836
2117.00,0.4835
2116.00,0.4835
2115.00,0.4834
2114.00,0.4832
2113.00,0.4829
2112.00,0.4827
2111.00,0.4824
2110.00,0.4822
2109.00,0.4819
2108.00,0.4818
2107.00,0.4816
2106.00,0.4815
2105.00,0.4812
2104.00,0.4809
2103.00,0.4806
2102.00,0.4804
2101.00,0.4804
2100.00,0.4805
2099.00,0.4805
2098.00,0.4803
2097.00,0.4799
2096.00,0.4795
2095.00,0.4793
2094.00,0.4791
2093.00,0.4792
2092.00,0.4792
2091.00,0.4792
2090.00,0.4791
2089.00,0.4789
2088.00,0.4789
2087.00,0.4791
2086.00,0.4791
2085.00,0.4791
2084.00,0.4791
2083.00,0.4789
2082.00,0.4787
2081.00,0.4785
2080.00,0.4785
2079.00,0.4785
2078.00,0.4785
2077.00,0.4785
2076.00,0.4784
2075.00,0.4781
2074.00,0.4779
2073.00,0.4777
2072.00,0.4778
2071.00,0.4779
2070.00,0.4778
2069.00,0.4777
2068.00,0.4776
2067.00,0.4775
2066.00,0.4776
2065.00,0.4777
2064.00,0.4779
2063.00,0.4782
2062.00,0.4785
2061.00,0.4787
2060.00,0.4786
2059.00,0.4785
2058.00,0.4784
2057.00,0.4784
2056.00,0.4785
2055.00,0.4786
2054.00,0.4787
2053.00,0.4788
2052.00,0.4789
2051.00,0.4789
2050.00,0.4789
2049.00,0.4790
2048.00,0.4792
2047.00,0.4794
2046.00,0.4795
2045.00,0.4797
2044.00,0.4799
2043.00,0.4800
2042.00,0.4800
2041.00,0.4799
2040.00,0.4799
2039.00,0.4798
2038.00,0.4798
2037.00,0.4799
2036.00,0.4800
2035.00,0.4802
2034.00,0.4803
2033.00,0.4802
2032.00,0.4801
2031.00,0.4800
2030.00,0.4799
2029.00,0.4798
2028.00,0.4797
2027.00,0.4796
2026.00,0.4794
2025.00,0.4791
2024.00,0.4790
2023.00,0.4788
2022.00,0.4784
2021.00,0.4780
2020.00,0.4775
2019.00,0.4769
2018.00,0.4762
2017.00,0.4754
2016.00,0.4747
2015.00,0.4738
2014.00,0.4730
2013.00,0.4722
2012.00,0.4714
2011.00,0.4706
2010.00,0.4697
2009.00,0.4690
2008.00,0.4685
2007.00,0.4682
2006.00,0.4681
2005.00,0.4679
2004.00,0.4675
2003.00,0.4669
2002.00,0.4662
2001.00,0.4659
2000.00,0.4657
1999.00,0.4656
1998.00,0.4655
1997.00,0.4654
1996.00,0.4652
1995.00,0.4651
1994.00,0.4650
1993.00,0.4650
1992.00,0.4650
1991.00,0.4647
1990.00,0.4642
1989.00,0.4638
1988.00,0.4636
1987.00,0.4634
1986.00,0.4634
1985.00,0.4634
1984.00,0.4634
1983.00,0.4633
1982.00,0.4631
1981.00,0.4629
1980.00,0.4626
1979.00,0.4623
1978.00,0.4621
1977.00,0.4619
1976.00,0.4618
1975.00,0.4617
1974.00,0.4615
1973.00,0.4614
1972.00,0.4613
1971.00,0.4613
1970.00,0.4614
1969.00,0.4613
1968.00,0.4611
1967.00,0.4607
1966.00,0.4603
1965.00,0.4602
1964.00,0.4603
1963.00,0.4605
1962.00,0.4606
1961.00,0.4606
1960.00,0.4607
1959.00,0.4606
1958.00,0.4605
1957.00,0.4604
1956.00,0.4604
1955.00,0.4606
1954.00,0.4606
1953.00,0.4608
1952.00,0.4609
1951.00,0.4610
1950.00,0.4611
1949.00,0.4611
1948.00,0.4612
1947.00,0.4612
1946.00,0.4613
1945.00,0.4615
1944.00,0.4618
1943.00,0.4622
1942.00,0.4625
1941.00,0.4627
1940.00,0.4627
1939.00,0.4626
1938.00,0.4624
1937.00,0.4622
1936.00,0.4620
1935.00,0.4618
1934.00,0.4617
1933.00,0.4617
1932.00,0.4618
1931.00,0.4618
1930.00,0.4619
1929.00,0.4619
1928.00,0.4619
1927.00,0.4618
1926.00,0.4617
1925.00,0.4618
1924.00,0.4621
1923.00,0.4625
1922.00,0.4627
1921.00,0.4630
1920.00,0.4632
1919.00,0.4634
1918.00,0.4635
1917.00,0.4636
1916.00,0.4638
1915.00,0.4640
1914.00,0.4642
1913.00,0.4644
1912.00,0.4646
1911.00,0.4648
1910.00,0.4649
1909.00,0.4649
1908.00,0.4648
1907.00,0.4647
1906.00,0.4646
1905.00,0.4645
1904.00,0.4645
1903.00,0.4644
1902.00,0.4642
1901.00,0.4639
1900.00,0.4637
1899.00,0.4636
1898.00,0.4637
1897.00,0.4638
1896.00,0.4640
1895.00,0.4640
1894.00,0.4639
1893.00,0.4638
1892.00,0.4639
1891.00,0.4640
1890.00,0.4642
1889.00,0.4645
1888.00,0.4647
1887.00,0.4648
1886.00,0.4648
1885.00,0.4646
1884.00,0.4644
1883.00,0.4642
1882.00,0.4641
1881.00,0.4641
1880.00,0.4640
1879.00,0.4639
1878.00,0.4638
1877.00,0.4636
1876.00,0.4636
1875.00,0.4634
1874.00,0.4632
1873.00,0.4630
1872.00,0.4628
1871.00,0.4627
1870.00,0.4627
1869.00,0.4625
1868.00,0.4622
1867.00,0.4616
1866.00,0.4611
1865.00,0.4608
1864.00,0.4606
1863.00,0.4604
1862.00,0.4600
1861.00,0.4597
1860.00,0.4593
1859.00,0.4589
1858.00,0.4585
1857.00,0.4582
1856.00,0.4581
1855.00,0.4580
1854.00,0.4577
1853.00,0.4573
1852.00,0.4568
1851.00,0.4565
1850.00,0.4564
1849.00,0.4565
1848.00,0.4567
1847.00,0.4568
1846.00,0.4568
1845.00,0.4567
1844.00,0.4563
1843.00,0.4558
1842.00,0.4553
1841.00,0.4550
1840.00,0.4549
1839.00,0.4548
1838.00,0.4548
1837.00,0.4547
1836.00,0.4546
1835.00,0.4543
1834.00,0.4541
1833.00,0.4541
1832.00,0.4542
1831.00,0.4540
1830.00,0.4536
1829.00,0.4532
1828.00,0.4531
1827.00,0.4534
1826.00,0.4537
1825.00,0.4537
1824.00,0.4535
1823.00,0.4531
1822.00,0.4527
1821.00,0.4525
1820.00,0.4523
1819.00,0.4522
1818.00,0.4521
1817.00,0.4521
1816.00,0.4521
1815.00,0.4519
1814.00,0.4518
1813.00,0.4518
1812.00,0.4519
1811.00,0.4519
1810.00,0.4519
1809.00,0.4521
1808.00,0.4524
1807.00,0.4526
1806.00,0.4526
1805.00,0.4529
1804.00,0.4534
1803.00,0.4541
1802.00,0.4547
1801.00,0.4552
1800.00,0.4555
1799.00,0.4556
1798.00,0.4558
1797.00,0.4562
1796.00,0.4567
1795.00,0.4571
1794.00,0.4574
1793.00,0.4577
1792.00,0.4580
1791.00,0.4581
1790.00,0.4580
1789.00,0.4580
1788.00,0.4582
1787.00,0.4584
1786.00,0.4585
1785.00,0.4587
1784.00,0.4589
1783.00,0.4591
1782.00,0.4594
1781.00,0.4596
1780.00,0.4598
1779.00,0.4600
1778.00,0.4602
1777.00,0.4605
1776.00,0.4608
1775.00,0.4612
1774.00,0.4615
1773.00,0.4621
1772.00,0.4627
1771.00,0.4634
1770.00,0.4641
1769.00,0.4648
1768.00,0.4656
1767.00,0.4661
1766.00,0.4666
1765.00,0.4674
1764.00,0.4687
1763.00,0.4705
1762.00,0.4724
1761.00,0.4744
1760.00,0.4766
1759.00,0.4792
1758.00,0.4826
1757.00,0.4868
1756.00,0.4914
1755.00,0.4958
1754.00,0.5003
1753.00,0.5054
1752.00,0.5110
1751.00,0.5164
1750.00,0.5209
1749.00,0.5243
1748.00,0.5267
1747.00,0.5278
1746.00,0.5280
1745.00,0.5275
1744.00,0.5266
1743.00,0.5250
1742.00,0.5228
1741.00,0.5203
1740.00,0.5173
1739.00,0.5140
1738.00,0.5113
1737.00,0.5098
1736.00,0.5089
1735.00,0.5073
1734.00,0.5044
1733.00,0.5012
1732.00,0.4987
1731.00,0.4969
1730.00,0.4955
1729.00,0.4942
1728.00,0.4931
1727.00,0.4922
1726.00,0.4914
1725.00,0.4908
1724.00,0.4904
1723.00,0.4901
1722.00,0.4900
1721.00,0.4904
1720.00,0.4910
1719.00,0.4915
1718.00,0.4918
1717.00,0.4924
1716.00,0.4932
1715.00,0.4938
1714.00,0.4943
1713.00,0.4948
1712.00,0.4953
1711.00,0.4958
1710.00,0.4962
1709.00,0.4969
1708.00,0.4976
1707.00,0.4979
1706.00,0.4979
1705.00,0.4976
1704.00,0.4975
1703.00,0.4974
1702.00,0.4971
1701.00,0.4958
1700.00,0.4933
1699.00,0.4909
1698.00,0.4897
1697.00,0.4895
1696.00,0.4890
1695.00,0.4876
1694.00,0.4862
1693.00,0.4856
1692.00,0.4856
1691.00,0.4856
1690.00,0.4856
1689.00,0.4857
1688.00,0.4860
1687.00,0.4864
1686.00,0.4867
1685.00,0.4870
1684.00,0.4870
1683.00,0.4869
1682.00,0.4871
1681.00,0.4878
1680.00,0.4883
1679.00,0.4884
1678.00,0.4882
1677.00,0.4884
1676.00,0.4889
1675.00,0.4892
1674.00,0.4895
1673.00,0.4899
1672.00,0.4905
1671.00,0.4909
1670.00,0.4910
1669.00,0.4913
1668.00,0.4921
1667.00,0.4928
1666.00,0.4937
1665.00,0.4948
1664.00,0.4958
1663.00,0.4965
1662.00,0.4970
1661.00,0.4978
1660.00,0.4987
1659.00,0.4996
1658.00,0.5007
1657.00,0.5023
1656.00,0.5044
1655.00,0.5063
1654.00,0.5079
1653.00,0.5100
1652.00,0.5121
1651.00,0.5134
1650.00,0.5146
1649.00,0.5163
1648.00,0.5181
1647.00,0.5194
1646.00,0.5201
1645.00,0.5208
1644.00,0.5217
1643.00,0.5226
1642.00,0.5236
1641.00,0.5246
1640.00,0.5257
1639.00,0.5265
1638.00,0.5275
1637.00,0.5290
1636.00,0.5311
1635.00,0.5327
1634.00,0.5338
1633.00,0.5352
1632.00,0.5370
1631.00,0.5387
1630.00,0.5404
1629.00,0.5427
1628.00,0.5456
1627.00,0.5485
1626.00,0.5513
1625.00,0.5546
1624.00,0.5587
1623.00,0.5635
1622.00,0.5689
1621.00,0.5748
1620.00,0.5813
1619.00,0.5883
1618.00,0.5965
1617.00,0.6074
1616.00,0.6200
1615.00,0.6318
1614.00,0.6425
1613.00,0.6541
1612.00,0.6675
1611.00,0.6820
1610.00,0.6965
1609.00,0.7106
1608.00,0.7241
1607.00,0.7357
1606.00,0.7454
1605.00,0.7553
1604.00,0.7671
1603.00,0.7809
1602.00,0.7959
1601.00,0.8120
1600.00,0.8280
1599.00,0.8410
1598.00,0.8501
1597.00,0.8577
1596.00,0.8672
1595.00,0.8802
1594.00,0.8982
1593.00,0.9243
1592.00,0.9609
1591.00,1.0088
1590.00,1.0694
1589.00,1.1479
1588.00,1.2517
1587.00,1.3850
1586.00,1.5506
1585.00,1.7588
1584.00,2.0331
1583.00,2.3884
1582.00,2.7517
1581.00,3.0170
1580.00,3.4416
1579.00,3.8235
1578.00,3.1377
1577.00,2.6543
1576.00,2.2957
1575.00,2.0062
1574.00,1.7769
1573.00,1.6105
1572.00,1.4822
1571.00,1.3687
1570.00,1.2675
1569.00,1.1964
1568.00,1.1648
1567.00,1.1662
1566.00,1.1952
1565.00,1.2548
1564.00,1.3463
1563.00,1.4563
1562.00,1.5642
1561.00,1.6600
1560.00,1.7157
1559.00,1.6268
1558.00,1.4477
1557.00,1.3122
1556.00,1.2069
1555.00,1.1027
1554.00,1.0030
1553.00,0.9237
1552.00,0.8666
1551.00,0.8218
1550.00,0.7825
1549.00,0.7503
1548.00,0.7269
1547.00,0.7100
1546.00,0.6957
1545.00,0.6830
1544.00,0.6725
1543.00,0.6636
1542.00,0.6555
1541.00,0.6477
1540.00,0.6405
1539.00,0.6338
1538.00,0.6291
1537.00,0.6271
1536.00,0.6269
1535.00,0.6271
1534.00,0.6277
1533.00,0.6301
1532.00,0.6345
1531.00,0.6400
1530.00,0.6464
1529.00,0.6549
1528.00,0.6654
1527.00,0.6770
1526.00,0.6890
1525.00,0.7012
1524.00,0.7142
1523.00,0.7298
1522.00,0.7518
1521.00,0.7810
1520.00,0.8095
1519.00,0.8311
1518.00,0.8464
1517.00,0.8557
1516.00,0.8554
1515.00,0.8445
1514.00,0.8266
1513.00,0.8056
1512.00,0.7841
1511.00,0.7647
1510.00,0.7495
1509.00,0.7390
1508.00,0.7327
1507.00,0.7303
1506.00,0.7323
1505.00,0.7386
1504.00,0.7476
1503.00,0.7577
1502.00,0.7682
1501.00,0.7788
1500.00,0.7883
1499.00,0.7954
1498.00,0.7999
1497.00,0.8039
1496.00,0.8089
1495.00,0.8149
1494.00,0.8222
1493.00,0.8323
1492.00,0.8460
1491.00,0.8631
1490.00,0.8832
1489.00,0.9056
1488.00,0.9291
1487.00,0.9524
1486.00,0.9766
1485.00,1.0032
1484.00,1.0330
1483.00,1.0668
1482.00,1.1071
1481.00,1.1559
1480.00,1.2112
1479.00,1.2707
1478.00,1.3383
1477.00,1.4219
1476.00,1.5237
1475.00,1.6401
1474.00,1.7771
1473.00,1.9595
1472.00,2.2079
1471.00,2.5082
1470.00,2.8349
1469.00,3.1785
1468.00,3.4235
1467.00,3.5201
1466.00,3.4966
1465.00,3.5312
1464.00,3.7292
1463.00,3.6313
1462.00,3.5517
1461.00,3.6469
1460.00,3.6534
1459.00,3.7240
1458.00,3.5814
1457.00,3.2609
1456.00,3.1908
1455.00,3.1861
1454.00,3.2612
1453.00,3.3882
1452.00,3.3720
1451.00,3.1964
1450.00,3.0628
1449.00,3.0389
1448.00,3.0623
1447.00,3.0377
1446.00,2.9759
1445.00,2.8885
1444.00,2.7561
1443.00,2.6065
1442.00,2.4761
1441.00,2.3668
1440.00,2.2625
1439.00,2.1559
1438.00,2.0443
1437.00,1.9227
1436.00,1.7995
1435.00,1.6930
1434.00,1.6051
1433.00,1.5254
1432.00,1.4466
1431.00,1.3701
1430.00,1.3004
1429.00,1.2398
1428.00,1.1897
1427.00,1.1506
1426.00,1.1201
1425.00,1.0954
1424.00,1.0758
1423.00,1.0619
1422.00,1.0528
1421.00,1.0459
1420.00,1.0391
1419.00,1.0324
1418.00,1.0262
1417.00,1.0207
1416.00,1.0167
1415.00,1.0148
1414.00,1.0143
1413.00,1.0145
1412.00,1.0149
1411.00,1.0153
1410.00,1.0148
1409.00,1.0123
1408.00,1.0072
1407.00,0.9987
1406.00,0.9853
1405.00,0.9666
1404.00,0.9453
1403.00,0.9255
1402.00,0.9089
1401.00,0.8953
1400.00,0.8847
1399.00,0.8785
1398.00,0.8773
1397.00,0.8808
1396.00,0.8888
1395.00,0.9014
1394.00,0.9168
1393.00,0.9328
1392.00,0.9501
1391.00,0.9710
1390.00,0.9971
1389.00,1.0303
1388.00,1.0743
1387.00,1.1313
1386.00,1.1979
1385.00,1.2701
1384.00,1.3501
1383.00,1.4454
1382.00,1.5618
1381.00,1.7037
1380.00,1.8732
1379.00,2.0568
1378.00,2.1988
1377.00,2.2337
1376.00,2.1669
1375.00,2.0387
1374.00,1.8862
1373.00,1.7464
1372.00,1.6393
1371.00,1.5657
1370.00,1.5217
1369.00,1.5045
1368.00,1.5069
1367.00,1.5114
1366.00,1.4963
1365.00,1.4500
1364.00,1.3772
1363.00,1.2923
1362.00,1.2113
1361.00,1.1446
1360.00,1.0945
1359.00,1.0584
1358.00,1.0328
1357.00,1.0151
1356.00,1.0037
1355.00,0.9969
1354.00,0.9931
1353.00,0.9912
1352.00,0.9901
1351.00,0.9885
1350.00,0.9853
1349.00,0.9803
1348.00,0.9745
1347.00,0.9692
1346.00,0.9650
1345.00,0.9619
1344.00,0.9599
1343.00,0.9586
1342.00,0.9567
1341.00,0.9529
1340.00,0.9463
1339.00,0.9366
1338.00,0.9238
1337.00,0.9085
1336.00,0.8920
1335.00,0.8761
1334.00,0.8617
1333.00,0.8491
1332.00,0.8388
1331.00,0.8312
1330.00,0.8261
1329.00,0.8229
1328.00,0.8211
1327.00,0.8206
1326.00,0.8212
1325.00,0.8228
1324.00,0.8248
1323.00,0.8270
1322.00,0.8294
1321.00,0.8317
1320.00,0.8340
1319.00,0.8366
1318.00,0.8395
1317.00,0.8429
1316.00,0.8468
1315.00,0.8511
1314.00,0.8553
1313.00,0.8590
1312.00,0.8621
1311.00,0.8645
1310.00,0.8658
1309.00,0.8658
1308.00,0.8649
1307.00,0.8635
1306.00,0.8613
1305.00,0.8576
1304.00,0.8517
1303.00,0.8441
1302.00,0.8357
1301.00,0.8274
1300.00,0.8194
1299.00,0.8115
1298.00,0.8033
1297.00,0.7946
1296.00,0.7858
1295.00,0.7775
1294.00,0.7701
1293.00,0.7636
1292.00,0.7578
1291.00,0.7524
1290.00,0.7472
1289.00,0.7423
1288.00,0.7376
1287.00,0.7332
1286.00,0.7286
1285.00,0.7235
1284.00,0.7179
1283.00,0.7124
1282.00,0.7078
1281.00,0.7041
1280.00,0.7013
1279.00,0.6991
1278.00,0.6971
1277.00,0.6949
1276.00,0.6927
1275.00,0.6910
1274.00,0.6901
1273.00,0.6901
1272.00,0.6910
1271.00,0.6923
1270.00,0.6932
1269.00,0.6926
1268.00,0.6902
1267.00,0.6861
1266.00,0.6806
1265.00,0.6745
1264.00,0.6688
1263.00,0.6643
1262.00,0.6612
1261.00,0.6590
1260.00,0.6578
1259.00,0.6575
1258.00,0.6578
1257.00,0.6582
1256.00,0.6580
1255.00,0.6577
1254.00,0.6575
1253.00,0.6572
1252.00,0.6569
1251.00,0.6566
1250.00,0.6565
1249.00,0.6568
1248.00,0.6574
1247.00,0.6584
1246.00,0.6590
1245.00,0.6588
1244.00,0.6576
1243.00,0.6560
1242.00,0.6543
1241.00,0.6527
1240.00,0.6518
1239.00,0.6523
1238.00,0.6544
1237.00,0.6579
1236.00,0.6624
1235.00,0.6678
1234.00,0.6732
1233.00,0.6778
1232.00,0.6811
1231.00,0.6835
1230.00,0.6849
1229.00,0.6849
1228.00,0.6830
1227.00,0.6791
1226.00,0.6734
1225.00,0.6667
1224.00,0.6597
1223.00,0.6533
1222.00,0.6477
1221.00,0.6426
1220.00,0.6379
1219.00,0.6338
1218.00,0.6305
1217.00,0.6283
1216.00,0.6272
1215.00,0.6267
1214.00,0.6264
1213.00,0.6254
1212.00,0.6234
1211.00,0.6207
1210.00,0.6176
1209.00,0.6145
1208.00,0.6114
1207.00,0.6087
1206.00,0.6065
1205.00,0.6048
1204.00,0.6037
1203.00,0.6033
1202.00,0.6033
1201.00,0.6034
1200.00,0.6037
1199.00,0.6046
1198.00,0.6060
1197.00,0.6078
1196.00,0.6097
1195.00,0.6121
1194.00,0.6153
1193.00,0.6194
1192.00,0.6237
1191.00,0.6273
1190.00,0.6291
1189.00,0.6282
1188.00,0.6248
1187.00,0.6197
1186.00,0.6139
1185.00,0.6088
1184.00,0.6051
1183.00,0.6031
1182.00,0.6023
1181.00,0.6025
1180.00,0.6035
1179.00,0.6052
1178.00,0.6070
1177.00,0.6085
1176.00,0.6100
1175.00,0.6120
1174.00,0.6148
1173.00,0.6182
1172.00,0.6219
1171.00,0.6256
1170.00,0.6287
1169.00,0.6309
1168.00,0.6320
1167.00,0.6323
1166.00,0.6323
1165.00,0.6321
1164.00,0.6322
1163.00,0.6326
1162.00,0.6335
1161.00,0.6346
1160.00,0.6359
1159.00,0.6376
1158.00,0.6398
1157.00,0.6421
1156.00,0.6440
1155.00,0.6454
1154.00,0.6460
1153.00,0.6458
1152.00,0.6448
1151.00,0.6433
1150.00,0.6415
1149.00,0.6396
1148.00,0.6381
1147.00,0.6370
1146.00,0.6363
1145.00,0.6362
1144.00,0.6373
1143.00,0.6399
1142.00,0.6438
1141.00,0.6485
1140.00,0.6539
1139.00,0.6599
1138.00,0.6666
1137.00,0.6742
1136.00,0.6824
1135.00,0.6905
1134.00,0.6969
1133.00,0.6996
1132.00,0.6977
1131.00,0.6920
1130.00,0.6841
1129.00,0.6757
1128.00,0.6682
1127.00,0.6626
1126.00,0.6592
1125.00,0.6580
1124.00,0.6585
1123.00,0.6599
1122.00,0.6616
1121.00,0.6632
1120.00,0.6654
1119.00,0.6692
1118.00,0.6752
1117.00,0.6828
1116.00,0.6911
1115.00,0.6989
1114.00,0.7038
1113.00,0.7033
1112.00,0.6965
1111.00,0.6850
1110.00,0.6719
1109.00,0.6598
1108.00,0.6501
1107.00,0.6434
1106.00,0.6393
1105.00,0.6371
1104.00,0.6361
1103.00,0.6354
1102.00,0.6350
1101.00,0.6349
1100.00,0.6350
1099.00,0.6351
1098.00,0.6347
1097.00,0.6336
1096.00,0.6322
1095.00,0.6310
1094.00,0.6304
1093.00,0.6306
1092.00,0.6315
1091.00,0.6331
1090.00,0.6353
1089.00,0.6382
1088.00,0.6420
1087.00,0.6472
1086.00,0.6535
1085.00,0.6606
1084.00,0.6683
1083.00,0.6763
1082.00,0.6847
1081.00,0.6933
1080.00,0.7013
1079.00,0.7075
1078.00,0.7111
1077.00,0.7115
1076.00,0.7091
1075.00,0.7044
1074.00,0.6976
1073.00,0.6894
1072.00,0.6812
1071.00,0.6744
1070.00,0.6697
1069.00,0.6666
1068.00,0.6645
1067.00,0.6625
1066.00,0.6605
1065.00,0.6589
1064.00,0.6586
1063.00,0.6600
1062.00,0.6621
1061.00,0.6636
1060.00,0.6641
1059.00,0.6636
1058.00,0.6630
1057.00,0.6628
1056.00,0.6630
1055.00,0.6633
1054.00,0.6635
1053.00,0.6639
1052.00,0.6650
1051.00,0.6672
1050.00,0.6705
1049.00,0.6743
1048.00,0.6784
1047.00,0.6825
1046.00,0.6865
1045.00,0.6899
1044.00,0.6928
1043.00,0.6954
1042.00,0.6978
1041.00,0.7003
1040.00,0.7033
1039.00,0.7067
1038.00,0.7102
1037.00,0.7136
1036.00,0.7170
1035.00,0.7207
1034.00,0.7247
1033.00,0.7289
1032.00,0.7337
1031.00,0.7389
1030.00,0.7441
1029.00,0.7483
1028.00,0.7509
1027.00,0.7514
1026.00,0.7497
1025.00,0.7463
1024.00,0.7417
1023.00,0.7371
1022.00,0.7333
1021.00,0.7308
1020.00,0.7296
1019.00,0.7294
1018.00,0.7301
1017.00,0.7318
1016.00,0.7344
1015.00,0.7376
1014.00,0.7405
1013.00,0.7428
1012.00,0.7443
1011.00,0.7454
1010.00,0.7464
1009.00,0.7478
1008.00,0.7500
1007.00,0.7529
1006.00,0.7563
1005.00,0.7601
1004.00,0.7643
1003.00,0.7689
1002.00,0.7725
1001.00,0.7739
1000.00,0.7731
999.00,0.7708
998.00,0.7670
997.00,0.7613
996.00,0.7538
995.00,0.7453
994.00,0.7363
993.00,0.7267
992.00,0.7163
991.00,0.7054
990.00,0.6948
989.00,0.6846
988.00,0.6750
987.00,0.6662
986.00,0.6583
985.00,0.6515
984.00,0.6455
983.00,0.6404
982.00,0.6364
981.00,0.6332
980.00,0.6303
979.00,0.6272
978.00,0.6240
977.00,0.6210
976.00,0.6186
975.00,0.6166
974.00,0.6147
973.00,0.6128
972.00,0.6111
971.00,0.6101
970.00,0.6100
969.00,0.6106
968.00,0.6114
967.00,0.6121
966.00,0.6122
965.00,0.6115
964.00,0.6096
963.00,0.6063
962.00,0.6019
961.00,0.5969
960.00,0.5921
959.00,0.5882
958.00,0.5852
957.00,0.5830
956.00,0.5813
955.00,0.5799
954.00,0.5783
953.00,0.5766
952.00,0.5745
951.00,0.5721
950.00,0.5693
949.00,0.5661
948.00,0.5628
947.00,0.5603
946.00,0.5588
945.00,0.5582
944.00,0.5582
943.00,0.5583
942.00,0.5583
941.00,0.5580
940.00,0.5574
939.00,0.5566
938.00,0.5553
937.00,0.5533
936.00,0.5504
935.00,0.5469
934.00,0.5436
933.00,0.5407
932.00,0.5383
931.00,0.5360
930.00,0.5341
929.00,0.5330
928.00,0.5331
927.00,0.5347
926.00,0.5378
925.00,0.5419
924.00,0.5468
923.00,0.5520
922.00,0.5569
921.00,0.5603
920.00,0.5612
919.00,0.5592
918.00,0.5546
917.00,0.5481
916.00,0.5404
915.00,0.5323
914.00,0.5243
913.00,0.5167
912.00,0.5098
911.00,0.5037
910.00,0.4986
909.00,0.4946
908.00,0.4918
907.00,0.4898
906.00,0.4884
905.00,0.4871
904.00,0.4860
903.00,0.4852
902.00,0.4849
901.00,0.4854
900.00,0.4870
899.00,0.4900
898.00,0.4940
897.00,0.4984
896.00,0.5029
895.00,0.5072
894.00,0.5112
893.00,0.5148
892.00,0.5178
891.00,0.5200
890.00,0.5212
889.00,0.5212
888.00,0.5200
887.00,0.5179
886.00,0.5152
885.00,0.5121
884.00,0.5089
883.00,0.5064
882.00,0.5052
881.00,0.5052
880.00,0.5060
879.00,0.5068
878.00,0.5074
877.00,0.5081
876.00,0.5090
875.00,0.5099
874.00,0.5101
873.00,0.5094
872.00,0.5084
871.00,0.5079
870.00,0.5085
869.00,0.5105
868.00,0.5138
867.00,0.5186
866.00,0.5247
865.00,0.5317
864.00,0.5389
863.00,0.5455
862.00,0.5503
861.00,0.5523
860.00,0.5515
859.00,0.5482
858.00,0.5432
857.00,0.5375
856.00,0.5318
855.00,0.5272
854.00,0.5241
853.00,0.5224
852.00,0.5216
851.00,0.5210
850.00,0.5201
849.00,0.5187
848.00,0.5169
847.00,0.5154
846.00,0.5145
845.00,0.5140
844.00,0.5137
843.00,0.5135
842.00,0.5143
841.00,0.5175
840.00,0.5233
839.00,0.5313
838.00,0.5402
837.00,0.5484
836.00,0.5540
835.00,0.5550
834.00,0.5507
833.00,0.5430
832.00,0.5350
831.00,0.5291
830.00,0.5258
829.00,0.5249
828.00,0.5261
827.00,0.5295
826.00,0.5350
825.00,0.5422
824.00,0.5504
823.00,0.5585
822.00,0.5653
821.00,0.5698
820.00,0.5718
819.00,0.5715
818.00,0.5693
817.00,0.5656
816.00,0.5609
815.00,0.5554
814.00,0.5494
813.00,0.5428
812.00,0.5361
811.00,0.5296
810.00,0.5234
809.00,0.5175
808.00,0.5119
807.00,0.5068
806.00,0.5019
805.00,0.4967
804.00,0.4908
803.00,0.4848
802.00,0.4788
801.00,0.4732
800.00,0.4684
799.00,0.4650
798.00,0.4629
797.00,0.4617
796.00,0.4609
795.00,0.4607
794.00,0.4608
793.00,0.4609
792.00,0.4611
791.00,0.4614
790.00,0.4620
789.00,0.4627
788.00,0.4633
787.00,0.4640
786.00,0.4649
785.00,0.4661
784.00,0.4679
783.00,0.4702
782.00,0.4727
781.00,0.4747
780.00,0.4764
779.00,0.4785
778.00,0.4814
777.00,0.4851
776.00,0.4890
775.00,0.4927
774.00,0.4961
773.00,0.4989
772.00,0.5013
771.00,0.5036
770.00,0.5063
769.00,0.5094
768.00,0.5126
767.00,0.5153
766.00,0.5169
765.00,0.5179
764.00,0.5194
763.00,0.5227
762.00,0.5278
761.00,0.5341
760.00,0.5400
759.00,0.5445
758.00,0.5476
757.00,0.5499
756.00,0.5528
755.00,0.5569
754.00,0.5623
753.00,0.5685
752.00,0.5752
751.00,0.5825
750.00,0.5903
749.00,0.5985
748.00,0.6068
747.00,0.6150
746.00,0.6219
745.00,0.6268
744.00,0.6296
743.00,0.6312
742.00,0.6330
741.00,0.6358
740.00,0.6403
739.00,0.6464
738.00,0.6530
737.00,0.6596
736.00,0.6666
735.00,0.6751
734.00,0.6854
733.00,0.6968
732.00,0.7093
731.00,0.7240
730.00,0.7425
729.00,0.7658
728.00,0.7943
727.00,0.8285
726.00,0.8682
725.00,0.9115
724.00,0.9541
723.00,0.9884
722.00,1.0031
721.00,0.9891
720.00,0.9480
719.00,0.8924
718.00,0.8351
717.00,0.7830
716.00,0.7380
715.00,0.7002
714.00,0.6688
713.00,0.6424
712.00,0.6194
711.00,0.5988
710.00,0.5810
709.00,0.5659
708.00,0.5534
707.00,0.5428
706.00,0.5337
705.00,0.5257
704.00,0.5189
703.00,0.5130
702.00,0.5075
701.00,0.5020
700.00,0.4960
699.00,0.4893
698.00,0.4815
697.00,0.4728
696.00,0.4645
695.00,0.4578
694.00,0.4532
693.00,0.4499
692.00,0.4475
691.00,0.4457
690.00,0.4445
689.00,0.4440
688.00,0.4441
687.00,0.4450
686.00,0.4463
685.00,0.4480
684.00,0.4502
683.00,0.4531
682.00,0.4568
681.00,0.4610
680.00,0.4655
679.00,0.4700
678.00,0.4740
677.00,0.4767
676.00,0.4783
675.00,0.4798
674.00,0.4818
673.00,0.4841
672.00,0.4860
671.00,0.4872
670.00,0.4879
669.00,0.4878
668.00,0.4863
667.00,0.4836
666.00,0.4808
665.00,0.4779
664.00,0.4745
663.00,0.4708
662.00,0.4672
661.00,0.4638
660.00,0.4602
659.00,0.4566
658.00,0.4533
657.00,0.4503
656.00,0.4475
655.00,0.4448
654.00,0.4423
653.00,0.4396
652.00,0.4369
651.00,0.4347
650.00,0.4333
649.00,0.4326
648.00,0.4322
647.00,0.4318
646.00,0.4311
645.00,0.4300
644.00,0.4286
643.00,0.4274
642.00,0.4268
641.00,0.4267
640.00,0.4268
639.00,0.4267
638.00,0.4263
637.00,0.4255
636.00,0.4245
635.00,0.4237
634.00,0.4230
633.00,0.4223
632.00,0.4218
631.00,0.4221
630.00,0.4232
629.00,0.4246
628.00,0.4264
627.00,0.4287
626.00,0.4313
625.00,0.4335
624.00,0.4350
623.00,0.4366
622.00,0.4388
621.00,0.4415
620.00,0.4438
619.00,0.4454
618.00,0.4465
617.00,0.4469
616.00,0.4466
615.00,0.4457
614.00,0.4447
613.00,0.4433
612.00,0.4416
611.00,0.4397
610.00,0.4378
609.00,0.4359
608.00,0.4342
607.00,0.4332
606.00,0.4330
605.00,0.4330
604.00,0.4327
603.00,0.4322
602.00,0.4316
601.00,0.4310
600.00,0.4303
599.00,0.4304
598.00,0.4320
597.00,0.4342
596.00,0.4358
595.00,0.4363
594.00,0.4364
593.00,0.4371
592.00,0.4385
591.00,0.4411
590.00,0.4448
589.00,0.4494
588.00,0.4542
587.00,0.4589
586.00,0.4632
585.00,0.4665
584.00,0.4684
583.00,0.4690
582.00,0.4692
581.00,0.4698
580.00,0.4715
579.00,0.4750
578.00,0.4801
577.00,0.4859
576.00,0.4905
575.00,0.4932
574.00,0.4948
573.00,0.4968
572.00,0.5000
571.00,0.5036
570.00,0.5058
569.00,0.5060
568.00,0.5048
567.00,0.5039
566.00,0.5042
565.00,0.5056
564.00,0.5077
563.00,0.5101
562.00,0.5127
561.00,0.5147
560.00,0.5159
559.00,0.5165
558.00,0.5182
557.00,0.5219
556.00,0.5271
555.00,0.5312
554.00,0.5322
553.00,0.5305
552.00,0.5284
551.00,0.5282
550.00,0.5299
