Created as New Dataset,
cm-1,A
4000.00,0.3645
3999.00,0.3642
3998.00,0.3639
3997.00,0.3636
3996.00,0.3633
3995.00,0.3629
3994.00,0.3625
3993.00,0.3621
3992.00,0.3618
3991.00,0.3614
3990.00,0.3611
3989.00,0.3607
3988.00,0.3603
3987.00,0.3598
3986.00,0.3594
3985.00,0.3589
3984.00,0.3585
3983.00,0.3581
3982.00,0.3577
3981.00,0.3573
3980.00,0.3570
3979.00,0.3566
3978.00,0.3563
3977.00,0.3559
3976.00,0.3555
3975.00,0.3551
3974.00,0.3548
3973.00,0.3545
3972.00,0.3542
3971.00,0.3540
3970.00,0.3538
3969.00,0.3536
3968.00,0.3534
3967.00,0.3532
3966.00,0.3529
3965.00,0.3527
3964.00,0.3525
3963.00,0.3523
3962.00,0.3521
3961.00,0.3520
3960.00,0.3518
3959.00,0.3517
3958.00,0.3515
3957.00,0.3513
3956.00,0.3512
3955.00,0.3511
3954.00,0.3509
3953.00,0.3507
3952.00,0.3504
3951.00,0.3502
3950.00,0.3500
3949.00,0.3499
3948.00,0.3497
3947.00,0.3496
3946.00,0.3495
3945.00,0.3495
3944.00,0.3493
3943.00,0.3492
3942.00,0.3491
3941.00,0.3491
3940.00,0.3491
3939.00,0.3490
3938.00,0.3490
3937.00,0.3489
3936.00,0.3488
3935.00,0.3488
3934.00,0.3487
3933.00,0.3487
3932.00,0.3487
3931.00,0.3487
3930.00,0.3488
3929.00,0.3488
3928.00,0.3487
3927.00,0.3487
3926.00,0.3487
3925.00,0.3487
3924.00,0.3487
3923.00,0.3488
3922.00,0.3488
3921.00,0.3488
3920.00,0.3487
3919.00,0.3486
3918.00,0.3486
3917.00,0.3486
3916.00,0.3486
3915.00,0.3486
3914.00,0.3486
3913.00,0.3485
3912.00,0.3484
3911.00,0.3483
3910.00,0.3482
3909.00,0.3481
3908.00,0.3480
3907.00,0.3479
3906.00,0.3479
3905.00,0.3478
3904.00,0.3477
3903.00,0.3476
3902.00,0.3475
3901.00,0.3474
3900.00,0.3473
3899.00,0.3472
3898.00,0.3472
3897.00,0.3473
3896.00,0.3473
3895.00,0.3472
3894.00,0.3471
3893.00,0.3471
3892.00,0.3470
3891.00,0.3469
3890.00,0.3469
3889.00,0.3469
3888.00,0.3469
3887.00,0.3467
3886.00,0.3465
3885.00,0.3463
3884.00,0.3463
3883.00,0.3464
3882.00,0.3462
3881.00,0.3459
3880.00,0.3457
3879.00,0.3458
3878.00,0.3459
3877.00,0.3460
3876.00,0.3457
3875.00,0.3453
3874.00,0.3451
3873.00,0.3452
3872.00,0.3453
3871.00,0.3452
3870.00,0.3448
3869.00,0.3444
3868.00,0.3444
3867.00,0.3444
3866.00,0.3442
3865.00,0.3439
3864.00,0.3437
3863.00,0.3438
3862.00,0.3439
3861.00,0.3438
3860.00,0.3437
3859.00,0.3436
3858.00,0.3436
3857.00,0.3438
3856.00,0.3441
3855.00,0.3444
3854.00,0.3443
3853.00,0.3437
3852.00,0.3436
3851.00,0.3439
3850.00,0.3440
3849.00,0.3435
3848.00,0.3431
3847.00,0.3429
3846.00,0.3430
3845.00,0.3430
3844.00,0.3430
3843.00,0.3429
3842.00,0.3428
3841.00,0.3428
3840.00,0.3427
3839.00,0.3426
3838.00,0.3424
3837.00,0.3422
3836.00,0.3422
3835.00,0.3422
3834.00,0.3421
3833.00,0.3419
3832.00,0.3418
3831.00,0.3417
3830.00,0.3417
3829.00,0.3417
3828.00,0.3416
3827.00,0.3414
3826.00,0.3412
3825.00,0.3413
3824.00,0.3414
3823.00,0.3415
3822.00,0.3414
3821.00,0.3410
3820.00,0.3409
3819.00,0.3411
3818.00,0.3412
3817.00,0.3409
3816.00,0.3405
3815.00,0.3403
3814.00,0.3403
3813.00,0.3404
3812.00,0.3401
3811.00,0.3397
3810.00,0.3395
3809.00,0.3396
3808.00,0.3396
3807.00,0.3392
3806.00,0.3388
3805.00,0.3386
3804.00,0.3385
3803.00,0.3382
3802.00,0.3377
3801.00,0.3373
3800.00,0.3371
3799.00,0.3371
3798.00,0.3369
3797.00,0.3365
3796.00,0.3362
3795.00,0.3361
3794.00,0.3362
3793.00,0.3362
3792.00,0.3360
3791.00,0.3358
3790.00,0.3357
3789.00,0.3356
3788.00,0.3355
3787.00,0.3354
3786.00,0.3352
3785.00,0.3350
3784.00,0.3349
3783.00,0.3348
3782.00,0.3348
3781.00,0.3348
3780.00,0.3347
3779.00,0.3346
3778.00,0.3345
3777.00,0.3344
3776.00,0.3342
3775.00,0.3340
3774.00,0.3337
3773.00,0.3336
3772.00,0.3336
3771.00,0.3334
3770.00,0.3331
3769.00,0.3329
3768.00,0.3327
3767.00,0.3325
3766.00,0.3322
3765.00,0.3319
3764.00,0.3318
3763.00,0.3317
3762.00,0.3315
3761.00,0.3312
3760.00,0.3309
3759.00,0.3307
3758.00,0.3306
3757.00,0.3303
3756.00,0.3301
3755.00,0.3299
3754.00,0.3298
3753.00,0.3297
3752.00,0.3297
3751.00,0.3295
3750.00,0.3292
3749.00,0.3290
3748.00,0.3289
3747.00,0.3290
3746.00,0.3291
3745.00,0.3290
3744.00,0.3288
3743.00,0.3288
3742.00,0.3291
3741.00,0.3291
3740.00,0.3287
3739.00,0.3283
3738.00,0.3283
3737.00,0.3284
3736.00,0.3283
3735.00,0.3280
3734.00,0.3279
3733.00,0.3279
3732.00,0.3278
3731.00,0.3278
3730.00,0.3277
3729.00,0.3276
3728.00,0.3274
3727.00,0.3271
3726.00,0.3269
3725.00,0.3268
3724.00,0.3268
3723.00,0.3266
3722.00,0.3263
3721.00,0.3262
3720.00,0.3262
3719.00,0.3261
3718.00,0.3260
3717.00,0.3259
3716.00,0.3258
3715.00,0.3258
3714.00,0.3259
3713.00,0.3259
3712.00,0.3259
3711.00,0.3259
3710.00,0.3260
3709.00,0.3261
3708.00,0.3262
3707.00,0.3262
3706.00,0.3262
3705.00,0.3262
3704.00,0.3262
3703.00,0.3262
3702.00,0.3262
3701.00,0.3263
3700.00,0.3264
3699.00,0.3264
3698.00,0.3264
3697.00,0.3263
3696.00,0.3262
3695.00,0.3262
3694.00,0.3262
3693.00,0.3263
3692.00,0.3263
3691.00,0.3263
3690.00,0.3263
3689.00,0.3261
3688.00,0.3259
3687.00,0.3259
3686.00,0.3259
3685.00,0.3260
3684.00,0.3259
3683.00,0.3259
3682.00,0.3260
3681.00,0.3260
3680.00,0.3260
3679.00,0.3260
3678.00,0.3262
3677.00,0.3263
3676.00,0.3261
3675.00,0.3258
3674.00,0.3258
3673.00,0.3261
3672.00,0.3262
3671.00,0.3261
3670.00,0.3261
3669.00,0.3263
3668.00,0.3268
3667.00,0.3271
3666.00,0.3272
3665.00,0.3272
3664.00,0.3274
3663.00,0.3276
3662.00,0.3279
3661.00,0.3281
3660.00,0.3283
3659.00,0.3285
3658.00,0.3287
3657.00,0.3289
3656.00,0.3290
3655.00,0.3292
3654.00,0.3294
3653.00,0.3296
3652.00,0.3297
3651.00,0.3300
3650.00,0.3302
3649.00,0.3304
3648.00,0.3305
3647.00,0.3308
3646.00,0.3311
3645.00,0.3315
3644.00,0.3319
3643.00,0.3323
3642.00,0.3327
3641.00,0.3333
3640.00,0.3340
3639.00,0.3347
3638.00,0.3354
3637.00,0.3361
3636.00,0.3369
3635.00,0.3376
3634.00,0.3384
3633.00,0.3392
3632.00,0.3402
3631.00,0.3416
3630.00,0.3434
3629.00,0.3457
3628.00,0.3482
3627.00,0.3508
3626.00,0.3530
3625.00,0.3544
3624.00,0.3551
3623.00,0.3553
3622.00,0.3550
3621.00,0.3539
3620.00,0.3520
3619.00,0.3495
3618.00,0.3470
3617.00,0.3450
3616.00,0.3434
3615.00,0.3421
3614.00,0.3411
3613.00,0.3405
3612.00,0.3402
3611.00,0.3402
3610.00,0.3401
3609.00,0.3401
3608.00,0.3401
3607.00,0.3402
3606.00,0.3403
3605.00,0.3404
3604.00,0.3404
3603.00,0.3403
3602.00,0.3402
3601.00,0.3401
3600.00,0.3399
3599.00,0.3395
3598.00,0.3391
3597.00,0.3387
3596.00,0.3382
3595.00,0.3378
3594.00,0.3374
3593.00,0.3370
3592.00,0.3368
3591.00,0.3365
3590.00,0.3363
3589.00,0.3360
3588.00,0.3358
3587.00,0.3355
3586.00,0.3353
3585.00,0.3350
3584.00,0.3348
3583.00,0.3345
3582.00,0.3341
3581.00,0.3339
3580.00,0.3336
3579.00,0.3333
3578.00,0.3330
3577.00,0.3327
3576.00,0.3326
3575.00,0.3325
3574.00,0.3324
3573.00,0.3324
3572.00,0.3324
3571.00,0.3325
3570.00,0.3325
3569.00,0.3326
3568.00,0.3327
3567.00,0.3328
3566.00,0.3330
3565.00,0.3333
3564.00,0.3336
3563.00,0.3339
3562.00,0.3342
3561.00,0.3346
3560.00,0.3350
3559.00,0.3353
3558.00,0.3357
3557.00,0.3360
3556.00,0.3362
3555.00,0.3365
3554.00,0.3368
3553.00,0.3372
3552.00,0.3376
3551.00,0.3379
3550.00,0.3383
3549.00,0.3385
3548.00,0.3389
3547.00,0.3392
3546.00,0.3396
3545.00,0.3401
3544.00,0.3405
3543.00,0.3409
3542.00,0.3413
3541.00,0.3418
3540.00,0.3423
3539.00,0.3429
3538.00,0.3434
3537.00,0.3439
3536.00,0.3444
3535.00,0.3449
3534.00,0.3454
3533.00,0.3459
3532.00,0.3464
3531.00,0.3470
3530.00,0.3476
3529.00,0.3482
3528.00,0.3488
3527.00,0.3494
3526.00,0.3500
3525.00,0.3507
3524.00,0.3514
3523.00,0.3520
3522.00,0.3526
3521.00,0.3532
3520.00,0.3538
3519.00,0.3544
3518.00,0.3550
3517.00,0.3557
3516.00,0.3563
3515.00,0.3570
3514.00,0.3575
3513.00,0.3581
3512.00,0.3586
3511.00,0.3592
3510.00,0.3598
3509.00,0.3605
3508.00,0.3612
3507.00,0.3619
3506.00,0.3625
3505.00,0.3633
3504.00,0.3640
3503.00,0.3648
3502.00,0.3656
3501.00,0.3664
3500.00,0.3672
3499.00,0.3680
3498.00,0.3688
3497.00,0.3697
3496.00,0.3706
3495.00,0.3716
3494.00,0.3725
3493.00,0.3734
3492.00,0.3744
3491.00,0.3753
3490.00,0.3762
3489.00,0.3771
3488.00,0.3780
3487.00,0.3789
3486.00,0.3798
3485.00,0.3807
3484.00,0.3815
3483.00,0.3824
3482.00,0.3832
3481.00,0.3841
3480.00,0.3849
3479.00,0.3858
3478.00,0.3866
3477.00,0.3875
3476.00,0.3884
3475.00,0.3893
3474.00,0.3902
3473.00,0.3910
3472.00,0.3919
3471.00,0.3928
3470.00,0.3937
3469.00,0.3946
3468.00,0.3955
3467.00,0.3965
3466.00,0.3975
3465.00,0.3986
3464.00,0.3997
3463.00,0.4008
3462.00,0.4018
3461.00,0.4029
3460.00,0.4041
3459.00,0.4053
3458.00,0.4065
3457.00,0.4078
3456.00,0.4091
3455.00,0.4104
3454.00,0.4117
3453.00,0.4131
3452.00,0.4144
3451.00,0.4158
3450.00,0.4172
3449.00,0.4186
3448.00,0.4200
3447.00,0.4215
3446.00,0.4230
3445.00,0.4246
3444.00,0.4262
3443.00,0.4278
3442.00,0.4294
3441.00,0.4311
3440.00,0.4327
3439.00,0.4343
3438.00,0.4359
3437.00,0.4375
3436.00,0.4390
3435.00,0.4405
3434.00,0.4420
3433.00,0.4434
3432.00,0.4449
3431.00,0.4463
3430.00,0.4477
3429.00,0.4491
3428.00,0.4506
3427.00,0.4520
3426.00,0.4535
3425.00,0.4550
3424.00,0.4565
3423.00,0.4581
3422.00,0.4596
3421.00,0.4611
3420.00,0.4626
3419.00,0.4641
3418.00,0.4656
3417.00,0.4672
3416.00,0.4688
3415.00,0.4703
3414.00,0.4719
3413.00,0.4734
3412.00,0.4750
3411.00,0.4765
3410.00,0.4781
3409.00,0.4797
3408.00,0.4813
3407.00,0.4829
3406.00,0.4844
3405.00,0.4860
3404.00,0.4875
3403.00,0.4890
3402.00,0.4905
3401.00,0.4920
3400.00,0.4934
3399.00,0.4948
3398.00,0.4962
3397.00,0.4975
3396.00,0.4988
3395.00,0.5000
3394.00,0.5012
3393.00,0.5024
3392.00,0.5036
3391.00,0.5047
3390.00,0.5057
3389.00,0.5067
3388.00,0.5078
3387.00,0.5088
3386.00,0.5098
3385.00,0.5108
3384.00,0.5117
3383.00,0.5126
3382.00,0.5135
3381.00,0.5144
3380.00,0.5152
3379.00,0.5160
3378.00,0.5169
3377.00,0.5178
3376.00,0.5187
3375.00,0.5195
3374.00,0.5203
3373.00,0.5211
3372.00,0.5220
3371.00,0.5229
3370.00,0.5238
3369.00,0.5248
3368.00,0.5257
3367.00,0.5266
3366.00,0.5274
3365.00,0.5282
3364.00,0.5290
3363.00,0.5298
3362.00,0.5308
3361.00,0.5318
3360.00,0.5328
3359.00,0.5339
3358.00,0.5349
3357.00,0.5358
3356.00,0.5368
3355.00,0.5379
3354.00,0.5389
3353.00,0.5400
3352.00,0.5411
3351.00,0.5422
3350.00,0.5432
3349.00,0.5442
3348.00,0.5452
3347.00,0.5462
3346.00,0.5470
3345.00,0.5479
3344.00,0.5487
3343.00,0.5495
3342.00,0.5502
3341.00,0.5510
3340.00,0.5517
3339.00,0.5522
3338.00,0.5527
3337.00,0.5531
3336.00,0.5534
3335.00,0.5536
3334.00,0.5538
3333.00,0.5540
3332.00,0.5542
3331.00,0.5543
3330.00,0.5543
3329.00,0.5543
3328.00,0.5542
3327.00,0.5540
3326.00,0.5538
3325.00,0.5535
3324.00,0.5532
3323.00,0.5528
3322.00,0.5524
3321.00,0.5520
3320.00,0.5515
3319.00,0.5510
3318.00,0.5504
3317.00,0.5498
3316.00,0.5493
3315.00,0.5487
3314.00,0.5480
3313.00,0.5474
3312.00,0.5467
3311.00,0.5461
3310.00,0.5456
3309.00,0.5451
3308.00,0.5446
3307.00,0.5440
3306.00,0.5434
3305.00,0.5427
3304.00,0.5421
3303.00,0.5414
3302.00,0.5409
3301.00,0.5405
3300.00,0.5402
3299.00,0.5398
3298.00,0.5394
3297.00,0.5390
3296.00,0.5387
3295.00,0.5383
3294.00,0.5380
3293.00,0.5377
3292.00,0.5375
3291.00,0.5373
3290.00,0.5371
3289.00,0.5370
3288.00,0.5369
3287.00,0.5369
3286.00,0.5369
3285.00,0.5368
3284.00,0.5368
3283.00,0.5368
3282.00,0.5370
3281.00,0.5371
3280.00,0.5373
3279.00,0.5375
3278.00,0.5378
3277.00,0.5380
3276.00,0.5382
3275.00,0.5383
3274.00,0.5385
3273.00,0.5387
3272.00,0.5389
3271.00,0.5391
3270.00,0.5393
3269.00,0.5395
3268.00,0.5397
3267.00,0.5400
3266.00,0.5402
3265.00,0.5405
3264.00,0.5407
3263.00,0.5408
3262.00,0.5408
3261.00,0.5409
3260.00,0.5410
3259.00,0.5411
3258.00,0.5413
3257.00,0.5414
3256.00,0.5416
3255.00,0.5416
3254.00,0.5417
3253.00,0.5416
3252.00,0.5415
3251.00,0.5414
3250.00,0.5412
3249.00,0.5410
3248.00,0.5408
3247.00,0.5406
3246.00,0.5403
3245.00,0.5401
3244.00,0.5398
3243.00,0.5394
3242.00,0.5390
3241.00,0.5385
3240.00,0.5380
3239.00,0.5374
3238.00,0.5368
3237.00,0.5362
3236.00,0.5356
3235.00,0.5350
3234.00,0.5344
3233.00,0.5337
3232.00,0.5330
3231.00,0.5322
3230.00,0.5315
3229.00,0.5306
3228.00,0.5299
3227.00,0.5291
3226.00,0.5284
3225.00,0.5276
3224.00,0.5268
3223.00,0.5259
3222.00,0.5250
3221.00,0.5240
3220.00,0.5231
3219.00,0.5223
3218.00,0.5214
3217.00,0.5206
3216.00,0.5197
3215.00,0.5188
3214.00,0.5179
3213.00,0.5171
3212.00,0.5163
3211.00,0.5155
3210.00,0.5147
3209.00,0.5139
3208.00,0.5131
3207.00,0.5123
3206.00,0.5115
3205.00,0.5106
3204.00,0.5098
3203.00,0.5090
3202.00,0.5082
3201.00,0.5074
3200.00,0.5066
3199.00,0.5058
3198.00,0.5050
3197.00,0.5042
3196.00,0.5034
3195.00,0.5025
3194.00,0.5016
3193.00,0.5006
3192.00,0.4996
3191.00,0.4987
3190.00,0.4978
3189.00,0.4969
3188.00,0.4960
3187.00,0.4950
3186.00,0.4940
3185.00,0.4930
3184.00,0.4921
3183.00,0.4911
3182.00,0.4901
3181.00,0.4891
3180.00,0.4881
3179.00,0.4871
3178.00,0.4861
3177.00,0.4850
3176.00,0.4840
3175.00,0.4829
3174.00,0.4819
3173.00,0.4808
3172.00,0.4798
3171.00,0.4787
3170.00,0.4776
3169.00,0.4765
3168.00,0.4754
3167.00,0.4743
3166.00,0.4732
3165.00,0.4722
3164.00,0.4711
3163.00,0.4700
3162.00,0.4689
3161.00,0.4678
3160.00,0.4667
3159.00,0.4656
3158.00,0.4645
3157.00,0.4634
3156.00,0.4623
3155.00,0.4612
3154.00,0.4601
3153.00,0.4591
3152.00,0.4581
3151.00,0.4572
3150.00,0.4563
3149.00,0.4554
3148.00,0.4545
3147.00,0.4537
3146.00,0.4528
3145.00,0.4520
3144.00,0.4512
3143.00,0.4505
3142.00,0.4497
3141.00,0.4489
3140.00,0.4482
3139.00,0.4475
3138.00,0.4468
3137.00,0.4462
3136.00,0.4456
3135.00,0.4450
3134.00,0.4444
3133.00,0.4438
3132.00,0.4433
3131.00,0.4427
3130.00,0.4423
3129.00,0.4419
3128.00,0.4414
3127.00,0.4410
3126.00,0.4406
3125.00,0.4402
3124.00,0.4399
3123.00,0.4395
3122.00,0.4393
3121.00,0.4391
3120.00,0.4389
3119.00,0.4388
3118.00,0.4387
3117.00,0.4386
3116.00,0.4387
3115.00,0.4387
3114.00,0.4389
3113.00,0.4391
3112.00,0.4394
3111.00,0.4399
3110.00,0.4404
3109.00,0.4409
3108.00,0.4414
3107.00,0.4420
3106.00,0.4426
3105.00,0.4432
3104.00,0.4438
3103.00,0.4444
3102.00,0.4450
3101.00,0.4456
3100.00,0.4461
3099.00,0.4467
3098.00,0.4474
3097.00,0.4481
3096.00,0.4490
3095.00,0.4499
3094.00,0.4509
3093.00,0.4520
3092.00,0.4533
3091.00,0.4547
3090.00,0.4562
3089.00,0.4580
3088.00,0.4599
3087.00,0.4619
3086.00,0.4640
3085.00,0.4662
3084.00,0.4685
3083.00,0.4708
3082.00,0.4732
3081.00,0.4756
3080.00,0.4780
3079.00,0.4804
3078.00,0.4828
3077.00,0.4853
3076.00,0.4879
3075.00,0.4906
3074.00,0.4933
3073.00,0.4960
3072.00,0.4989
3071.00,0.5018
3070.00,0.5047
3069.00,0.5078
3068.00,0.5109
3067.00,0.5141
3066.00,0.5173
3065.00,0.5206
3064.00,0.5238
3063.00,0.5270
3062.00,0.5300
3061.00,0.5329
3060.00,0.5356
3059.00,0.5382
3058.00,0.5407
3057.00,0.5431
3056.00,0.5455
3055.00,0.5481
3054.00,0.5508
3053.00,0.5536
3052.00,0.5564
3051.00,0.5594
3050.00,0.5624
3049.00,0.5656
3048.00,0.5688
3047.00,0.5722
3046.00,0.5758
3045.00,0.5795
3044.00,0.5832
3043.00,0.5871
3042.00,0.5909
3041.00,0.5949
3040.00,0.5990
3039.00,0.6032
3038.00,0.6076
3037.00,0.6124
3036.00,0.6176
3035.00,0.6230
3034.00,0.6288
3033.00,0.6349
3032.00,0.6415
3031.00,0.6485
3030.00,0.6558
3029.00,0.6634
3028.00,0.6710
3027.00,0.6787
3026.00,0.6864
3025.00,0.6942
3024.00,0.7021
3023.00,0.7100
3022.00,0.7181
3021.00,0.7265
3020.00,0.7352
3019.00,0.7442
3018.00,0.7537
3017.00,0.7634
3016.00,0.7735
3015.00,0.7838
3014.00,0.7946
3013.00,0.8058
3012.00,0.8177
3011.00,0.8301
3010.00,0.8434
3009.00,0.8574
3008.00,0.8722
3007.00,0.8879
3006.00,0.9046
3005.00,0.9220
3004.00,0.9404
3003.00,0.9596
3002.00,0.9798
3001.00,1.0009
3000.00,1.0232
2999.00,1.0468
2998.00,1.0721
2997.00,1.0992
2996.00,1.1284
2995.00,1.1601
2994.00,1.1947
2993.00,1.2326
2992.00,1.2742
2991.00,1.3200
2990.00,1.3705
2989.00,1.4265
2988.00,1.4884
2987.00,1.5568
2986.00,1.6324
2985.00,1.7158
2984.00,1.8081
2983.00,1.9108
2982.00,2.0253
2981.00,2.1517
2980.00,2.2888
2979.00,2.4355
2978.00,2.5928
2977.00,2.7609
2976.00,2.9360
2975.00,3.1114
2974.00,3.2820
2973.00,3.4401
2972.00,3.5662
2971.00,3.6451
2970.00,3.6761
2969.00,3.6759
2968.00,3.6781
2967.00,3.7071
2966.00,3.7514
2965.00,3.7983
2964.00,3.8678
2963.00,3.9757
2962.00,4.0965
2961.00,4.1869
2960.00,4.2129
2959.00,4.1924
2958.00,4.2552
2957.00,4.4935
2956.00,4.3612
2955.00,4.2103
2954.00,4.1226
2953.00,4.2412
2952.00,4.3440
2951.00,4.4272
2950.00,4.5447
2949.00,4.3821
2948.00,4.2124
2947.00,4.2081
2946.00,4.4268
2945.00,4.7550
2944.00,4.6856
2943.00,4.2604
2942.00,3.9683
2941.00,3.8033
2940.00,3.7202
2939.00,3.6958
2938.00,3.7210
2937.00,3.8177
2936.00,3.9838
2935.00,4.2043
2934.00,4.6018
2933.00,4.3960
2932.00,4.1879
2931.00,4.0658
2930.00,4.2826
2929.00,4.7731
2928.00,4.8444
2927.00,5.0829
2926.00,4.6897
2925.00,4.6176
2924.00,4.3060
2923.00,4.1806
2922.00,4.1452
2921.00,4.1011
2920.00,3.9835
2919.00,3.8750
2918.00,3.8722
2917.00,4.0090
2916.00,4.2943
2915.00,4.6717
2914.00,4.5857
2913.00,4.3523
2912.00,4.2998
2911.00,4.5275
2910.00,4.6538
2909.00,4.4718
2908.00,4.2087
2907.00,4.0846
2906.00,4.0317
2905.00,4.0252
2904.00,4.0254
2903.00,4.0357
2902.00,4.0798
2901.00,4.1336
2900.00,4.0905
2899.00,4.0102
2898.00,3.9464
2897.00,3.9073
2896.00,3.8819
2895.00,3.8415
2894.00,3.7961
2893.00,3.7727
2892.00,3.8003
2891.00,3.8482
2890.00,3.8693
2889.00,3.8717
2888.00,3.8750
2887.00,3.9108
2886.00,4.0240
2885.00,4.2217
2884.00,4.4322
2883.00,4.6859
2882.00,4.7895
2881.00,4.6297
2880.00,4.3318
2879.00,4.1700
2878.00,4.1485
2877.00,4.1340
2876.00,4.1265
2875.00,4.3692
2874.00,4.3548
2873.00,4.2187
2872.00,4.0810
2871.00,4.2471
2870.00,4.5453
2869.00,4.5513
2868.00,4.4884
2867.00,4.3631
2866.00,4.3156
2865.00,4.5227
2864.00,4.9046
2863.00,4.5024
2862.00,4.2395
2861.00,4.1123
2860.00,4.0872
2859.00,4.0428
2858.00,4.0500
2857.00,4.1402
2856.00,4.3702
2855.00,4.7603
2854.00,4.7917
2853.00,4.5214
2852.00,4.0935
2851.00,3.9243
2850.00,3.8852
2849.00,4.0604
2848.00,4.3810
2847.00,4.4730
2846.00,4.4305
2845.00,4.4043
2844.00,4.3956
2843.00,4.2093
2842.00,4.0032
2841.00,3.8629
2840.00,3.7033
2839.00,3.5128
2838.00,3.3051
2837.00,3.0934
2836.00,2.8892
2835.00,2.6973
2834.00,2.5198
2833.00,2.3579
2832.00,2.2130
2831.00,2.0848
2830.00,1.9704
2829.00,1.8674
2828.00,1.7749
2827.00,1.6925
2826.00,1.6193
2825.00,1.5537
2824.00,1.4944
2823.00,1.4406
2822.00,1.3917
2821.00,1.3468
2820.00,1.3054
2819.00,1.2670
2818.00,1.2312
2817.00,1.1977
2816.00,1.1662
2815.00,1.1365
2814.00,1.1086
2813.00,1.0820
2812.00,1.0565
2811.00,1.0323
2810.00,1.0093
2809.00,0.9875
2808.00,0.9667
2807.00,0.9469
2806.00,0.9279
2805.00,0.9096
2804.00,0.8920
2803.00,0.8754
2802.00,0.8596
2801.00,0.8447
2800.00,0.8304
2799.00,0.8167
2798.00,0.8036
2797.00,0.7910
2796.00,0.7789
2795.00,0.7672
2794.00,0.7558
2793.00,0.7447
2792.00,0.7339
2791.00,0.7234
2790.00,0.7133
2789.00,0.7033
2788.00,0.6935
2787.00,0.6839
2786.00,0.6747
2785.00,0.6657
2784.00,0.6570
2783.00,0.6485
2782.00,0.6402
2781.00,0.6323
2780.00,0.6247
2779.00,0.6175
2778.00,0.6106
2777.00,0.6041
2776.00,0.5979
2775.00,0.5920
2774.00,0.5864
2773.00,0.5811
2772.00,0.5762
2771.00,0.5717
2770.00,0.5675
2769.00,0.5637
2768.00,0.5603
2767.00,0.5573
2766.00,0.5546
2765.00,0.5523
2764.00,0.5502
2763.00,0.5484
2762.00,0.5468
2761.00,0.5455
2760.00,0.5443
2759.00,0.5432
2758.00,0.5421
2757.00,0.5410
2756.00,0.5399
2755.00,0.5390
2754.00,0.5381
2753.00,0.5375
2752.00,0.5370
2751.00,0.5368
2750.00,0.5367
2749.00,0.5369
2748.00,0.5373
2747.00,0.5379
2746.00,0.5386
2745.00,0.5395
2744.00,0.5406
2743.00,0.5419
2742.00,0.5437
2741.00,0.5458
2740.00,0.5484
2739.00,0.5513
2738.00,0.5546
2737.00,0.5583
2736.00,0.5624
2735.00,0.5668
2734.00,0.5716
2733.00,0.5763
2732.00,0.5807
2731.00,0.5845
2730.00,0.5874
2729.00,0.5892
2728.00,0.5901
2727.00,0.5901
2726.00,0.5894
2725.00,0.5882
2724.00,0.5865
2723.00,0.5843
2722.00,0.5819
2721.00,0.5790
2720.00,0.5759
2719.00,0.5725
2718.00,0.5688
2717.00,0.5648
2716.00,0.5606
2715.00,0.5561
2714.00,0.5517
2713.00,0.5473
2712.00,0.5431
2711.00,0.5393
2710.00,0.5359
2709.00,0.5330
2708.00,0.5305
2707.00,0.5284
2706.00,0.5267
2705.00,0.5253
2704.00,0.5242
2703.00,0.5235
2702.00,0.5229
2701.00,0.5226
2700.00,0.5226
2699.00,0.5227
2698.00,0.5230
2697.00,0.5235
2696.00,0.5242
2695.00,0.5250
2694.00,0.5260
2693.00,0.5270
2692.00,0.5282
2691.00,0.5294
2690.00,0.5306
2689.00,0.5317
2688.00,0.5326
2687.00,0.5333
2686.00,0.5339
2685.00,0.5343
2684.00,0.5345
2683.00,0.5347
2682.00,0.5348
2681.00,0.5349
2680.00,0.5350
2679.00,0.5350
2678.00,0.5350
2677.00,0.5350
2676.00,0.5350
2675.00,0.5349
2674.00,0.5348
2673.00,0.5347
2672.00,0.5344
2671.00,0.5339
2670.00,0.5331
2669.00,0.5321
2668.00,0.5308
2667.00,0.5294
2666.00,0.5278
2665.00,0.5261
2664.00,0.5243
2663.00,0.5224
2662.00,0.5204
2661.00,0.5184
2660.00,0.5164
2659.00,0.5145
2658.00,0.5126
2657.00,0.5108
2656.00,0.5090
2655.00,0.5073
2654.00,0.5056
2653.00,0.5040
2652.00,0.5024
2651.00,0.5008
2650.00,0.4993
2649.00,0.4978
2648.00,0.4964
2647.00,0.4951
2646.00,0.4938
2645.00,0.4926
2644.00,0.4915
2643.00,0.4903
2642.00,0.4892
2641.00,0.4882
2640.00,0.4872
2639.00,0.4863
2638.00,0.4854
2637.00,0.4846
2636.00,0.4839
2635.00,0.4831
2634.00,0.4823
2633.00,0.4815
2632.00,0.4807
2631.00,0.4799
2630.00,0.4791
2629.00,0.4784
2628.00,0.4775
2627.00,0.4767
2626.00,0.4758
2625.00,0.4749
2624.00,0.4740
2623.00,0.4731
2622.00,0.4721
2621.00,0.4712
2620.00,0.4703
2619.00,0.4693
2618.00,0.4684
2617.00,0.4675
2616.00,0.4665
2615.00,0.4655
2614.00,0.4645
2613.00,0.4635
2612.00,0.4624
2611.00,0.4613
2610.00,0.4602
2609.00,0.4591
2608.00,0.4580
2607.00,0.4570
2606.00,0.4560
2605.00,0.4550
2604.00,0.4540
2603.00,0.4529
2602.00,0.4519
2601.00,0.4509
2600.00,0.4498
2599.00,0.4486
2598.00,0.4474
2597.00,0.4460
2596.00,0.4445
2595.00,0.4430
2594.00,0.4415
2593.00,0.4399
2592.00,0.4384
2591.00,0.4368
2590.00,0.4351
2589.00,0.4336
2588.00,0.4320
2587.00,0.4303
2586.00,0.4286
2585.00,0.4269
2584.00,0.4252
2583.00,0.4234
2582.00,0.4215
2581.00,0.4196
2580.00,0.4177
2579.00,0.4158
2578.00,0.4140
2577.00,0.4121
2576.00,0.4104
2575.00,0.4087
2574.00,0.4071
2573.00,0.4054
2572.00,0.4038
2571.00,0.4022
2570.00,0.4007
2569.00,0.3992
2568.00,0.3978
2567.00,0.3963
2566.00,0.3950
2565.00,0.3936
2564.00,0.3923
2563.00,0.3910
2562.00,0.3898
2561.00,0.3886
2560.00,0.3874
2559.00,0.3862
2558.00,0.3851
2557.00,0.3840
2556.00,0.3829
2555.00,0.3818
2554.00,0.3807
2553.00,0.3796
2552.00,0.3786
2551.00,0.3775
2550.00,0.3765
2549.00,0.3756
2548.00,0.3747
2547.00,0.3737
2546.00,0.3728
2545.00,0.3719
2544.00,0.3709
2543.00,0.3701
2542.00,0.3693
2541.00,0.3685
2540.00,0.3677
2539.00,0.3670
2538.00,0.3664
2537.00,0.3658
2536.00,0.3652
2535.00,0.3646
2534.00,0.3640
2533.00,0.3634
2532.00,0.3628
2531.00,0.3620
2530.00,0.3613
2529.00,0.3605
2528.00,0.3597
2527.00,0.3588
2526.00,0.3579
2525.00,0.3569
2524.00,0.3560
2523.00,0.3551
2522.00,0.3542
2521.00,0.3532
2520.00,0.3523
2519.00,0.3513
2518.00,0.3504
2517.00,0.3494
2516.00,0.3486
2515.00,0.3477
2514.00,0.3469
2513.00,0.3461
2512.00,0.3453
2511.00,0.3445
2510.00,0.3437
2509.00,0.3430
2508.00,0.3424
2507.00,0.3417
2506.00,0.3412
2505.00,0.3406
2504.00,0.3401
2503.00,0.3395
2502.00,0.3391
2501.00,0.3387
2500.00,0.3383
2499.00,0.3380
2498.00,0.3377
2497.00,0.3375
2496.00,0.3372
2495.00,0.3369
2494.00,0.3366
2493.00,0.3363
2492.00,0.3360
2491.00,0.3356
2490.00,0.3353
2489.00,0.3350
2488.00,0.3347
2487.00,0.3343
2486.00,0.3340
2485.00,0.3336
2484.00,0.3332
2483.00,0.3329
2482.00,0.3325
2481.00,0.3321
2480.00,0.3318
2479.00,0.3314
2478.00,0.3310
2477.00,0.3307
2476.00,0.3303
2475.00,0.3299
2474.00,0.3295
2473.00,0.3291
2472.00,0.3288
2471.00,0.3284
2470.00,0.3281
2469.00,0.3278
2468.00,0.3276
2467.00,0.3273
2466.00,0.3271
2465.00,0.3268
2464.00,0.3265
2463.00,0.3263
2462.00,0.3261
2461.00,0.3259
2460.00,0.3257
2459.00,0.3255
2458.00,0.3254
2457.00,0.3254
2456.00,0.3253
2455.00,0.3253
2454.00,0.3253
2453.00,0.3253
2452.00,0.3253
2451.00,0.3253
2450.00,0.3254
2449.00,0.3254
2448.00,0.3254
2447.00,0.3253
2446.00,0.3253
2445.00,0.3254
2444.00,0.3255
2443.00,0.3255
2442.00,0.3256
2441.00,0.3256
2440.00,0.3257
2439.00,0.3258
2438.00,0.3258
2437.00,0.3259
2436.00,0.3260
2435.00,0.3260
2434.00,0.3261
2433.00,0.3262
2432.00,0.3264
2431.00,0.3264
2430.00,0.3265
2429.00,0.3266
2428.00,0.3267
2427.00,0.3268
2426.00,0.3270
2425.00,0.3271
2424.00,0.3273
2423.00,0.3274
2422.00,0.3275
2421.00,0.3277
2420.00,0.3278
2419.00,0.3280
2418.00,0.3281
2417.00,0.3282
2416.00,0.3283
2415.00,0.3284
2414.00,0.3285
2413.00,0.3286
2412.00,0.3288
2411.00,0.3288
2410.00,0.3289
2409.00,0.3289
2408.00,0.3290
2407.00,0.3290
2406.00,0.3290
2405.00,0.3291
2404.00,0.3291
2403.00,0.3291
2402.00,0.3290
2401.00,0.3290
2400.00,0.3289
2399.00,0.3288
2398.00,0.3288
2397.00,0.3287
2396.00,0.3286
2395.00,0.3285
2394.00,0.3284
2393.00,0.3283
2392.00,0.3282
2391.00,0.3282
2390.00,0.3281
2389.00,0.3281
2388.00,0.3281
2387.00,0.3281
2386.00,0.3281
2385.00,0.3281
2384.00,0.3282
2383.00,0.3282
2382.00,0.3282
2381.00,0.3282
2380.00,0.3282
2379.00,0.3282
2378.00,0.3282
2377.00,0.3281
2376.00,0.3281
2375.00,0.3281
2374.00,0.3280
2373.00,0.3280
2372.00,0.3280
2371.00,0.3279
2370.00,0.3278
2369.00,0.3278
2368.00,0.3278
2367.00,0.3277
2366.00,0.3276
2365.00,0.3276
2364.00,0.3276
2363.00,0.3277
2362.00,0.3278
2361.00,0.3278
2360.00,0.3278
2359.00,0.3277
2358.00,0.3275
2357.00,0.3274
2356.00,0.3274
2355.00,0.3274
2354.00,0.3275
2353.00,0.3275
2352.00,0.3274
2351.00,0.3271
2350.00,0.3268
2349.00,0.3267
2348.00,0.3268
2347.00,0.3272
2346.00,0.3276
2345.00,0.3278
2344.00,0.3277
2343.00,0.3275
2342.00,0.3272
2341.00,0.3271
2340.00,0.3269
2339.00,0.3269
2338.00,0.3268
2337.00,0.3268
2336.00,0.3267
2335.00,0.3266
2334.00,0.3265
2333.00,0.3264
2332.00,0.3263
2331.00,0.3261
2330.00,0.3259
2329.00,0.3256
2328.00,0.3253
2327.00,0.3251
2326.00,0.3250
2325.00,0.3249
2324.00,0.3248
2323.00,0.3248
2322.00,0.3247
2321.00,0.3245
2320.00,0.3244
2319.00,0.3242
2318.00,0.3239
2317.00,0.3237
2316.00,0.3235
2315.00,0.3234
2314.00,0.3233
2313.00,0.3232
2312.00,0.3230
2311.00,0.3227
2310.00,0.3224
2309.00,0.3221
2308.00,0.3218
2307.00,0.3214
2306.00,0.3211
2305.00,0.3207
2304.00,0.3205
2303.00,0.3202
2302.00,0.3199
2301.00,0.3197
2300.00,0.3195
2299.00,0.3193
2298.00,0.3190
2297.00,0.3188
2296.00,0.3186
2295.00,0.3183
2294.00,0.3181
2293.00,0.3178
2292.00,0.3175
2291.00,0.3172
2290.00,0.3170
2289.00,0.3167
2288.00,0.3164
2287.00,0.3162
2286.00,0.3160
2285.00,0.3157
2284.00,0.3155
2283.00,0.3152
2282.00,0.3150
2281.00,0.3147
2280.00,0.3144
2279.00,0.3141
2278.00,0.3137
2277.00,0.3133
2276.00,0.3131
2275.00,0.3128
2274.00,0.3125
2273.00,0.3122
2272.00,0.3119
2271.00,0.3116
2270.00,0.3113
2269.00,0.3111
2268.00,0.3109
2267.00,0.3107
2266.00,0.3105
2265.00,0.3102
2264.00,0.3100
2263.00,0.3098
2262.00,0.3096
2261.00,0.3094
2260.00,0.3092
2259.00,0.3090
2258.00,0.3088
2257.00,0.3086
2256.00,0.3084
2255.00,0.3082
2254.00,0.3080
2253.00,0.3078
2252.00,0.3076
2251.00,0.3075
2250.00,0.3073
2249.00,0.3071
2248.00,0.3070
2247.00,0.3068
2246.00,0.3066
2245.00,0.3064
2244.00,0.3063
2243.00,0.3061
2242.00,0.3059
2241.00,0.3056
2240.00,0.3055
2239.00,0.3053
2238.00,0.3051
2237.00,0.3049
2236.00,0.3047
2235.00,0.3045
2234.00,0.3043
2233.00,0.3041
2232.00,0.3039
2231.00,0.3037
2230.00,0.3036
2229.00,0.3034
2228.00,0.3033
2227.00,0.3032
2226.00,0.3030
2225.00,0.3029
2224.00,0.3028
2223.00,0.3027
2222.00,0.3026
2221.00,0.3025
2220.00,0.3025
2219.00,0.3025
2218.00,0.3025
2217.00,0.3025
2216.00,0.3025
2215.00,0.3025
2214.00,0.3026
2213.00,0.3026
2212.00,0.3027
2211.00,0.3027
2210.00,0.3028
2209.00,0.3028
2208.00,0.3029
2207.00,0.3029
2206.00,0.3029
2205.00,0.3029
2204.00,0.3030
2203.00,0.3030
2202.00,0.3029
2201.00,0.3029
2200.00,0.3029
2199.00,0.3028
2198.00,0.3028
2197.00,0.3028
2196.00,0.3028
2195.00,0.3028
2194.00,0.3027
2193.00,0.3027
2192.00,0.3027
2191.00,0.3027
2190.00,0.3027
2189.00,0.3027
2188.00,0.3026
2187.00,0.3026
2186.00,0.3026
2185.00,0.3026
2184.00,0.3026
2183.00,0.3026
2182.00,0.3026
2181.00,0.3026
2180.00,0.3026
2179.00,0.3025
2178.00,0.3025
2177.00,0.3025
2176.00,0.3025
2175.00,0.3025
2174.00,0.3025
2173.00,0.3025
2172.00,0.3026
2171.00,0.3026
2170.00,0.3026
2169.00,0.3025
2168.00,0.3024
2167.00,0.3023
2166.00,0.3022
2165.00,0.3021
2164.00,0.3020
2163.00,0.3018
2162.00,0.3016
2161.00,0.3014
2160.00,0.3012
2159.00,0.3010
2158.00,0.3008
2157.00,0.3006
2156.00,0.3003
2155.00,0.3001
2154.00,0.2999
2153.00,0.2996
2152.00,0.2994
2151.00,0.2992
2150.00,0.2990
2149.00,0.2987
2148.00,0.2984
2147.00,0.2980
2146.00,0.2976
2145.00,0.2972
2144.00,0.2968
2143.00,0.2964
2142.00,0.2960
2141.00,0.2956
2140.00,0.2952
2139.00,0.2948
2138.00,0.2945
2137.00,0.2942
2136.00,0.2939
2135.00,0.2937
2134.00,0.2934
2133.00,0.2932
2132.00,0.2931
2131.00,0.2930
2130.00,0.2928
2129.00,0.2927
2128.00,0.2926
2127.00,0.2925
2126.00,0.2923
2125.00,0.2921
2124.00,0.2919
2123.00,0.2917
2122.00,0.2915
2121.00,0.2913
2120.00,0.2912
2119.00,0.2911
2118.00,0.2909
2117.00,0.2907
2116.00,0.2905
2115.00,0.2903
2114.00,0.2902
2113.00,0.2901
2112.00,0.2900
2111.00,0.2900
2110.00,0.2898
2109.00,0.2897
2108.00,0.2896
2107.00,0.2895
2106.00,0.2895
2105.00,0.2895
2104.00,0.2895
2103.00,0.2894
2102.00,0.2894
2101.00,0.2895
2100.00,0.2895
2099.00,0.2896
2098.00,0.2896
2097.00,0.2895
2096.00,0.2895
2095.00,0.2895
2094.00,0.2895
2093.00,0.2895
2092.00,0.2895
2091.00,0.2895
2090.00,0.2895
2089.00,0.2894
2088.00,0.2894
2087.00,0.2894
2086.00,0.2894
2085.00,0.2893
2084.00,0.2893
2083.00,0.2892
2082.00,0.2892
2081.00,0.2892
2080.00,0.2891
2079.00,0.2891
2078.00,0.2890
2077.00,0.2890
2076.00,0.2890
2075.00,0.2890
2074.00,0.2890
2073.00,0.2890
2072.00,0.2891
2071.00,0.2891
2070.00,0.2892
2069.00,0.2893
2068.00,0.2895
2067.00,0.2896
2066.00,0.2898
2065.00,0.2900
2064.00,0.2901
2063.00,0.2903
2062.00,0.2905
2061.00,0.2907
2060.00,0.2909
2059.00,0.2910
2058.00,0.2912
2057.00,0.2913
2056.00,0.2915
2055.00,0.2917
2054.00,0.2918
2053.00,0.2920
2052.00,0.2923
2051.00,0.2924
2050.00,0.2926
2049.00,0.2928
2048.00,0.2930
2047.00,0.2932
2046.00,0.2934
2045.00,0.2935
2044.00,0.2937
2043.00,0.2939
2042.00,0.2940
2041.00,0.2942
2040.00,0.2943
2039.00,0.2944
2038.00,0.2945
2037.00,0.2946
2036.00,0.2947
2035.00,0.2948
2034.00,0.2948
2033.00,0.2949
2032.00,0.2949
2031.00,0.2950
2030.00,0.2950
2029.00,0.2950
2028.00,0.2951
2027.00,0.2950
2026.00,0.2950
2025.00,0.2949
2024.00,0.2948
2023.00,0.2946
2022.00,0.2942
2021.00,0.2939
2020.00,0.2934
2019.00,0.2928
2018.00,0.2922
2017.00,0.2915
2016.00,0.2909
2015.00,0.2903
2014.00,0.2896
2013.00,0.2889
2012.00,0.2883
2011.00,0.2876
2010.00,0.2870
2009.00,0.2866
2008.00,0.2862
2007.00,0.2858
2006.00,0.2854
2005.00,0.2850
2004.00,0.2847
2003.00,0.2845
2002.00,0.2842
2001.00,0.2840
2000.00,0.2838
1999.00,0.2837
1998.00,0.2836
1997.00,0.2835
1996.00,0.2834
1995.00,0.2833
1994.00,0.2831
1993.00,0.2830
1992.00,0.2829
1991.00,0.2828
1990.00,0.2827
1989.00,0.2827
1988.00,0.2826
1987.00,0.2825
1986.00,0.2824
1985.00,0.2823
1984.00,0.2823
1983.00,0.2822
1982.00,0.2822
1981.00,0.2821
1980.00,0.2820
1979.00,0.2819
1978.00,0.2818
1977.00,0.2817
1976.00,0.2817
1975.00,0.2817
1974.00,0.2817
1973.00,0.2817
1972.00,0.2817
1971.00,0.2817
1970.00,0.2817
1969.00,0.2818
1968.00,0.2818
1967.00,0.2818
1966.00,0.2818
1965.00,0.2820
1964.00,0.2821
1963.00,0.2821
1962.00,0.2822
1961.00,0.2822
1960.00,0.2824
1959.00,0.2825
1958.00,0.2826
1957.00,0.2827
1956.00,0.2829
1955.00,0.2830
1954.00,0.2831
1953.00,0.2832
1952.00,0.2833
1951.00,0.2833
1950.00,0.2834
1949.00,0.2834
1948.00,0.2835
1947.00,0.2835
1946.00,0.2836
1945.00,0.2836
1944.00,0.2837
1943.00,0.2839
1942.00,0.2842
1941.00,0.2845
1940.00,0.2848
1939.00,0.2850
1938.00,0.2851
1937.00,0.2851
1936.00,0.2851
1935.00,0.2850
1934.00,0.2849
1933.00,0.2848
1932.00,0.2849
1931.00,0.2850
1930.00,0.2851
1929.00,0.2852
1928.00,0.2853
1927.00,0.2854
1926.00,0.2855
1925.00,0.2856
1924.00,0.2857
1923.00,0.2859
1922.00,0.2862
1921.00,0.2866
1920.00,0.2870
1919.00,0.2873
1918.00,0.2875
1917.00,0.2878
1916.00,0.2881
1915.00,0.2882
1914.00,0.2883
1913.00,0.2883
1912.00,0.2884
1911.00,0.2884
1910.00,0.2884
1909.00,0.2885
1908.00,0.2885
1907.00,0.2886
1906.00,0.2886
1905.00,0.2885
1904.00,0.2885
1903.00,0.2885
1902.00,0.2885
1901.00,0.2885
1900.00,0.2885
1899.00,0.2886
1898.00,0.2887
1897.00,0.2888
1896.00,0.2889
1895.00,0.2890
1894.00,0.2891
1893.00,0.2893
1892.00,0.2895
1891.00,0.2896
1890.00,0.2897
1889.00,0.2899
1888.00,0.2902
1887.00,0.2903
1886.00,0.2904
1885.00,0.2905
1884.00,0.2906
1883.00,0.2907
1882.00,0.2908
1881.00,0.2909
1880.00,0.2910
1879.00,0.2910
1878.00,0.2909
1877.00,0.2908
1876.00,0.2907
1875.00,0.2905
1874.00,0.2904
1873.00,0.2902
1872.00,0.2901
1871.00,0.2899
1870.00,0.2896
1869.00,0.2893
1868.00,0.2891
1867.00,0.2890
1866.00,0.2889
1865.00,0.2887
1864.00,0.2886
1863.00,0.2884
1862.00,0.2882
1861.00,0.2881
1860.00,0.2879
1859.00,0.2877
1858.00,0.2875
1857.00,0.2873
1856.00,0.2872
1855.00,0.2870
1854.00,0.2869
1853.00,0.2868
1852.00,0.2867
1851.00,0.2867
1850.00,0.2865
1849.00,0.2865
1848.00,0.2865
1847.00,0.2865
1846.00,0.2864
1845.00,0.2863
1844.00,0.2862
1843.00,0.2863
1842.00,0.2863
1841.00,0.2863
1840.00,0.2863
1839.00,0.2862
1838.00,0.2862
1837.00,0.2862
1836.00,0.2861
1835.00,0.2860
1834.00,0.2859
1833.00,0.2858
1832.00,0.2858
1831.00,0.2856
1830.00,0.2854
1829.00,0.2853
1828.00,0.2853
1827.00,0.2851
1826.00,0.2850
1825.00,0.2849
1824.00,0.2849
1823.00,0.2849
1822.00,0.2849
1821.00,0.2848
1820.00,0.2849
1819.00,0.2849
1818.00,0.2850
1817.00,0.2851
1816.00,0.2852
1815.00,0.2853
1814.00,0.2854
1813.00,0.2855
1812.00,0.2856
1811.00,0.2858
1810.00,0.2860
1809.00,0.2862
1808.00,0.2864
1807.00,0.2867
1806.00,0.2869
1805.00,0.2871
1804.00,0.2873
1803.00,0.2875
1802.00,0.2877
1801.00,0.2880
1800.00,0.2883
1799.00,0.2885
1798.00,0.2887
1797.00,0.2888
1796.00,0.2890
1795.00,0.2891
1794.00,0.2892
1793.00,0.2892
1792.00,0.2892
1791.00,0.2893
1790.00,0.2895
1789.00,0.2897
1788.00,0.2898
1787.00,0.2898
1786.00,0.2899
1785.00,0.2901
1784.00,0.2903
1783.00,0.2905
1782.00,0.2906
1781.00,0.2907
1780.00,0.2909
1779.00,0.2911
1778.00,0.2914
1777.00,0.2917
1776.00,0.2921
1775.00,0.2924
1774.00,0.2927
1773.00,0.2928
1772.00,0.2929
1771.00,0.2930
1770.00,0.2932
1769.00,0.2936
1768.00,0.2941
1767.00,0.2946
1766.00,0.2950
1765.00,0.2954
1764.00,0.2958
1763.00,0.2961
1762.00,0.2964
1761.00,0.2969
1760.00,0.2975
1759.00,0.2979
1758.00,0.2984
1757.00,0.2990
1756.00,0.2999
1755.00,0.3008
1754.00,0.3015
1753.00,0.3023
1752.00,0.3030
1751.00,0.3037
1750.00,0.3042
1749.00,0.3047
1748.00,0.3053
1747.00,0.3058
1746.00,0.3063
1745.00,0.3068
1744.00,0.3073
1743.00,0.3077
1742.00,0.3080
1741.00,0.3084
1740.00,0.3086
1739.00,0.3087
1738.00,0.3089
1737.00,0.3091
1736.00,0.3094
1735.00,0.3095
1734.00,0.3091
1733.00,0.3088
1732.00,0.3087
1731.00,0.3085
1730.00,0.3084
1729.00,0.3086
1728.00,0.3090
1727.00,0.3092
1726.00,0.3094
1725.00,0.3097
1724.00,0.3101
1723.00,0.3106
1722.00,0.3112
1721.00,0.3119
1720.00,0.3127
1719.00,0.3135
1718.00,0.3142
1717.00,0.3149
1716.00,0.3157
1715.00,0.3165
1714.00,0.3175
1713.00,0.3186
1712.00,0.3195
1711.00,0.3202
1710.00,0.3209
1709.00,0.3217
1708.00,0.3225
1707.00,0.3232
1706.00,0.3239
1705.00,0.3245
1704.00,0.3250
1703.00,0.3254
1702.00,0.3255
1701.00,0.3249
1700.00,0.3237
1699.00,0.3226
1698.00,0.3218
1697.00,0.3210
1696.00,0.3203
1695.00,0.3201
1694.00,0.3202
1693.00,0.3205
1692.00,0.3207
1691.00,0.3210
1690.00,0.3213
1689.00,0.3217
1688.00,0.3221
1687.00,0.3224
1686.00,0.3227
1685.00,0.3228
1684.00,0.3225
1683.00,0.3226
1682.00,0.3229
1681.00,0.3231
1680.00,0.3235
1679.00,0.3240
1678.00,0.3244
1677.00,0.3249
1676.00,0.3254
1675.00,0.3257
1674.00,0.3260
1673.00,0.3264
1672.00,0.3267
1671.00,0.3271
1670.00,0.3274
1669.00,0.3280
1668.00,0.3287
1667.00,0.3292
1666.00,0.3296
1665.00,0.3302
1664.00,0.3310
1663.00,0.3316
1662.00,0.3322
1661.00,0.3329
1660.00,0.3337
1659.00,0.3344
1658.00,0.3350
1657.00,0.3360
1656.00,0.3372
1655.00,0.3386
1654.00,0.3398
1653.00,0.3410
1652.00,0.3425
1651.00,0.3436
1650.00,0.3439
1649.00,0.3446
1648.00,0.3458
1647.00,0.3465
1646.00,0.3469
1645.00,0.3475
1644.00,0.3480
1643.00,0.3484
1642.00,0.3488
1641.00,0.3496
1640.00,0.3506
1639.00,0.3515
1638.00,0.3526
1637.00,0.3540
1636.00,0.3558
1635.00,0.3575
1634.00,0.3593
1633.00,0.3611
1632.00,0.3629
1631.00,0.3648
1630.00,0.3669
1629.00,0.3694
1628.00,0.3721
1627.00,0.3748
1626.00,0.3773
1625.00,0.3802
1624.00,0.3837
1623.00,0.3876
1622.00,0.3917
1621.00,0.3962
1620.00,0.4009
1619.00,0.4060
1618.00,0.4122
1617.00,0.4203
1616.00,0.4296
1615.00,0.4386
1614.00,0.4471
1613.00,0.4564
1612.00,0.4674
1611.00,0.4795
1610.00,0.4924
1609.00,0.5058
1608.00,0.5190
1607.00,0.5307
1606.00,0.5404
1605.00,0.5492
1604.00,0.5580
1603.00,0.5669
1602.00,0.5760
1601.00,0.5860
1600.00,0.5971
1599.00,0.6082
1598.00,0.6195
1597.00,0.6328
1596.00,0.6499
1595.00,0.6712
1594.00,0.6979
1593.00,0.7323
1592.00,0.7767
1591.00,0.8329
1590.00,0.9031
1589.00,0.9925
1588.00,1.1072
1587.00,1.2515
1586.00,1.4282
1585.00,1.6467
1584.00,1.9276
1583.00,2.2826
1582.00,2.6590
1581.00,2.9958
1580.00,3.5568
1579.00,4.1258
1578.00,2.9776
1577.00,2.4347
1576.00,2.0751
1575.00,1.7949
1574.00,1.5848
1573.00,1.4310
1572.00,1.3099
1571.00,1.2034
1570.00,1.1117
1569.00,1.0491
1568.00,1.0221
1567.00,1.0256
1566.00,1.0567
1565.00,1.1192
1564.00,1.2134
1563.00,1.3264
1562.00,1.4405
1561.00,1.5472
1560.00,1.6146
1559.00,1.5376
1558.00,1.3659
1557.00,1.2241
1556.00,1.1071
1555.00,0.9930
1554.00,0.8883
1553.00,0.8059
1552.00,0.7454
1551.00,0.6970
1550.00,0.6552
1549.00,0.6214
1548.00,0.5966
1547.00,0.5777
1546.00,0.5612
1545.00,0.5466
1544.00,0.5345
1543.00,0.5244
1542.00,0.5152
1541.00,0.5060
1540.00,0.4970
1539.00,0.4891
1538.00,0.4836
1537.00,0.4804
1536.00,0.4785
1535.00,0.4772
1534.00,0.4761
1533.00,0.4763
1532.00,0.4784
1531.00,0.4814
1530.00,0.4850
1529.00,0.4895
1528.00,0.4945
1527.00,0.4988
1526.00,0.5018
1525.00,0.5043
1524.00,0.5071
1523.00,0.5108
1522.00,0.5169
1521.00,0.5260
1520.00,0.5363
1519.00,0.5455
1518.00,0.5538
1517.00,0.5616
1516.00,0.5672
1515.00,0.5685
1514.00,0.5656
1513.00,0.5602
1512.00,0.5535
1511.00,0.5467
1510.00,0.5410
1509.00,0.5374
1508.00,0.5362
1507.00,0.5370
1506.00,0.5403
1505.00,0.5460
1504.00,0.5521
1503.00,0.5577
1502.00,0.5637
1501.00,0.5704
1500.00,0.5775
1499.00,0.5841
1498.00,0.5906
1497.00,0.5982
1496.00,0.6068
1495.00,0.6152
1494.00,0.6230
1493.00,0.6313
1492.00,0.6406
1491.00,0.6510
1490.00,0.6630
1489.00,0.6777
1488.00,0.6945
1487.00,0.7128
1486.00,0.7332
1485.00,0.7571
1484.00,0.7848
1483.00,0.8170
1482.00,0.8561
1481.00,0.9035
1480.00,0.9574
1479.00,1.0165
1478.00,1.0848
1477.00,1.1689
1476.00,1.2711
1475.00,1.3899
1474.00,1.5347
1473.00,1.7307
1472.00,1.9972
1471.00,2.3171
1470.00,2.6559
1469.00,3.0065
1468.00,3.3388
1467.00,3.5057
1466.00,3.6007
1465.00,3.8880
1464.00,3.9834
1463.00,3.6898
1462.00,3.5932
1461.00,3.7318
1460.00,3.8149
1459.00,3.5655
1458.00,3.4459
1457.00,3.6343
1456.00,3.8679
1455.00,3.6795
1454.00,3.6170
1453.00,3.7865
1452.00,3.8662
1451.00,3.5988
1450.00,3.4257
1449.00,3.3623
1448.00,3.2182
1447.00,3.0168
1446.00,2.8759
1445.00,2.7729
1444.00,2.6399
1443.00,2.4793
1442.00,2.3324
1441.00,2.2084
1440.00,2.0940
1439.00,1.9790
1438.00,1.8576
1437.00,1.7284
1436.00,1.6038
1435.00,1.4984
1434.00,1.4102
1433.00,1.3289
1432.00,1.2489
1431.00,1.1723
1430.00,1.1039
1429.00,1.0467
1428.00,1.0017
1427.00,0.9677
1426.00,0.9411
1425.00,0.9184
1424.00,0.8992
1423.00,0.8843
1422.00,0.8734
1421.00,0.8641
1420.00,0.8548
1419.00,0.8460
1418.00,0.8387
1417.00,0.8330
1416.00,0.8289
1415.00,0.8263
1414.00,0.8254
1413.00,0.8256
1412.00,0.8268
1411.00,0.8287
1410.00,0.8299
1409.00,0.8285
1408.00,0.8234
1407.00,0.8136
1406.00,0.7983
1405.00,0.7779
1404.00,0.7552
1403.00,0.7336
1402.00,0.7146
1401.00,0.6974
1400.00,0.6819
1399.00,0.6692
1398.00,0.6604
1397.00,0.6551
1396.00,0.6535
1395.00,0.6560
1394.00,0.6624
1393.00,0.6723
1392.00,0.6867
1391.00,0.7074
1390.00,0.7369
1389.00,0.7784
1388.00,0.8368
1387.00,0.9142
1386.00,1.0058
1385.00,1.1050
1384.00,1.2116
1383.00,1.3309
1382.00,1.4666
1381.00,1.6208
1380.00,1.7957
1379.00,1.9811
1378.00,2.1295
1377.00,2.1746
1376.00,2.1051
1375.00,1.9592
1374.00,1.7858
1373.00,1.6286
1372.00,1.5055
1371.00,1.4141
1370.00,1.3477
1369.00,1.3025
1368.00,1.2738
1367.00,1.2519
1366.00,1.2239
1365.00,1.1810
1364.00,1.1230
1363.00,1.0577
1362.00,0.9964
1361.00,0.9462
1360.00,0.9084
1359.00,0.8803
1358.00,0.8597
1357.00,0.8450
1356.00,0.8354
1355.00,0.8302
1354.00,0.8279
1353.00,0.8271
1352.00,0.8267
1351.00,0.8256
1350.00,0.8235
1349.00,0.8204
1348.00,0.8170
1347.00,0.8138
1346.00,0.8110
1345.00,0.8085
1344.00,0.8063
1343.00,0.8038
1342.00,0.8004
1341.00,0.7950
1340.00,0.7871
1339.00,0.7763
1338.00,0.7629
1337.00,0.7475
1336.00,0.7309
1335.00,0.7143
1334.00,0.6985
1333.00,0.6842
1332.00,0.6721
1331.00,0.6624
1330.00,0.6552
1329.00,0.6501
1328.00,0.6469
1327.00,0.6453
1326.00,0.6450
1325.00,0.6456
1324.00,0.6468
1323.00,0.6482
1322.00,0.6497
1321.00,0.6511
1320.00,0.6526
1319.00,0.6545
1318.00,0.6571
1317.00,0.6602
1316.00,0.6639
1315.00,0.6682
1314.00,0.6730
1313.00,0.6781
1312.00,0.6833
1311.00,0.6883
1310.00,0.6925
1309.00,0.6958
1308.00,0.6981
1307.00,0.6995
1306.00,0.6997
1305.00,0.6983
1304.00,0.6953
1303.00,0.6908
1302.00,0.6852
1301.00,0.6790
1300.00,0.6725
1299.00,0.6658
1298.00,0.6588
1297.00,0.6515
1296.00,0.6443
1295.00,0.6377
1294.00,0.6319
1293.00,0.6269
1292.00,0.6223
1291.00,0.6180
1290.00,0.6140
1289.00,0.6102
1288.00,0.6065
1287.00,0.6029
1286.00,0.5991
1285.00,0.5947
1284.00,0.5901
1283.00,0.5856
1282.00,0.5817
1281.00,0.5785
1280.00,0.5759
1279.00,0.5738
1278.00,0.5717
1277.00,0.5694
1276.00,0.5667
1275.00,0.5640
1274.00,0.5615
1273.00,0.5594
1272.00,0.5581
1271.00,0.5575
1270.00,0.5573
1269.00,0.5568
1268.00,0.5551
1267.00,0.5517
1266.00,0.5468
1265.00,0.5412
1264.00,0.5360
1263.00,0.5319
1262.00,0.5291
1261.00,0.5272
1260.00,0.5257
1259.00,0.5244
1258.00,0.5230
1257.00,0.5211
1256.00,0.5188
1255.00,0.5165
1254.00,0.5146
1253.00,0.5131
1252.00,0.5120
1251.00,0.5111
1250.00,0.5102
1249.00,0.5091
1248.00,0.5078
1247.00,0.5065
1246.00,0.5050
1245.00,0.5032
1244.00,0.5012
1243.00,0.4990
1242.00,0.4966
1241.00,0.4938
1240.00,0.4910
1239.00,0.4885
1238.00,0.4863
1237.00,0.4846
1236.00,0.4835
1235.00,0.4833
1234.00,0.4839
1233.00,0.4852
1232.00,0.4871
1231.00,0.4895
1230.00,0.4918
1229.00,0.4932
1228.00,0.4931
1227.00,0.4912
1226.00,0.4881
1225.00,0.4843
1224.00,0.4803
1223.00,0.4767
1222.00,0.4738
1221.00,0.4715
1220.00,0.4699
1219.00,0.4691
1218.00,0.4691
1217.00,0.4697
1216.00,0.4709
1215.00,0.4724
1214.00,0.4738
1213.00,0.4743
1212.00,0.4738
1211.00,0.4723
1210.00,0.4704
1209.00,0.4684
1208.00,0.4664
1207.00,0.4646
1206.00,0.4631
1205.00,0.4616
1204.00,0.4604
1203.00,0.4597
1202.00,0.4596
1201.00,0.4600
1200.00,0.4606
1199.00,0.4614
1198.00,0.4622
1197.00,0.4626
1196.00,0.4628
1195.00,0.4631
1194.00,0.4636
1193.00,0.4641
1192.00,0.4644
1191.00,0.4642
1190.00,0.4633
1189.00,0.4617
1188.00,0.4595
1187.00,0.4572
1186.00,0.4552
1185.00,0.4534
1184.00,0.4520
1183.00,0.4512
1182.00,0.4509
1181.00,0.4509
1180.00,0.4512
1179.00,0.4518
1178.00,0.4529
1177.00,0.4542
1176.00,0.4561
1175.00,0.4587
1174.00,0.4620
1173.00,0.4660
1172.00,0.4703
1171.00,0.4745
1170.00,0.4777
1169.00,0.4795
1168.00,0.4797
1167.00,0.4791
1166.00,0.4781
1165.00,0.4772
1164.00,0.4769
1163.00,0.4773
1162.00,0.4786
1161.00,0.4805
1160.00,0.4827
1159.00,0.4851
1158.00,0.4875
1157.00,0.4897
1156.00,0.4914
1155.00,0.4926
1154.00,0.4932
1153.00,0.4930
1152.00,0.4922
1151.00,0.4911
1150.00,0.4899
1149.00,0.4886
1148.00,0.4875
1147.00,0.4869
1146.00,0.4867
1145.00,0.4871
1144.00,0.4881
1143.00,0.4901
1142.00,0.4932
1141.00,0.4975
1140.00,0.5029
1139.00,0.5097
1138.00,0.5177
1137.00,0.5267
1136.00,0.5361
1135.00,0.5449
1134.00,0.5511
1133.00,0.5529
1132.00,0.5496
1131.00,0.5418
1130.00,0.5314
1129.00,0.5206
1128.00,0.5112
1127.00,0.5042
1126.00,0.4997
1125.00,0.4973
1124.00,0.4967
1123.00,0.4970
1122.00,0.4979
1121.00,0.4991
1120.00,0.5008
1119.00,0.5039
1118.00,0.5090
1117.00,0.5162
1116.00,0.5247
1115.00,0.5324
1114.00,0.5367
1113.00,0.5351
1112.00,0.5273
1111.00,0.5152
1110.00,0.5017
1109.00,0.4892
1108.00,0.4790
1107.00,0.4716
1106.00,0.4666
1105.00,0.4634
1104.00,0.4615
1103.00,0.4604
1102.00,0.4595
1101.00,0.4585
1100.00,0.4571
1099.00,0.4553
1098.00,0.4533
1097.00,0.4511
1096.00,0.4492
1095.00,0.4481
1094.00,0.4480
1093.00,0.4487
1092.00,0.4503
1091.00,0.4526
1090.00,0.4558
1089.00,0.4597
1088.00,0.4646
1087.00,0.4707
1086.00,0.4779
1085.00,0.4862
1084.00,0.4955
1083.00,0.5057
1082.00,0.5164
1081.00,0.5270
1080.00,0.5369
1079.00,0.5450
1078.00,0.5504
1077.00,0.5524
1076.00,0.5510
1075.00,0.5467
1074.00,0.5405
1073.00,0.5333
1072.00,0.5262
1071.00,0.5200
1070.00,0.5149
1069.00,0.5110
1068.00,0.5082
1067.00,0.5063
1066.00,0.5051
1065.00,0.5045
1064.00,0.5045
1063.00,0.5049
1062.00,0.5058
1061.00,0.5067
1060.00,0.5077
1059.00,0.5087
1058.00,0.5094
1057.00,0.5099
1056.00,0.5100
1055.00,0.5097
1054.00,0.5094
1053.00,0.5092
1052.00,0.5096
1051.00,0.5112
1050.00,0.5137
1049.00,0.5171
1048.00,0.5209
1047.00,0.5248
1046.00,0.5282
1045.00,0.5311
1044.00,0.5334
1043.00,0.5355
1042.00,0.5375
1041.00,0.5396
1040.00,0.5419
1039.00,0.5443
1038.00,0.5467
1037.00,0.5491
1036.00,0.5518
1035.00,0.5551
1034.00,0.5591
1033.00,0.5639
1032.00,0.5696
1031.00,0.5759
1030.00,0.5823
1029.00,0.5878
1028.00,0.5912
1027.00,0.5920
1026.00,0.5900
1025.00,0.5857
1024.00,0.5804
1023.00,0.5750
1022.00,0.5704
1021.00,0.5667
1020.00,0.5643
1019.00,0.5633
1018.00,0.5635
1017.00,0.5648
1016.00,0.5668
1015.00,0.5694
1014.00,0.5725
1013.00,0.5762
1012.00,0.5802
1011.00,0.5847
1010.00,0.5894
1009.00,0.5943
1008.00,0.5996
1007.00,0.6051
1006.00,0.6108
1005.00,0.6162
1004.00,0.6214
1003.00,0.6262
1002.00,0.6303
1001.00,0.6333
1000.00,0.6350
999.00,0.6349
998.00,0.6328
997.00,0.6286
996.00,0.6227
995.00,0.6154
994.00,0.6070
993.00,0.5978
992.00,0.5877
991.00,0.5771
990.00,0.5663
989.00,0.5558
988.00,0.5461
987.00,0.5373
986.00,0.5296
985.00,0.5229
984.00,0.5174
983.00,0.5131
982.00,0.5095
981.00,0.5065
980.00,0.5036
979.00,0.5008
978.00,0.4980
977.00,0.4953
976.00,0.4927
975.00,0.4902
974.00,0.4878
973.00,0.4855
972.00,0.4836
971.00,0.4821
970.00,0.4812
969.00,0.4808
968.00,0.4810
967.00,0.4815
966.00,0.4819
965.00,0.4816
964.00,0.4802
963.00,0.4777
962.00,0.4743
961.00,0.4703
960.00,0.4664
959.00,0.4632
958.00,0.4609
957.00,0.4594
956.00,0.4584
955.00,0.4573
954.00,0.4560
953.00,0.4541
952.00,0.4518
951.00,0.4495
950.00,0.4474
949.00,0.4459
948.00,0.4450
947.00,0.4448
946.00,0.4453
945.00,0.4464
944.00,0.4479
943.00,0.4497
942.00,0.4518
941.00,0.4537
940.00,0.4553
939.00,0.4562
938.00,0.4563
937.00,0.4556
936.00,0.4539
935.00,0.4515
934.00,0.4487
933.00,0.4456
932.00,0.4425
931.00,0.4399
930.00,0.4378
929.00,0.4364
928.00,0.4359
927.00,0.4366
926.00,0.4387
925.00,0.4424
924.00,0.4476
923.00,0.4541
922.00,0.4609
921.00,0.4665
920.00,0.4692
919.00,0.4681
918.00,0.4632
917.00,0.4554
916.00,0.4462
915.00,0.4369
914.00,0.4282
913.00,0.4207
912.00,0.4142
911.00,0.4089
910.00,0.4046
909.00,0.4008
908.00,0.3976
907.00,0.3952
906.00,0.3936
905.00,0.3927
904.00,0.3927
903.00,0.3935
902.00,0.3953
901.00,0.3979
900.00,0.4010
899.00,0.4048
898.00,0.4091
897.00,0.4136
896.00,0.4178
895.00,0.4216
894.00,0.4248
893.00,0.4273
892.00,0.4290
891.00,0.4302
890.00,0.4308
889.00,0.4305
888.00,0.4289
887.00,0.4260
886.00,0.4221
885.00,0.4177
884.00,0.4136
883.00,0.4103
882.00,0.4082
881.00,0.4071
880.00,0.4070
879.00,0.4077
878.00,0.4088
877.00,0.4101
876.00,0.4115
875.00,0.4133
874.00,0.4155
873.00,0.4178
872.00,0.4203
871.00,0.4230
870.00,0.4261
869.00,0.4298
868.00,0.4342
867.00,0.4398
866.00,0.4467
865.00,0.4545
864.00,0.4626
863.00,0.4700
862.00,0.4752
861.00,0.4770
860.00,0.4750
859.00,0.4700
858.00,0.4632
857.00,0.4562
856.00,0.4499
855.00,0.4449
854.00,0.4413
853.00,0.4388
852.00,0.4370
851.00,0.4359
850.00,0.4353
849.00,0.4348
848.00,0.4342
847.00,0.4335
846.00,0.4329
845.00,0.4324
844.00,0.4323
843.00,0.4328
842.00,0.4344
841.00,0.4376
840.00,0.4430
839.00,0.4507
838.00,0.4600
837.00,0.4687
836.00,0.4741
835.00,0.4741
834.00,0.4681
833.00,0.4580
832.00,0.4466
831.00,0.4369
830.00,0.4302
829.00,0.4265
828.00,0.4253
827.00,0.4259
826.00,0.4278
825.00,0.4307
824.00,0.4344
823.00,0.4386
822.00,0.4427
821.00,0.4461
820.00,0.4483
819.00,0.4496
818.00,0.4502
817.00,0.4502
816.00,0.4494
815.00,0.4480
814.00,0.4459
813.00,0.4430
812.00,0.4394
811.00,0.4354
810.00,0.4314
809.00,0.4274
808.00,0.4236
807.00,0.4201
806.00,0.4167
805.00,0.4134
804.00,0.4098
803.00,0.4061
802.00,0.4024
801.00,0.3990
800.00,0.3963
799.00,0.3944
798.00,0.3935
797.00,0.3930
796.00,0.3926
795.00,0.3924
794.00,0.3923
793.00,0.3924
792.00,0.3929
791.00,0.3938
790.00,0.3949
789.00,0.3957
788.00,0.3958
787.00,0.3956
786.00,0.3958
785.00,0.3966
784.00,0.3982
783.00,0.4004
782.00,0.4028
781.00,0.4052
780.00,0.4076
779.00,0.4102
778.00,0.4130
777.00,0.4161
776.00,0.4195
775.00,0.4231
774.00,0.4269
773.00,0.4305
772.00,0.4339
771.00,0.4370
770.00,0.4398
769.00,0.4425
768.00,0.4448
767.00,0.4470
766.00,0.4493
765.00,0.4518
764.00,0.4547
763.00,0.4584
762.00,0.4630
761.00,0.4682
760.00,0.4733
759.00,0.4777
758.00,0.4805
757.00,0.4817
756.00,0.4819
755.00,0.4823
754.00,0.4837
753.00,0.4865
752.00,0.4906
751.00,0.4956
750.00,0.5012
749.00,0.5071
748.00,0.5132
747.00,0.5197
746.00,0.5264
745.00,0.5335
744.00,0.5411
743.00,0.5493
742.00,0.5582
741.00,0.5674
740.00,0.5766
739.00,0.5857
738.00,0.5946
737.00,0.6033
736.00,0.6120
735.00,0.6207
734.00,0.6294
733.00,0.6383
732.00,0.6483
731.00,0.6604
730.00,0.6759
729.00,0.6959
728.00,0.7216
727.00,0.7541
726.00,0.7935
725.00,0.8383
724.00,0.8829
723.00,0.9178
722.00,0.9317
721.00,0.9171
720.00,0.8768
719.00,0.8225
718.00,0.7660
717.00,0.7143
716.00,0.6701
715.00,0.6339
714.00,0.6048
713.00,0.5810
712.00,0.5610
711.00,0.5440
710.00,0.5296
709.00,0.5174
708.00,0.5074
707.00,0.4993
706.00,0.4928
705.00,0.4877
704.00,0.4835
703.00,0.4805
702.00,0.4786
701.00,0.4771
700.00,0.4748
699.00,0.4703
698.00,0.4624
697.00,0.4513
696.00,0.4387
695.00,0.4266
694.00,0.4168
693.00,0.4095
692.00,0.4044
691.00,0.4012
690.00,0.3992
689.00,0.3980
688.00,0.3975
687.00,0.3978
686.00,0.3991
685.00,0.4014
684.00,0.4045
683.00,0.4084
682.00,0.4127
681.00,0.4174
680.00,0.4226
679.00,0.4281
678.00,0.4338
677.00,0.4392
676.00,0.4437
675.00,0.4472
674.00,0.4497
673.00,0.4509
672.00,0.4510
671.00,0.4501
670.00,0.4484
669.00,0.4456
668.00,0.4415
667.00,0.4374
666.00,0.4351
665.00,0.4339
664.00,0.4329
663.00,0.4317
662.00,0.4305
661.00,0.4290
660.00,0.4274
659.00,0.4257
658.00,0.4239
657.00,0.4218
656.00,0.4190
655.00,0.4156
654.00,0.4121
653.00,0.4087
652.00,0.4058
651.00,0.4034
650.00,0.4015
649.00,0.4000
648.00,0.3989
647.00,0.3981
646.00,0.3978
645.00,0.3979
644.00,0.3981
643.00,0.3982
642.00,0.3981
641.00,0.3976
640.00,0.3969
639.00,0.3960
638.00,0.3950
637.00,0.3940
636.00,0.3929
635.00,0.3921
634.00,0.3917
633.00,0.3916
632.00,0.3919
631.00,0.3926
630.00,0.3936
629.00,0.3949
628.00,0.3963
627.00,0.3979
626.00,0.3998
625.00,0.4019
624.00,0.4042
623.00,0.4067
622.00,0.4090
621.00,0.4106
620.00,0.4115
619.00,0.4122
618.00,0.4129
617.00,0.4133
616.00,0.4133
615.00,0.4129
614.00,0.4125
613.00,0.4118
612.00,0.4108
611.00,0.4096
610.00,0.4084
609.00,0.4070
608.00,0.4056
607.00,0.4043
606.00,0.4030
605.00,0.4016
604.00,0.4004
603.00,0.3997
602.00,0.3998
601.00,0.4005
600.00,0.4013
599.00,0.4024
598.00,0.4037
597.00,0.4053
596.00,0.4072
595.00,0.4094
594.00,0.4118
593.00,0.4142
592.00,0.4165
591.00,0.4192
590.00,0.4222
589.00,0.4254
588.00,0.4287
587.00,0.4323
586.00,0.4359
585.00,0.4390
584.00,0.4414
583.00,0.4438
582.00,0.4468
581.00,0.4501
580.00,0.4534
579.00,0.4565
578.00,0.4596
577.00,0.4627
576.00,0.4655
575.00,0.4682
574.00,0.4709
573.00,0.4738
572.00,0.4770
571.00,0.4806
570.00,0.4843
569.00,0.4876
568.00,0.4904
567.00,0.4929
566.00,0.4955
565.00,0.4983
564.00,0.5011
563.00,0.5038
562.00,0.5064
561.00,0.5088
560.00,0.5110
559.00,0.5133
558.00,0.5156
557.00,0.5176
556.00,0.5190
555.00,0.5202
554.00,0.5215
553.00,0.5227
552.00,0.5235
551.00,0.5239
550.00,0.5244
