Created as New Dataset,
cm-1,A
4000.00,0.4224
3999.00,0.4221
3998.00,0.4219
3997.00,0.4217
3996.00,0.4215
3995.00,0.4213
3994.00,0.4211
3993.00,0.4208
3992.00,0.4205
3991.00,0.4201
3990.00,0.4196
3989.00,0.4192
3988.00,0.4187
3987.00,0.4182
3986.00,0.4177
3985.00,0.4173
3984.00,0.4169
3983.00,0.4165
3982.00,0.4160
3981.00,0.4156
3980.00,0.4152
3979.00,0.4148
3978.00,0.4144
3977.00,0.4140
3976.00,0.4135
3975.00,0.4131
3974.00,0.4127
3973.00,0.4123
3972.00,0.4119
3971.00,0.4115
3970.00,0.4111
3969.00,0.4107
3968.00,0.4104
3967.00,0.4101
3966.00,0.4098
3965.00,0.4094
3964.00,0.4090
3963.00,0.4086
3962.00,0.4083
3961.00,0.4081
3960.00,0.4079
3959.00,0.4077
3958.00,0.4074
3957.00,0.4072
3956.00,0.4069
3955.00,0.4067
3954.00,0.4066
3953.00,0.4064
3952.00,0.4063
3951.00,0.4062
3950.00,0.4061
3949.00,0.4060
3948.00,0.4058
3947.00,0.4057
3946.00,0.4056
3945.00,0.4056
3944.00,0.4055
3943.00,0.4054
3942.00,0.4054
3941.00,0.4054
3940.00,0.4054
3939.00,0.4053
3938.00,0.4052
3937.00,0.4051
3936.00,0.4050
3935.00,0.4050
3934.00,0.4049
3933.00,0.4048
3932.00,0.4047
3931.00,0.4047
3930.00,0.4046
3929.00,0.4046
3928.00,0.4045
3927.00,0.4045
3926.00,0.4044
3925.00,0.4043
3924.00,0.4042
3923.00,0.4042
3922.00,0.4041
3921.00,0.4041
3920.00,0.4040
3919.00,0.4040
3918.00,0.4040
3917.00,0.4040
3916.00,0.4039
3915.00,0.4038
3914.00,0.4038
3913.00,0.4037
3912.00,0.4036
3911.00,0.4035
3910.00,0.4034
3909.00,0.4033
3908.00,0.4033
3907.00,0.4032
3906.00,0.4031
3905.00,0.4029
3904.00,0.4027
3903.00,0.4024
3902.00,0.4023
3901.00,0.4022
3900.00,0.4021
3899.00,0.4020
3898.00,0.4020
3897.00,0.4019
3896.00,0.4017
3895.00,0.4015
3894.00,0.4013
3893.00,0.4011
3892.00,0.4009
3891.00,0.4007
3890.00,0.4005
3889.00,0.4004
3888.00,0.4003
3887.00,0.4000
3886.00,0.3997
3885.00,0.3993
3884.00,0.3992
3883.00,0.3993
3882.00,0.3992
3881.00,0.3990
3880.00,0.3988
3879.00,0.3988
3878.00,0.3988
3877.00,0.3988
3876.00,0.3985
3875.00,0.3983
3874.00,0.3982
3873.00,0.3982
3872.00,0.3983
3871.00,0.3981
3870.00,0.3979
3869.00,0.3977
3868.00,0.3977
3867.00,0.3979
3866.00,0.3979
3865.00,0.3977
3864.00,0.3977
3863.00,0.3977
3862.00,0.3977
3861.00,0.3975
3860.00,0.3973
3859.00,0.3971
3858.00,0.3970
3857.00,0.3971
3856.00,0.3973
3855.00,0.3975
3854.00,0.3973
3853.00,0.3970
3852.00,0.3970
3851.00,0.3973
3850.00,0.3973
3849.00,0.3969
3848.00,0.3964
3847.00,0.3962
3846.00,0.3962
3845.00,0.3961
3844.00,0.3960
3843.00,0.3958
3842.00,0.3957
3841.00,0.3957
3840.00,0.3957
3839.00,0.3956
3838.00,0.3955
3837.00,0.3954
3836.00,0.3954
3835.00,0.3954
3834.00,0.3953
3833.00,0.3952
3832.00,0.3950
3831.00,0.3949
3830.00,0.3948
3829.00,0.3947
3828.00,0.3945
3827.00,0.3943
3826.00,0.3941
3825.00,0.3940
3824.00,0.3940
3823.00,0.3939
3822.00,0.3935
3821.00,0.3932
3820.00,0.3930
3819.00,0.3930
3818.00,0.3930
3817.00,0.3927
3816.00,0.3923
3815.00,0.3921
3814.00,0.3921
3813.00,0.3920
3812.00,0.3916
3811.00,0.3912
3810.00,0.3909
3809.00,0.3908
3808.00,0.3907
3807.00,0.3902
3806.00,0.3898
3805.00,0.3895
3804.00,0.3894
3803.00,0.3892
3802.00,0.3888
3801.00,0.3885
3800.00,0.3885
3799.00,0.3885
3798.00,0.3884
3797.00,0.3880
3796.00,0.3877
3795.00,0.3876
3794.00,0.3877
3793.00,0.3877
3792.00,0.3875
3791.00,0.3873
3790.00,0.3872
3789.00,0.3871
3788.00,0.3870
3787.00,0.3869
3786.00,0.3867
3785.00,0.3864
3784.00,0.3861
3783.00,0.3859
3782.00,0.3857
3781.00,0.3855
3780.00,0.3854
3779.00,0.3853
3778.00,0.3852
3777.00,0.3851
3776.00,0.3850
3775.00,0.3847
3774.00,0.3845
3773.00,0.3844
3772.00,0.3843
3771.00,0.3843
3770.00,0.3841
3769.00,0.3840
3768.00,0.3840
3767.00,0.3839
3766.00,0.3837
3765.00,0.3835
3764.00,0.3835
3763.00,0.3836
3762.00,0.3835
3761.00,0.3834
3760.00,0.3832
3759.00,0.3831
3758.00,0.3831
3757.00,0.3829
3756.00,0.3828
3755.00,0.3827
3754.00,0.3826
3753.00,0.3826
3752.00,0.3826
3751.00,0.3824
3750.00,0.3822
3749.00,0.3820
3748.00,0.3820
3747.00,0.3820
3746.00,0.3819
3745.00,0.3817
3744.00,0.3815
3743.00,0.3815
3742.00,0.3818
3741.00,0.3816
3740.00,0.3811
3739.00,0.3806
3738.00,0.3805
3737.00,0.3805
3736.00,0.3802
3735.00,0.3800
3734.00,0.3799
3733.00,0.3800
3732.00,0.3799
3731.00,0.3799
3730.00,0.3799
3729.00,0.3798
3728.00,0.3797
3727.00,0.3795
3726.00,0.3794
3725.00,0.3793
3724.00,0.3793
3723.00,0.3792
3722.00,0.3790
3721.00,0.3789
3720.00,0.3789
3719.00,0.3789
3718.00,0.3789
3717.00,0.3788
3716.00,0.3787
3715.00,0.3787
3714.00,0.3787
3713.00,0.3787
3712.00,0.3787
3711.00,0.3787
3710.00,0.3787
3709.00,0.3787
3708.00,0.3788
3707.00,0.3788
3706.00,0.3788
3705.00,0.3789
3704.00,0.3789
3703.00,0.3790
3702.00,0.3790
3701.00,0.3792
3700.00,0.3794
3699.00,0.3796
3698.00,0.3798
3697.00,0.3799
3696.00,0.3801
3695.00,0.3803
3694.00,0.3805
3693.00,0.3805
3692.00,0.3806
3691.00,0.3807
3690.00,0.3808
3689.00,0.3808
3688.00,0.3808
3687.00,0.3808
3686.00,0.3810
3685.00,0.3810
3684.00,0.3809
3683.00,0.3808
3682.00,0.3808
3681.00,0.3808
3680.00,0.3809
3679.00,0.3809
3678.00,0.3812
3677.00,0.3814
3676.00,0.3815
3675.00,0.3816
3674.00,0.3818
3673.00,0.3823
3672.00,0.3825
3671.00,0.3825
3670.00,0.3826
3669.00,0.3829
3668.00,0.3833
3667.00,0.3836
3666.00,0.3836
3665.00,0.3836
3664.00,0.3837
3663.00,0.3840
3662.00,0.3843
3661.00,0.3846
3660.00,0.3849
3659.00,0.3853
3658.00,0.3858
3657.00,0.3864
3656.00,0.3870
3655.00,0.3878
3654.00,0.3887
3653.00,0.3895
3652.00,0.3903
3651.00,0.3911
3650.00,0.3919
3649.00,0.3925
3648.00,0.3930
3647.00,0.3934
3646.00,0.3937
3645.00,0.3938
3644.00,0.3936
3643.00,0.3933
3642.00,0.3928
3641.00,0.3924
3640.00,0.3919
3639.00,0.3913
3638.00,0.3908
3637.00,0.3903
3636.00,0.3900
3635.00,0.3896
3634.00,0.3893
3633.00,0.3890
3632.00,0.3889
3631.00,0.3889
3630.00,0.3888
3629.00,0.3886
3628.00,0.3884
3627.00,0.3885
3626.00,0.3886
3625.00,0.3884
3624.00,0.3882
3623.00,0.3882
3622.00,0.3884
3621.00,0.3885
3620.00,0.3885
3619.00,0.3885
3618.00,0.3885
3617.00,0.3887
3616.00,0.3890
3615.00,0.3892
3614.00,0.3894
3613.00,0.3897
3612.00,0.3899
3611.00,0.3902
3610.00,0.3903
3609.00,0.3904
3608.00,0.3904
3607.00,0.3905
3606.00,0.3905
3605.00,0.3904
3604.00,0.3900
3603.00,0.3894
3602.00,0.3887
3601.00,0.3879
3600.00,0.3871
3599.00,0.3861
3598.00,0.3852
3597.00,0.3843
3596.00,0.3834
3595.00,0.3826
3594.00,0.3819
3593.00,0.3813
3592.00,0.3808
3591.00,0.3803
3590.00,0.3799
3589.00,0.3796
3588.00,0.3793
3587.00,0.3790
3586.00,0.3788
3585.00,0.3787
3584.00,0.3786
3583.00,0.3786
3582.00,0.3786
3581.00,0.3786
3580.00,0.3787
3579.00,0.3787
3578.00,0.3787
3577.00,0.3788
3576.00,0.3789
3575.00,0.3790
3574.00,0.3792
3573.00,0.3793
3572.00,0.3794
3571.00,0.3795
3570.00,0.3796
3569.00,0.3796
3568.00,0.3797
3567.00,0.3798
3566.00,0.3799
3565.00,0.3800
3564.00,0.3800
3563.00,0.3800
3562.00,0.3799
3561.00,0.3799
3560.00,0.3800
3559.00,0.3801
3558.00,0.3801
3557.00,0.3801
3556.00,0.3801
3555.00,0.3802
3554.00,0.3802
3553.00,0.3803
3552.00,0.3803
3551.00,0.3804
3550.00,0.3805
3549.00,0.3805
3548.00,0.3806
3547.00,0.3807
3546.00,0.3808
3545.00,0.3810
3544.00,0.3811
3543.00,0.3813
3542.00,0.3814
3541.00,0.3816
3540.00,0.3817
3539.00,0.3819
3538.00,0.3821
3537.00,0.3823
3536.00,0.3824
3535.00,0.3824
3534.00,0.3825
3533.00,0.3825
3532.00,0.3826
3531.00,0.3826
3530.00,0.3827
3529.00,0.3827
3528.00,0.3827
3527.00,0.3827
3526.00,0.3827
3525.00,0.3827
3524.00,0.3827
3523.00,0.3827
3522.00,0.3827
3521.00,0.3828
3520.00,0.3828
3519.00,0.3828
3518.00,0.3828
3517.00,0.3828
3516.00,0.3829
3515.00,0.3829
3514.00,0.3829
3513.00,0.3830
3512.00,0.3832
3511.00,0.3833
3510.00,0.3835
3509.00,0.3837
3508.00,0.3839
3507.00,0.3841
3506.00,0.3843
3505.00,0.3845
3504.00,0.3848
3503.00,0.3850
3502.00,0.3853
3501.00,0.3857
3500.00,0.3860
3499.00,0.3864
3498.00,0.3867
3497.00,0.3871
3496.00,0.3874
3495.00,0.3878
3494.00,0.3881
3493.00,0.3885
3492.00,0.3889
3491.00,0.3893
3490.00,0.3896
3489.00,0.3900
3488.00,0.3903
3487.00,0.3907
3486.00,0.3911
3485.00,0.3915
3484.00,0.3919
3483.00,0.3923
3482.00,0.3927
3481.00,0.3932
3480.00,0.3937
3479.00,0.3942
3478.00,0.3948
3477.00,0.3954
3476.00,0.3961
3475.00,0.3968
3474.00,0.3975
3473.00,0.3982
3472.00,0.3990
3471.00,0.3999
3470.00,0.4008
3469.00,0.4017
3468.00,0.4026
3467.00,0.4034
3466.00,0.4042
3465.00,0.4051
3464.00,0.4061
3463.00,0.4071
3462.00,0.4081
3461.00,0.4090
3460.00,0.4099
3459.00,0.4108
3458.00,0.4117
3457.00,0.4126
3456.00,0.4135
3455.00,0.4143
3454.00,0.4149
3453.00,0.4155
3452.00,0.4160
3451.00,0.4164
3450.00,0.4168
3449.00,0.4171
3448.00,0.4174
3447.00,0.4176
3446.00,0.4177
3445.00,0.4177
3444.00,0.4177
3443.00,0.4177
3442.00,0.4177
3441.00,0.4176
3440.00,0.4176
3439.00,0.4175
3438.00,0.4174
3437.00,0.4173
3436.00,0.4172
3435.00,0.4170
3434.00,0.4169
3433.00,0.4168
3432.00,0.4168
3431.00,0.4168
3430.00,0.4168
3429.00,0.4168
3428.00,0.4169
3427.00,0.4172
3426.00,0.4175
3425.00,0.4180
3424.00,0.4185
3423.00,0.4191
3422.00,0.4197
3421.00,0.4204
3420.00,0.4211
3419.00,0.4219
3418.00,0.4228
3417.00,0.4239
3416.00,0.4252
3415.00,0.4265
3414.00,0.4280
3413.00,0.4295
3412.00,0.4311
3411.00,0.4328
3410.00,0.4347
3409.00,0.4369
3408.00,0.4392
3407.00,0.4417
3406.00,0.4444
3405.00,0.4474
3404.00,0.4505
3403.00,0.4539
3402.00,0.4575
3401.00,0.4613
3400.00,0.4652
3399.00,0.4693
3398.00,0.4737
3397.00,0.4782
3396.00,0.4829
3395.00,0.4876
3394.00,0.4924
3393.00,0.4974
3392.00,0.5025
3391.00,0.5078
3390.00,0.5132
3389.00,0.5188
3388.00,0.5245
3387.00,0.5302
3386.00,0.5360
3385.00,0.5420
3384.00,0.5481
3383.00,0.5544
3382.00,0.5609
3381.00,0.5676
3380.00,0.5745
3379.00,0.5816
3378.00,0.5890
3377.00,0.5966
3376.00,0.6046
3375.00,0.6127
3374.00,0.6210
3373.00,0.6296
3372.00,0.6385
3371.00,0.6476
3370.00,0.6570
3369.00,0.6666
3368.00,0.6764
3367.00,0.6864
3366.00,0.6966
3365.00,0.7069
3364.00,0.7172
3363.00,0.7274
3362.00,0.7375
3361.00,0.7475
3360.00,0.7574
3359.00,0.7671
3358.00,0.7767
3357.00,0.7862
3356.00,0.7957
3355.00,0.8049
3354.00,0.8139
3353.00,0.8226
3352.00,0.8310
3351.00,0.8394
3350.00,0.8477
3349.00,0.8560
3348.00,0.8643
3347.00,0.8726
3346.00,0.8808
3345.00,0.8891
3344.00,0.8975
3343.00,0.9061
3342.00,0.9147
3341.00,0.9234
3340.00,0.9320
3339.00,0.9407
3338.00,0.9496
3337.00,0.9586
3336.00,0.9678
3335.00,0.9768
3334.00,0.9853
3333.00,0.9933
3332.00,1.0004
3331.00,1.0066
3330.00,1.0117
3329.00,1.0156
3328.00,1.0184
3327.00,1.0200
3326.00,1.0209
3325.00,1.0213
3324.00,1.0216
3323.00,1.0220
3322.00,1.0231
3321.00,1.0249
3320.00,1.0274
3319.00,1.0310
3318.00,1.0355
3317.00,1.0412
3316.00,1.0480
3315.00,1.0557
3314.00,1.0646
3313.00,1.0748
3312.00,1.0863
3311.00,1.0989
3310.00,1.1125
3309.00,1.1269
3308.00,1.1422
3307.00,1.1581
3306.00,1.1749
3305.00,1.1923
3304.00,1.2101
3303.00,1.2280
3302.00,1.2457
3301.00,1.2630
3300.00,1.2795
3299.00,1.2951
3298.00,1.3096
3297.00,1.3226
3296.00,1.3333
3295.00,1.3409
3294.00,1.3455
3293.00,1.3470
3292.00,1.3454
3291.00,1.3404
3290.00,1.3317
3289.00,1.3191
3288.00,1.3025
3287.00,1.2822
3286.00,1.2586
3285.00,1.2325
3284.00,1.2041
3283.00,1.1740
3282.00,1.1428
3281.00,1.1112
3280.00,1.0796
3279.00,1.0486
3278.00,1.0182
3277.00,0.9887
3276.00,0.9601
3275.00,0.9327
3274.00,0.9067
3273.00,0.8823
3272.00,0.8595
3271.00,0.8381
3270.00,0.8182
3269.00,0.7997
3268.00,0.7825
3267.00,0.7664
3266.00,0.7514
3265.00,0.7374
3264.00,0.7244
3263.00,0.7122
3262.00,0.7009
3261.00,0.6903
3260.00,0.6803
3259.00,0.6709
3258.00,0.6621
3257.00,0.6539
3256.00,0.6462
3255.00,0.6388
3254.00,0.6319
3253.00,0.6254
3252.00,0.6195
3251.00,0.6139
3250.00,0.6087
3249.00,0.6040
3248.00,0.5996
3247.00,0.5955
3246.00,0.5916
3245.00,0.5879
3244.00,0.5845
3243.00,0.5814
3242.00,0.5785
3241.00,0.5759
3240.00,0.5733
3239.00,0.5709
3238.00,0.5686
3237.00,0.5663
3236.00,0.5640
3235.00,0.5618
3234.00,0.5596
3233.00,0.5575
3232.00,0.5555
3231.00,0.5535
3230.00,0.5516
3229.00,0.5496
3228.00,0.5477
3227.00,0.5458
3226.00,0.5438
3225.00,0.5420
3224.00,0.5401
3223.00,0.5383
3222.00,0.5366
3221.00,0.5349
3220.00,0.5333
3219.00,0.5318
3218.00,0.5304
3217.00,0.5291
3216.00,0.5278
3215.00,0.5266
3214.00,0.5254
3213.00,0.5244
3212.00,0.5234
3211.00,0.5224
3210.00,0.5214
3209.00,0.5205
3208.00,0.5196
3207.00,0.5187
3206.00,0.5179
3205.00,0.5171
3204.00,0.5164
3203.00,0.5156
3202.00,0.5149
3201.00,0.5142
3200.00,0.5135
3199.00,0.5128
3198.00,0.5120
3197.00,0.5111
3196.00,0.5103
3195.00,0.5094
3194.00,0.5085
3193.00,0.5076
3192.00,0.5067
3191.00,0.5059
3190.00,0.5051
3189.00,0.5044
3188.00,0.5038
3187.00,0.5031
3186.00,0.5025
3185.00,0.5020
3184.00,0.5015
3183.00,0.5012
3182.00,0.5008
3181.00,0.5006
3180.00,0.5003
3179.00,0.5000
3178.00,0.4997
3177.00,0.4995
3176.00,0.4993
3175.00,0.4991
3174.00,0.4989
3173.00,0.4986
3172.00,0.4985
3171.00,0.4984
3170.00,0.4983
3169.00,0.4983
3168.00,0.4982
3167.00,0.4981
3166.00,0.4979
3165.00,0.4979
3164.00,0.4979
3163.00,0.4979
3162.00,0.4979
3161.00,0.4979
3160.00,0.4980
3159.00,0.4981
3158.00,0.4982
3157.00,0.4983
3156.00,0.4985
3155.00,0.4988
3154.00,0.4992
3153.00,0.4996
3152.00,0.5002
3151.00,0.5008
3150.00,0.5016
3149.00,0.5024
3148.00,0.5032
3147.00,0.5040
3146.00,0.5050
3145.00,0.5061
3144.00,0.5074
3143.00,0.5088
3142.00,0.5102
3141.00,0.5118
3140.00,0.5134
3139.00,0.5152
3138.00,0.5172
3137.00,0.5192
3136.00,0.5214
3135.00,0.5238
3134.00,0.5262
3133.00,0.5287
3132.00,0.5312
3131.00,0.5338
3130.00,0.5364
3129.00,0.5391
3128.00,0.5419
3127.00,0.5446
3126.00,0.5472
3125.00,0.5497
3124.00,0.5521
3123.00,0.5544
3122.00,0.5566
3121.00,0.5586
3120.00,0.5606
3119.00,0.5624
3118.00,0.5642
3117.00,0.5660
3116.00,0.5678
3115.00,0.5696
3114.00,0.5714
3113.00,0.5733
3112.00,0.5752
3111.00,0.5771
3110.00,0.5790
3109.00,0.5810
3108.00,0.5829
3107.00,0.5847
3106.00,0.5864
3105.00,0.5879
3104.00,0.5892
3103.00,0.5901
3102.00,0.5907
3101.00,0.5910
3100.00,0.5908
3099.00,0.5901
3098.00,0.5891
3097.00,0.5878
3096.00,0.5861
3095.00,0.5842
3094.00,0.5822
3093.00,0.5800
3092.00,0.5778
3091.00,0.5757
3090.00,0.5736
3089.00,0.5718
3088.00,0.5701
3087.00,0.5686
3086.00,0.5674
3085.00,0.5665
3084.00,0.5659
3083.00,0.5655
3082.00,0.5655
3081.00,0.5656
3080.00,0.5660
3079.00,0.5665
3078.00,0.5672
3077.00,0.5682
3076.00,0.5695
3075.00,0.5710
3074.00,0.5727
3073.00,0.5746
3072.00,0.5765
3071.00,0.5785
3070.00,0.5805
3069.00,0.5824
3068.00,0.5845
3067.00,0.5865
3066.00,0.5886
3065.00,0.5907
3064.00,0.5928
3063.00,0.5949
3062.00,0.5972
3061.00,0.5997
3060.00,0.6023
3059.00,0.6051
3058.00,0.6081
3057.00,0.6112
3056.00,0.6146
3055.00,0.6182
3054.00,0.6221
3053.00,0.6261
3052.00,0.6301
3051.00,0.6340
3050.00,0.6377
3049.00,0.6412
3048.00,0.6446
3047.00,0.6480
3046.00,0.6518
3045.00,0.6560
3044.00,0.6606
3043.00,0.6657
3042.00,0.6710
3041.00,0.6765
3040.00,0.6820
3039.00,0.6875
3038.00,0.6929
3037.00,0.6983
3036.00,0.7038
3035.00,0.7097
3034.00,0.7160
3033.00,0.7227
3032.00,0.7298
3031.00,0.7370
3030.00,0.7440
3029.00,0.7503
3028.00,0.7557
3027.00,0.7600
3026.00,0.7635
3025.00,0.7664
3024.00,0.7694
3023.00,0.7728
3022.00,0.7769
3021.00,0.7820
3020.00,0.7881
3019.00,0.7953
3018.00,0.8036
3017.00,0.8129
3016.00,0.8231
3015.00,0.8340
3014.00,0.8456
3013.00,0.8579
3012.00,0.8707
3011.00,0.8842
3010.00,0.8983
3009.00,0.9129
3008.00,0.9276
3007.00,0.9425
3006.00,0.9578
3005.00,0.9735
3004.00,0.9896
3003.00,1.0063
3002.00,1.0237
3001.00,1.0419
3000.00,1.0615
2999.00,1.0826
2998.00,1.1055
2997.00,1.1307
2996.00,1.1583
2995.00,1.1888
2994.00,1.2225
2993.00,1.2598
2992.00,1.3010
2991.00,1.3461
2990.00,1.3955
2989.00,1.4492
2988.00,1.5076
2987.00,1.5710
2986.00,1.6403
2985.00,1.7165
2984.00,1.8004
2983.00,1.8928
2982.00,1.9940
2981.00,2.1044
2980.00,2.2246
2979.00,2.3554
2978.00,2.4975
2977.00,2.6518
2976.00,2.8234
2975.00,3.0257
2974.00,3.2776
2973.00,3.5872
2972.00,3.8645
2971.00,3.9751
2970.00,4.0297
2969.00,4.2119
2968.00,4.6520
2967.00,4.2573
2966.00,3.9677
2965.00,3.8062
2964.00,3.8536
2963.00,4.0114
2962.00,4.2821
2961.00,4.4628
2960.00,4.3758
2959.00,4.3591
2958.00,4.5943
2957.00,4.3196
2956.00,4.0334
2955.00,3.8622
2954.00,3.8449
2953.00,3.8758
2952.00,3.9289
2951.00,3.9580
2950.00,3.9552
2949.00,3.9709
2948.00,4.0704
2947.00,4.2233
2946.00,4.3881
2945.00,4.6267
2944.00,4.6405
2943.00,4.3017
2942.00,4.0456
2941.00,3.9432
2940.00,3.9892
2939.00,4.1518
2938.00,4.4088
2937.00,4.7734
2936.00,4.6983
2935.00,4.3043
2934.00,4.0687
2933.00,3.9866
2932.00,4.0629
2931.00,4.2772
2930.00,4.6001
2929.00,4.6501
2928.00,4.3526
2927.00,4.2399
2926.00,4.3392
2925.00,4.5616
2924.00,4.5712
2923.00,4.5126
2922.00,4.1918
2921.00,4.0410
2920.00,4.0088
2919.00,4.2786
2918.00,4.1507
2917.00,3.8866
2916.00,3.7434
2915.00,3.8192
2914.00,4.0356
2913.00,4.3398
2912.00,4.5342
2911.00,4.2985
2910.00,4.1221
2909.00,4.1359
2908.00,4.2400
2907.00,4.3063
2906.00,4.3636
2905.00,4.5328
2904.00,4.7794
2903.00,4.6382
2902.00,4.3841
2901.00,4.1824
2900.00,4.0931
2899.00,4.0636
2898.00,3.9851
2897.00,3.8851
2896.00,3.8179
2895.00,3.8178
2894.00,3.8656
2893.00,4.0134
2892.00,4.4417
2891.00,4.7738
2890.00,4.8310
2889.00,4.6923
2888.00,4.2827
2887.00,3.9825
2886.00,3.8157
2885.00,3.8443
2884.00,3.9612
2883.00,4.1493
2882.00,4.1771
2881.00,4.1012
2880.00,4.1240
2879.00,4.3589
2878.00,4.5532
2877.00,4.4106
2876.00,4.1558
2875.00,3.9960
2874.00,3.9244
2873.00,3.9407
2872.00,3.9812
2871.00,3.9950
2870.00,3.9392
2869.00,3.8465
2868.00,3.7916
2867.00,3.8208
2866.00,3.9854
2865.00,4.4098
2864.00,4.2323
2863.00,3.9216
2862.00,3.6867
2861.00,3.6733
2860.00,3.7753
2859.00,4.0594
2858.00,4.3445
2857.00,4.3199
2856.00,4.2946
2855.00,4.4280
2854.00,4.4562
2853.00,4.4992
2852.00,4.5129
2851.00,4.2969
2850.00,4.1547
2849.00,4.3638
2848.00,4.4601
2847.00,4.1259
2846.00,3.9344
2845.00,3.9669
2844.00,4.0710
2843.00,3.9680
2842.00,3.8150
2841.00,3.6478
2840.00,3.4548
2839.00,3.2248
2838.00,2.9993
2837.00,2.7903
2836.00,2.5983
2835.00,2.4258
2834.00,2.2733
2833.00,2.1391
2832.00,2.0202
2831.00,1.9138
2830.00,1.8182
2829.00,1.7328
2828.00,1.6569
2827.00,1.5897
2826.00,1.5299
2825.00,1.4762
2824.00,1.4277
2823.00,1.3835
2822.00,1.3428
2821.00,1.3051
2820.00,1.2700
2819.00,1.2372
2818.00,1.2066
2817.00,1.1781
2816.00,1.1514
2815.00,1.1264
2814.00,1.1025
2813.00,1.0798
2812.00,1.0580
2811.00,1.0374
2810.00,1.0179
2809.00,0.9994
2808.00,0.9818
2807.00,0.9648
2806.00,0.9485
2805.00,0.9328
2804.00,0.9176
2803.00,0.9031
2802.00,0.8892
2801.00,0.8760
2800.00,0.8633
2799.00,0.8511
2798.00,0.8396
2797.00,0.8285
2796.00,0.8178
2795.00,0.8075
2794.00,0.7975
2793.00,0.7878
2792.00,0.7782
2791.00,0.7688
2790.00,0.7593
2789.00,0.7499
2788.00,0.7405
2787.00,0.7313
2786.00,0.7222
2785.00,0.7131
2784.00,0.7042
2783.00,0.6955
2782.00,0.6870
2781.00,0.6788
2780.00,0.6709
2779.00,0.6635
2778.00,0.6564
2777.00,0.6497
2776.00,0.6434
2775.00,0.6374
2774.00,0.6318
2773.00,0.6267
2772.00,0.6218
2771.00,0.6173
2770.00,0.6131
2769.00,0.6093
2768.00,0.6059
2767.00,0.6028
2766.00,0.6000
2765.00,0.5976
2764.00,0.5953
2763.00,0.5933
2762.00,0.5915
2761.00,0.5899
2760.00,0.5885
2759.00,0.5871
2758.00,0.5858
2757.00,0.5848
2756.00,0.5839
2755.00,0.5832
2754.00,0.5826
2753.00,0.5822
2752.00,0.5819
2751.00,0.5818
2750.00,0.5820
2749.00,0.5823
2748.00,0.5829
2747.00,0.5838
2746.00,0.5849
2745.00,0.5861
2744.00,0.5875
2743.00,0.5890
2742.00,0.5908
2741.00,0.5929
2740.00,0.5951
2739.00,0.5976
2738.00,0.6002
2737.00,0.6030
2736.00,0.6060
2735.00,0.6091
2734.00,0.6120
2733.00,0.6146
2732.00,0.6167
2731.00,0.6182
2730.00,0.6188
2729.00,0.6184
2728.00,0.6171
2727.00,0.6150
2726.00,0.6124
2725.00,0.6096
2724.00,0.6068
2723.00,0.6040
2722.00,0.6013
2721.00,0.5987
2720.00,0.5962
2719.00,0.5937
2718.00,0.5912
2717.00,0.5886
2716.00,0.5859
2715.00,0.5830
2714.00,0.5800
2713.00,0.5771
2712.00,0.5742
2711.00,0.5715
2710.00,0.5689
2709.00,0.5666
2708.00,0.5646
2707.00,0.5629
2706.00,0.5615
2705.00,0.5604
2704.00,0.5596
2703.00,0.5589
2702.00,0.5586
2701.00,0.5585
2700.00,0.5587
2699.00,0.5592
2698.00,0.5599
2697.00,0.5608
2696.00,0.5620
2695.00,0.5633
2694.00,0.5648
2693.00,0.5664
2692.00,0.5680
2691.00,0.5695
2690.00,0.5708
2689.00,0.5720
2688.00,0.5731
2687.00,0.5741
2686.00,0.5749
2685.00,0.5755
2684.00,0.5759
2683.00,0.5763
2682.00,0.5767
2681.00,0.5769
2680.00,0.5771
2679.00,0.5772
2678.00,0.5773
2677.00,0.5774
2676.00,0.5776
2675.00,0.5778
2674.00,0.5780
2673.00,0.5782
2672.00,0.5783
2671.00,0.5783
2670.00,0.5780
2669.00,0.5773
2668.00,0.5763
2667.00,0.5748
2666.00,0.5729
2665.00,0.5707
2664.00,0.5685
2663.00,0.5661
2662.00,0.5636
2661.00,0.5610
2660.00,0.5583
2659.00,0.5555
2658.00,0.5527
2657.00,0.5499
2656.00,0.5473
2655.00,0.5447
2654.00,0.5423
2653.00,0.5401
2652.00,0.5379
2651.00,0.5358
2650.00,0.5340
2649.00,0.5324
2648.00,0.5309
2647.00,0.5295
2646.00,0.5281
2645.00,0.5269
2644.00,0.5257
2643.00,0.5246
2642.00,0.5237
2641.00,0.5228
2640.00,0.5219
2639.00,0.5211
2638.00,0.5202
2637.00,0.5194
2636.00,0.5186
2635.00,0.5179
2634.00,0.5170
2633.00,0.5162
2632.00,0.5152
2631.00,0.5143
2630.00,0.5133
2629.00,0.5124
2628.00,0.5116
2627.00,0.5107
2626.00,0.5098
2625.00,0.5089
2624.00,0.5081
2623.00,0.5072
2622.00,0.5064
2621.00,0.5055
2620.00,0.5046
2619.00,0.5038
2618.00,0.5029
2617.00,0.5021
2616.00,0.5013
2615.00,0.5004
2614.00,0.4996
2613.00,0.4987
2612.00,0.4977
2611.00,0.4968
2610.00,0.4959
2609.00,0.4950
2608.00,0.4941
2607.00,0.4932
2606.00,0.4924
2605.00,0.4915
2604.00,0.4907
2603.00,0.4898
2602.00,0.4889
2601.00,0.4880
2600.00,0.4870
2599.00,0.4859
2598.00,0.4848
2597.00,0.4836
2596.00,0.4825
2595.00,0.4813
2594.00,0.4800
2593.00,0.4787
2592.00,0.4773
2591.00,0.4758
2590.00,0.4742
2589.00,0.4725
2588.00,0.4707
2587.00,0.4687
2586.00,0.4667
2585.00,0.4647
2584.00,0.4628
2583.00,0.4608
2582.00,0.4588
2581.00,0.4569
2580.00,0.4550
2579.00,0.4531
2578.00,0.4513
2577.00,0.4495
2576.00,0.4478
2575.00,0.4461
2574.00,0.4444
2573.00,0.4427
2572.00,0.4411
2571.00,0.4396
2570.00,0.4381
2569.00,0.4367
2568.00,0.4354
2567.00,0.4341
2566.00,0.4329
2565.00,0.4317
2564.00,0.4306
2563.00,0.4294
2562.00,0.4283
2561.00,0.4273
2560.00,0.4263
2559.00,0.4253
2558.00,0.4243
2557.00,0.4233
2556.00,0.4224
2555.00,0.4214
2554.00,0.4205
2553.00,0.4197
2552.00,0.4189
2551.00,0.4182
2550.00,0.4175
2549.00,0.4168
2548.00,0.4162
2547.00,0.4156
2546.00,0.4150
2545.00,0.4144
2544.00,0.4138
2543.00,0.4132
2542.00,0.4127
2541.00,0.4122
2540.00,0.4118
2539.00,0.4114
2538.00,0.4111
2537.00,0.4108
2536.00,0.4107
2535.00,0.4107
2534.00,0.4106
2533.00,0.4106
2532.00,0.4105
2531.00,0.4104
2530.00,0.4102
2529.00,0.4099
2528.00,0.4096
2527.00,0.4093
2526.00,0.4090
2525.00,0.4086
2524.00,0.4082
2523.00,0.4078
2522.00,0.4073
2521.00,0.4068
2520.00,0.4062
2519.00,0.4056
2518.00,0.4049
2517.00,0.4042
2516.00,0.4035
2515.00,0.4027
2514.00,0.4019
2513.00,0.4011
2512.00,0.4002
2511.00,0.3993
2510.00,0.3983
2509.00,0.3973
2508.00,0.3963
2507.00,0.3953
2506.00,0.3942
2505.00,0.3930
2504.00,0.3919
2503.00,0.3908
2502.00,0.3896
2501.00,0.3885
2500.00,0.3874
2499.00,0.3862
2498.00,0.3852
2497.00,0.3841
2496.00,0.3832
2495.00,0.3822
2494.00,0.3812
2493.00,0.3802
2492.00,0.3793
2491.00,0.3785
2490.00,0.3777
2489.00,0.3769
2488.00,0.3763
2487.00,0.3756
2486.00,0.3749
2485.00,0.3743
2484.00,0.3738
2483.00,0.3733
2482.00,0.3727
2481.00,0.3722
2480.00,0.3717
2479.00,0.3712
2478.00,0.3707
2477.00,0.3701
2476.00,0.3696
2475.00,0.3691
2474.00,0.3686
2473.00,0.3681
2472.00,0.3676
2471.00,0.3671
2470.00,0.3666
2469.00,0.3661
2468.00,0.3657
2467.00,0.3653
2466.00,0.3650
2465.00,0.3647
2464.00,0.3644
2463.00,0.3641
2462.00,0.3638
2461.00,0.3636
2460.00,0.3634
2459.00,0.3633
2458.00,0.3632
2457.00,0.3632
2456.00,0.3632
2455.00,0.3631
2454.00,0.3631
2453.00,0.3631
2452.00,0.3631
2451.00,0.3631
2450.00,0.3631
2449.00,0.3631
2448.00,0.3632
2447.00,0.3632
2446.00,0.3632
2445.00,0.3633
2444.00,0.3633
2443.00,0.3634
2442.00,0.3635
2441.00,0.3635
2440.00,0.3635
2439.00,0.3635
2438.00,0.3635
2437.00,0.3636
2436.00,0.3638
2435.00,0.3639
2434.00,0.3639
2433.00,0.3639
2432.00,0.3640
2431.00,0.3639
2430.00,0.3640
2429.00,0.3640
2428.00,0.3641
2427.00,0.3642
2426.00,0.3643
2425.00,0.3644
2424.00,0.3645
2423.00,0.3646
2422.00,0.3648
2421.00,0.3649
2420.00,0.3650
2419.00,0.3652
2418.00,0.3653
2417.00,0.3655
2416.00,0.3657
2415.00,0.3659
2414.00,0.3660
2413.00,0.3662
2412.00,0.3663
2411.00,0.3664
2410.00,0.3664
2409.00,0.3666
2408.00,0.3667
2407.00,0.3668
2406.00,0.3669
2405.00,0.3670
2404.00,0.3671
2403.00,0.3672
2402.00,0.3672
2401.00,0.3672
2400.00,0.3673
2399.00,0.3672
2398.00,0.3672
2397.00,0.3672
2396.00,0.3671
2395.00,0.3671
2394.00,0.3670
2393.00,0.3669
2392.00,0.3668
2391.00,0.3666
2390.00,0.3665
2389.00,0.3664
2388.00,0.3663
2387.00,0.3662
2386.00,0.3661
2385.00,0.3660
2384.00,0.3659
2383.00,0.3659
2382.00,0.3659
2381.00,0.3659
2380.00,0.3660
2379.00,0.3660
2378.00,0.3661
2377.00,0.3662
2376.00,0.3664
2375.00,0.3664
2374.00,0.3667
2373.00,0.3665
2372.00,0.3672
2371.00,0.3662
2370.00,0.3693
2369.00,0.3755
2368.00,0.3742
2367.00,0.3747
2366.00,0.3742
2365.00,0.3742
2364.00,0.3740
2363.00,0.3740
2362.00,0.3739
2361.00,0.3739
2360.00,0.3738
2359.00,0.3739
2358.00,0.3740
2357.00,0.3743
2356.00,0.3746
2355.00,0.3748
2354.00,0.3750
2353.00,0.3753
2352.00,0.3757
2351.00,0.3761
2350.00,0.3764
2349.00,0.3766
2348.00,0.3759
2347.00,0.3759
2346.00,0.3740
2345.00,0.3709
2344.00,0.3717
2343.00,0.3714
2342.00,0.3716
2341.00,0.3715
2340.00,0.3716
2339.00,0.3716
2338.00,0.3717
2337.00,0.3717
2336.00,0.3717
2335.00,0.3717
2334.00,0.3717
2333.00,0.3714
2332.00,0.3715
2331.00,0.3707
2330.00,0.3722
2329.00,0.3754
2328.00,0.3749
2327.00,0.3753
2326.00,0.3750
2325.00,0.3748
2324.00,0.3745
2323.00,0.3743
2322.00,0.3742
2321.00,0.3742
2320.00,0.3741
2319.00,0.3737
2318.00,0.3732
2317.00,0.3726
2316.00,0.3720
2315.00,0.3713
2314.00,0.3706
2313.00,0.3702
2312.00,0.3698
2311.00,0.3696
2310.00,0.3693
2309.00,0.3688
2308.00,0.3682
2307.00,0.3676
2306.00,0.3669
2305.00,0.3663
2304.00,0.3658
2303.00,0.3653
2302.00,0.3648
2301.00,0.3643
2300.00,0.3639
2299.00,0.3634
2298.00,0.3629
2297.00,0.3625
2296.00,0.3622
2295.00,0.3618
2294.00,0.3613
2293.00,0.3609
2292.00,0.3604
2291.00,0.3600
2290.00,0.3595
2289.00,0.3590
2288.00,0.3586
2287.00,0.3581
2286.00,0.3576
2285.00,0.3572
2284.00,0.3567
2283.00,0.3563
2282.00,0.3559
2281.00,0.3555
2280.00,0.3551
2279.00,0.3547
2278.00,0.3543
2277.00,0.3539
2276.00,0.3535
2275.00,0.3532
2274.00,0.3529
2273.00,0.3526
2272.00,0.3523
2271.00,0.3519
2270.00,0.3515
2269.00,0.3510
2268.00,0.3507
2267.00,0.3503
2266.00,0.3500
2265.00,0.3497
2264.00,0.3494
2263.00,0.3491
2262.00,0.3488
2261.00,0.3484
2260.00,0.3482
2259.00,0.3479
2258.00,0.3477
2257.00,0.3475
2256.00,0.3473
2255.00,0.3471
2254.00,0.3468
2253.00,0.3466
2252.00,0.3464
2251.00,0.3462
2250.00,0.3460
2249.00,0.3458
2248.00,0.3457
2247.00,0.3455
2246.00,0.3453
2245.00,0.3452
2244.00,0.3450
2243.00,0.3448
2242.00,0.3446
2241.00,0.3444
2240.00,0.3442
2239.00,0.3440
2238.00,0.3438
2237.00,0.3436
2236.00,0.3435
2235.00,0.3433
2234.00,0.3431
2233.00,0.3430
2232.00,0.3428
2231.00,0.3427
2230.00,0.3426
2229.00,0.3425
2228.00,0.3424
2227.00,0.3422
2226.00,0.3420
2225.00,0.3418
2224.00,0.3416
2223.00,0.3414
2222.00,0.3412
2221.00,0.3410
2220.00,0.3409
2219.00,0.3407
2218.00,0.3405
2217.00,0.3404
2216.00,0.3403
2215.00,0.3402
2214.00,0.3401
2213.00,0.3401
2212.00,0.3400
2211.00,0.3400
2210.00,0.3400
2209.00,0.3400
2208.00,0.3402
2207.00,0.3403
2206.00,0.3404
2205.00,0.3405
2204.00,0.3406
2203.00,0.3407
2202.00,0.3408
2201.00,0.3409
2200.00,0.3410
2199.00,0.3412
2198.00,0.3413
2197.00,0.3414
2196.00,0.3415
2195.00,0.3416
2194.00,0.3417
2193.00,0.3417
2192.00,0.3418
2191.00,0.3418
2190.00,0.3418
2189.00,0.3417
2188.00,0.3417
2187.00,0.3417
2186.00,0.3417
2185.00,0.3417
2184.00,0.3417
2183.00,0.3416
2182.00,0.3415
2181.00,0.3415
2180.00,0.3415
2179.00,0.3414
2178.00,0.3413
2177.00,0.3412
2176.00,0.3411
2175.00,0.3411
2174.00,0.3410
2173.00,0.3410
2172.00,0.3410
2171.00,0.3410
2170.00,0.3410
2169.00,0.3409
2168.00,0.3409
2167.00,0.3409
2166.00,0.3408
2165.00,0.3408
2164.00,0.3407
2163.00,0.3407
2162.00,0.3406
2161.00,0.3406
2160.00,0.3407
2159.00,0.3407
2158.00,0.3407
2157.00,0.3408
2156.00,0.3407
2155.00,0.3407
2154.00,0.3407
2153.00,0.3406
2152.00,0.3406
2151.00,0.3405
2150.00,0.3404
2149.00,0.3403
2148.00,0.3400
2147.00,0.3397
2146.00,0.3394
2145.00,0.3390
2144.00,0.3386
2143.00,0.3382
2142.00,0.3378
2141.00,0.3374
2140.00,0.3371
2139.00,0.3368
2138.00,0.3365
2137.00,0.3363
2136.00,0.3361
2135.00,0.3359
2134.00,0.3358
2133.00,0.3357
2132.00,0.3356
2131.00,0.3355
2130.00,0.3355
2129.00,0.3354
2128.00,0.3353
2127.00,0.3351
2126.00,0.3350
2125.00,0.3349
2124.00,0.3348
2123.00,0.3347
2122.00,0.3346
2121.00,0.3345
2120.00,0.3344
2119.00,0.3344
2118.00,0.3343
2117.00,0.3343
2116.00,0.3343
2115.00,0.3343
2114.00,0.3342
2113.00,0.3341
2112.00,0.3339
2111.00,0.3338
2110.00,0.3337
2109.00,0.3336
2108.00,0.3335
2107.00,0.3335
2106.00,0.3334
2105.00,0.3334
2104.00,0.3334
2103.00,0.3333
2102.00,0.3332
2101.00,0.3331
2100.00,0.3330
2099.00,0.3329
2098.00,0.3329
2097.00,0.3329
2096.00,0.3329
2095.00,0.3329
2094.00,0.3329
2093.00,0.3329
2092.00,0.3330
2091.00,0.3331
2090.00,0.3332
2089.00,0.3332
2088.00,0.3332
2087.00,0.3332
2086.00,0.3331
2085.00,0.3331
2084.00,0.3331
2083.00,0.3331
2082.00,0.3331
2081.00,0.3331
2080.00,0.3331
2079.00,0.3332
2078.00,0.3333
2077.00,0.3333
2076.00,0.3334
2075.00,0.3335
2074.00,0.3336
2073.00,0.3337
2072.00,0.3338
2071.00,0.3339
2070.00,0.3339
2069.00,0.3339
2068.00,0.3340
2067.00,0.3341
2066.00,0.3345
2065.00,0.3344
2064.00,0.3342
2063.00,0.3344
2062.00,0.3345
2061.00,0.3348
2060.00,0.3350
2059.00,0.3351
2058.00,0.3353
2057.00,0.3355
2056.00,0.3357
2055.00,0.3360
2054.00,0.3362
2053.00,0.3364
2052.00,0.3367
2051.00,0.3369
2050.00,0.3371
2049.00,0.3374
2048.00,0.3378
2047.00,0.3381
2046.00,0.3384
2045.00,0.3387
2044.00,0.3391
2043.00,0.3395
2042.00,0.3400
2041.00,0.3404
2040.00,0.3408
2039.00,0.3409
2038.00,0.3409
2037.00,0.3410
2036.00,0.3411
2035.00,0.3412
2034.00,0.3413
2033.00,0.3414
2032.00,0.3415
2031.00,0.3416
2030.00,0.3417
2029.00,0.3417
2028.00,0.3417
2027.00,0.3417
2026.00,0.3418
2025.00,0.3418
2024.00,0.3418
2023.00,0.3417
2022.00,0.3414
2021.00,0.3410
2020.00,0.3406
2019.00,0.3401
2018.00,0.3397
2017.00,0.3391
2016.00,0.3383
2015.00,0.3372
2014.00,0.3360
2013.00,0.3348
2012.00,0.3338
2011.00,0.3330
2010.00,0.3323
2009.00,0.3317
2008.00,0.3312
2007.00,0.3307
2006.00,0.3302
2005.00,0.3297
2004.00,0.3292
2003.00,0.3288
2002.00,0.3284
2001.00,0.3281
2000.00,0.3278
1999.00,0.3276
1998.00,0.3273
1997.00,0.3271
1996.00,0.3269
1995.00,0.3267
1994.00,0.3265
1993.00,0.3263
1992.00,0.3261
1991.00,0.3259
1990.00,0.3258
1989.00,0.3255
1988.00,0.3262
1987.00,0.3265
1986.00,0.3259
1985.00,0.3257
1984.00,0.3254
1983.00,0.3252
1982.00,0.3250
1981.00,0.3249
1980.00,0.3249
1979.00,0.3248
1978.00,0.3248
1977.00,0.3248
1976.00,0.3248
1975.00,0.3249
1974.00,0.3249
1973.00,0.3250
1972.00,0.3251
1971.00,0.3251
1970.00,0.3252
1969.00,0.3253
1968.00,0.3254
1967.00,0.3254
1966.00,0.3254
1965.00,0.3254
1964.00,0.3255
1963.00,0.3255
1962.00,0.3254
1961.00,0.3254
1960.00,0.3254
1959.00,0.3255
1958.00,0.3256
1957.00,0.3256
1956.00,0.3257
1955.00,0.3257
1954.00,0.3258
1953.00,0.3258
1952.00,0.3258
1951.00,0.3258
1950.00,0.3259
1949.00,0.3259
1948.00,0.3261
1947.00,0.3262
1946.00,0.3263
1945.00,0.3265
1944.00,0.3268
1943.00,0.3273
1942.00,0.3278
1941.00,0.3280
1940.00,0.3279
1939.00,0.3276
1938.00,0.3274
1937.00,0.3274
1936.00,0.3275
1935.00,0.3277
1934.00,0.3280
1933.00,0.3282
1932.00,0.3285
1931.00,0.3288
1930.00,0.3290
1929.00,0.3293
1928.00,0.3297
1927.00,0.3302
1926.00,0.3307
1925.00,0.3314
1924.00,0.3324
1923.00,0.3337
1922.00,0.3349
1921.00,0.3355
1920.00,0.3358
1919.00,0.3361
1918.00,0.3367
1917.00,0.3379
1916.00,0.3392
1915.00,0.3403
1914.00,0.3413
1913.00,0.3423
1912.00,0.3436
1911.00,0.3452
1910.00,0.3469
1909.00,0.3487
1908.00,0.3501
1907.00,0.3511
1906.00,0.3516
1905.00,0.3518
1904.00,0.3518
1903.00,0.3516
1902.00,0.3511
1901.00,0.3504
1900.00,0.3494
1899.00,0.3482
1898.00,0.3469
1897.00,0.3456
1896.00,0.3445
1895.00,0.3435
1894.00,0.3425
1893.00,0.3414
1892.00,0.3402
1891.00,0.3392
1890.00,0.3384
1889.00,0.3379
1888.00,0.3375
1887.00,0.3371
1886.00,0.3365
1885.00,0.3360
1884.00,0.3356
1883.00,0.3353
1882.00,0.3350
1881.00,0.3347
1880.00,0.3346
1879.00,0.3345
1878.00,0.3344
1877.00,0.3342
1876.00,0.3340
1875.00,0.3339
1874.00,0.3338
1873.00,0.3338
1872.00,0.3339
1871.00,0.3339
1870.00,0.3338
1869.00,0.3340
1868.00,0.3345
1867.00,0.3350
1866.00,0.3352
1865.00,0.3350
1864.00,0.3348
1863.00,0.3346
1862.00,0.3346
1861.00,0.3347
1860.00,0.3348
1859.00,0.3349
1858.00,0.3349
1857.00,0.3350
1856.00,0.3350
1855.00,0.3350
1854.00,0.3350
1853.00,0.3350
1852.00,0.3352
1851.00,0.3355
1850.00,0.3359
1849.00,0.3366
1848.00,0.3374
1847.00,0.3381
1846.00,0.3385
1845.00,0.3388
1844.00,0.3394
1843.00,0.3404
1842.00,0.3413
1841.00,0.3414
1840.00,0.3409
1839.00,0.3405
1838.00,0.3405
1837.00,0.3409
1836.00,0.3415
1835.00,0.3420
1834.00,0.3424
1833.00,0.3426
1832.00,0.3426
1831.00,0.3424
1830.00,0.3423
1829.00,0.3430
1828.00,0.3443
1827.00,0.3455
1826.00,0.3464
1825.00,0.3474
1824.00,0.3486
1823.00,0.3497
1822.00,0.3504
1821.00,0.3510
1820.00,0.3515
1819.00,0.3524
1818.00,0.3534
1817.00,0.3546
1816.00,0.3558
1815.00,0.3568
1814.00,0.3578
1813.00,0.3591
1812.00,0.3607
1811.00,0.3625
1810.00,0.3644
1809.00,0.3664
1808.00,0.3687
1807.00,0.3711
1806.00,0.3736
1805.00,0.3762
1804.00,0.3796
1803.00,0.3837
1802.00,0.3884
1801.00,0.3929
1800.00,0.3967
1799.00,0.4001
1798.00,0.4035
1797.00,0.4071
1796.00,0.4103
1795.00,0.4128
1794.00,0.4145
1793.00,0.4157
1792.00,0.4169
1791.00,0.4181
1790.00,0.4187
1789.00,0.4182
1788.00,0.4172
1787.00,0.4165
1786.00,0.4166
1785.00,0.4174
1784.00,0.4185
1783.00,0.4195
1782.00,0.4202
1781.00,0.4213
1780.00,0.4228
1779.00,0.4248
1778.00,0.4267
1777.00,0.4285
1776.00,0.4305
1775.00,0.4330
1774.00,0.4362
1773.00,0.4398
1772.00,0.4436
1771.00,0.4477
1770.00,0.4525
1769.00,0.4585
1768.00,0.4658
1767.00,0.4736
1766.00,0.4809
1765.00,0.4880
1764.00,0.4966
1763.00,0.5082
1762.00,0.5234
1761.00,0.5417
1760.00,0.5621
1759.00,0.5848
1758.00,0.6125
1757.00,0.6478
1756.00,0.6908
1755.00,0.7391
1754.00,0.7931
1753.00,0.8580
1752.00,0.9409
1751.00,1.0446
1750.00,1.1659
1749.00,1.3013
1748.00,1.4497
1747.00,1.6110
1746.00,1.7871
1745.00,1.9795
1744.00,2.1841
1743.00,2.3886
1742.00,2.6009
1741.00,2.8527
1740.00,3.1064
1739.00,3.2573
1738.00,3.3845
1737.00,3.5734
1736.00,3.5828
1735.00,3.4242
1734.00,3.4348
1733.00,3.5314
1732.00,3.3480
1731.00,3.1081
1730.00,2.9485
1729.00,2.7827
1728.00,2.5770
1727.00,2.3788
1726.00,2.2031
1725.00,2.0308
1724.00,1.8607
1723.00,1.7093
1722.00,1.5835
1721.00,1.4754
1720.00,1.3729
1719.00,1.2703
1718.00,1.1707
1717.00,1.0819
1716.00,1.0066
1715.00,0.9413
1714.00,0.8838
1713.00,0.8342
1712.00,0.7917
1711.00,0.7548
1710.00,0.7224
1709.00,0.6944
1708.00,0.6698
1707.00,0.6473
1706.00,0.6270
1705.00,0.6109
1704.00,0.5997
1703.00,0.5916
1702.00,0.5845
1701.00,0.5761
1700.00,0.5675
1699.00,0.5637
1698.00,0.5643
1697.00,0.5655
1696.00,0.5655
1695.00,0.5633
1694.00,0.5593
1693.00,0.5539
1692.00,0.5481
1691.00,0.5436
1690.00,0.5406
1689.00,0.5388
1688.00,0.5378
1687.00,0.5380
1686.00,0.5389
1685.00,0.5390
1684.00,0.5375
1683.00,0.5355
1682.00,0.5338
1681.00,0.5331
1680.00,0.5337
1679.00,0.5344
1678.00,0.5346
1677.00,0.5345
1676.00,0.5348
1675.00,0.5359
1674.00,0.5385
1673.00,0.5421
1672.00,0.5453
1671.00,0.5483
1670.00,0.5520
1669.00,0.5578
1668.00,0.5653
1667.00,0.5726
1666.00,0.5788
1665.00,0.5847
1664.00,0.5914
1663.00,0.5994
1662.00,0.6091
1661.00,0.6205
1660.00,0.6327
1659.00,0.6448
1658.00,0.6569
1657.00,0.6693
1656.00,0.6832
1655.00,0.7008
1654.00,0.7254
1653.00,0.7593
1652.00,0.7960
1651.00,0.8246
1650.00,0.8437
1649.00,0.8641
1648.00,0.8989
1647.00,0.9530
1646.00,1.0221
1645.00,1.0990
1644.00,1.1803
1643.00,1.2680
1642.00,1.3696
1641.00,1.4949
1640.00,1.6465
1639.00,1.8176
1638.00,2.0043
1637.00,2.2283
1636.00,2.5252
1635.00,2.8606
1634.00,3.0916
1633.00,3.2594
1632.00,3.3945
1631.00,3.1761
1630.00,2.7920
1629.00,2.4547
1628.00,2.1663
1627.00,1.9239
1626.00,1.7264
1625.00,1.5634
1624.00,1.4243
1623.00,1.3107
1622.00,1.2291
1621.00,1.1771
1620.00,1.1449
1619.00,1.1260
1618.00,1.1212
1617.00,1.1341
1616.00,1.1632
1615.00,1.2010
1614.00,1.2427
1613.00,1.2894
1612.00,1.3389
1611.00,1.3807
1610.00,1.4029
1609.00,1.4011
1608.00,1.3760
1607.00,1.3333
1606.00,1.2842
1605.00,1.2391
1604.00,1.2018
1603.00,1.1728
1602.00,1.1534
1601.00,1.1447
1600.00,1.1452
1599.00,1.1530
1598.00,1.1686
1597.00,1.1944
1596.00,1.2308
1595.00,1.2756
1594.00,1.3270
1593.00,1.3845
1592.00,1.4462
1591.00,1.5079
1590.00,1.5674
1589.00,1.6264
1588.00,1.6838
1587.00,1.7325
1586.00,1.7688
1585.00,1.7944
1584.00,1.8061
1583.00,1.7957
1582.00,1.7681
1581.00,1.7404
1580.00,1.7226
1579.00,1.7157
1578.00,1.7225
1577.00,1.7496
1576.00,1.7934
1575.00,1.8335
1574.00,1.8583
1573.00,1.8764
1572.00,1.8933
1571.00,1.9015
1570.00,1.8973
1569.00,1.8917
1568.00,1.8867
1567.00,1.8693
1566.00,1.8355
1565.00,1.7938
1564.00,1.7498
1563.00,1.7031
1562.00,1.6547
1561.00,1.6028
1560.00,1.5326
1559.00,1.4417
1558.00,1.3631
1557.00,1.3124
1556.00,1.2752
1555.00,1.2378
1554.00,1.1998
1553.00,1.1659
1552.00,1.1367
1551.00,1.1092
1550.00,1.0829
1549.00,1.0596
1548.00,1.0400
1547.00,1.0228
1546.00,1.0074
1545.00,0.9944
1544.00,0.9839
1543.00,0.9745
1542.00,0.9661
1541.00,0.9600
1540.00,0.9575
1539.00,0.9573
1538.00,0.9579
1537.00,0.9576
1536.00,0.9562
1535.00,0.9564
1534.00,0.9614
1533.00,0.9729
1532.00,0.9893
1531.00,1.0079
1530.00,1.0289
1529.00,1.0546
1528.00,1.0869
1527.00,1.1274
1526.00,1.1759
1525.00,1.2300
1524.00,1.2875
1523.00,1.3504
1522.00,1.4236
1521.00,1.5001
1520.00,1.5559
1519.00,1.5735
1518.00,1.5565
1517.00,1.5157
1516.00,1.4632
1515.00,1.4093
1514.00,1.3593
1513.00,1.3153
1512.00,1.2787
1511.00,1.2509
1510.00,1.2323
1509.00,1.2221
1508.00,1.2184
1507.00,1.2185
1506.00,1.2202
1505.00,1.2251
1504.00,1.2344
1503.00,1.2461
1502.00,1.2613
1501.00,1.2823
1500.00,1.3081
1499.00,1.3360
1498.00,1.3656
1497.00,1.3968
1496.00,1.4264
1495.00,1.4496
1494.00,1.4660
1493.00,1.4794
1492.00,1.4927
1491.00,1.5064
1490.00,1.5210
1489.00,1.5373
1488.00,1.5544
1487.00,1.5717
1486.00,1.5917
1485.00,1.6170
1484.00,1.6473
1483.00,1.6825
1482.00,1.7256
1481.00,1.7795
1480.00,1.8417
1479.00,1.9081
1478.00,1.9817
1477.00,2.0717
1476.00,2.1832
1475.00,2.3167
1474.00,2.4825
1473.00,2.7077
1472.00,3.0006
1471.00,3.3022
1470.00,3.5752
1469.00,3.9474
1468.00,4.4143
1467.00,4.4419
1466.00,4.2912
1465.00,4.6295
1464.00,4.0513
1463.00,4.1752
1462.00,4.5177
1461.00,4.0149
1460.00,3.8769
1459.00,3.8061
1458.00,3.9848
1457.00,4.1568
1456.00,3.8900
1455.00,4.0370
1454.00,3.8109
1453.00,3.7172
1452.00,3.7030
1451.00,3.6094
1450.00,3.4714
1449.00,3.3872
1448.00,3.3344
1447.00,3.2503
1446.00,3.1418
1445.00,3.0444
1444.00,2.9324
1443.00,2.8014
1442.00,2.6842
1441.00,2.5913
1440.00,2.5060
1439.00,2.4164
1438.00,2.3269
1437.00,2.2444
1436.00,2.1709
1435.00,2.1073
1434.00,2.0514
1433.00,1.9942
1432.00,1.9243
1431.00,1.8385
1430.00,1.7461
1429.00,1.6595
1428.00,1.5862
1427.00,1.5279
1426.00,1.4821
1425.00,1.4459
1424.00,1.4174
1423.00,1.3963
1422.00,1.3817
1421.00,1.3720
1420.00,1.3654
1419.00,1.3613
1418.00,1.3605
1417.00,1.3627
1416.00,1.3681
1415.00,1.3767
1414.00,1.3880
1413.00,1.4004
1412.00,1.4098
1411.00,1.4100
1410.00,1.3950
1409.00,1.3640
1408.00,1.3222
1407.00,1.2771
1406.00,1.2350
1405.00,1.1997
1404.00,1.1726
1403.00,1.1534
1402.00,1.1404
1401.00,1.1317
1400.00,1.1264
1399.00,1.1245
1398.00,1.1253
1397.00,1.1274
1396.00,1.1301
1395.00,1.1333
1394.00,1.1362
1393.00,1.1384
1392.00,1.1401
1391.00,1.1429
1390.00,1.1488
1389.00,1.1614
1388.00,1.1844
1387.00,1.2202
1386.00,1.2679
1385.00,1.3262
1384.00,1.3974
1383.00,1.4860
1382.00,1.5949
1381.00,1.7240
1380.00,1.8662
1379.00,1.9978
1378.00,2.0756
1377.00,2.0707
1376.00,1.9968
1375.00,1.8867
1374.00,1.7714
1373.00,1.6725
1372.00,1.5971
1371.00,1.5424
1370.00,1.5039
1369.00,1.4778
1368.00,1.4601
1367.00,1.4455
1366.00,1.4285
1365.00,1.4057
1364.00,1.3760
1363.00,1.3412
1362.00,1.3059
1361.00,1.2743
1360.00,1.2484
1359.00,1.2283
1358.00,1.2133
1357.00,1.2024
1356.00,1.1949
1355.00,1.1893
1354.00,1.1847
1353.00,1.1806
1352.00,1.1766
1351.00,1.1723
1350.00,1.1678
1349.00,1.1630
1348.00,1.1579
1347.00,1.1523
1346.00,1.1471
1345.00,1.1432
1344.00,1.1410
1343.00,1.1401
1342.00,1.1398
1341.00,1.1388
1340.00,1.1358
1339.00,1.1295
1338.00,1.1197
1337.00,1.1080
1336.00,1.0970
1335.00,1.0892
1334.00,1.0860
1333.00,1.0879
1332.00,1.0942
1331.00,1.1030
1330.00,1.1119
1329.00,1.1192
1328.00,1.1236
1327.00,1.1249
1326.00,1.1235
1325.00,1.1208
1324.00,1.1179
1323.00,1.1160
1322.00,1.1160
1321.00,1.1187
1320.00,1.1244
1319.00,1.1327
1318.00,1.1435
1317.00,1.1565
1316.00,1.1716
1315.00,1.1888
1314.00,1.2074
1313.00,1.2262
1312.00,1.2434
1311.00,1.2571
1310.00,1.2669
1309.00,1.2735
1308.00,1.2785
1307.00,1.2831
1306.00,1.2880
1305.00,1.2924
1304.00,1.2933
1303.00,1.2873
1302.00,1.2728
1301.00,1.2516
1300.00,1.2274
1299.00,1.2032
1298.00,1.1812
1297.00,1.1623
1296.00,1.1469
1295.00,1.1350
1294.00,1.1264
1293.00,1.1209
1292.00,1.1182
1291.00,1.1180
1290.00,1.1199
1289.00,1.1241
1288.00,1.1301
1287.00,1.1380
1286.00,1.1477
1285.00,1.1599
1284.00,1.1747
1283.00,1.1918
1282.00,1.2106
1281.00,1.2307
1280.00,1.2517
1279.00,1.2729
1278.00,1.2935
1277.00,1.3130
1276.00,1.3306
1275.00,1.3453
1274.00,1.3565
1273.00,1.3639
1272.00,1.3670
1271.00,1.3658
1270.00,1.3608
1269.00,1.3541
1268.00,1.3479
1267.00,1.3439
1266.00,1.3433
1265.00,1.3465
1264.00,1.3526
1263.00,1.3608
1262.00,1.3710
1261.00,1.3830
1260.00,1.3960
1259.00,1.4078
1258.00,1.4171
1257.00,1.4247
1256.00,1.4322
1255.00,1.4409
1254.00,1.4518
1253.00,1.4653
1252.00,1.4813
1251.00,1.4986
1250.00,1.5170
1249.00,1.5365
1248.00,1.5566
1247.00,1.5755
1246.00,1.5911
1245.00,1.6010
1244.00,1.6030
1243.00,1.5968
1242.00,1.5865
1241.00,1.5778
1240.00,1.5734
1239.00,1.5725
1238.00,1.5738
1237.00,1.5765
1236.00,1.5796
1235.00,1.5818
1234.00,1.5828
1233.00,1.5827
1232.00,1.5800
1231.00,1.5721
1230.00,1.5587
1229.00,1.5412
1228.00,1.5206
1227.00,1.4968
1226.00,1.4709
1225.00,1.4449
1224.00,1.4200
1223.00,1.3966
1222.00,1.3747
1221.00,1.3547
1220.00,1.3368
1219.00,1.3209
1218.00,1.3072
1217.00,1.2959
1216.00,1.2868
1215.00,1.2792
1214.00,1.2729
1213.00,1.2683
1212.00,1.2658
1211.00,1.2659
1210.00,1.2690
1209.00,1.2753
1208.00,1.2840
1207.00,1.2933
1206.00,1.3012
1205.00,1.3067
1204.00,1.3097
1203.00,1.3113
1202.00,1.3131
1201.00,1.3168
1200.00,1.3225
1199.00,1.3298
1198.00,1.3386
1197.00,1.3493
1196.00,1.3619
1195.00,1.3762
1194.00,1.3920
1193.00,1.4104
1192.00,1.4311
1191.00,1.4524
1190.00,1.4720
1189.00,1.4887
1188.00,1.5025
1187.00,1.5145
1186.00,1.5267
1185.00,1.5411
1184.00,1.5589
1183.00,1.5796
1182.00,1.6033
1181.00,1.6306
1180.00,1.6617
1179.00,1.6961
1178.00,1.7335
1177.00,1.7740
1176.00,1.8166
1175.00,1.8592
1174.00,1.9007
1173.00,1.9420
1172.00,1.9829
1171.00,2.0214
1170.00,2.0566
1169.00,2.0901
1168.00,2.1199
1167.00,2.1413
1166.00,2.1529
1165.00,2.1582
1164.00,2.1578
1163.00,2.1484
1162.00,2.1313
1161.00,2.1120
1160.00,2.0923
1159.00,2.0677
1158.00,2.0348
1157.00,1.9955
1156.00,1.9542
1155.00,1.9134
1154.00,1.8742
1153.00,1.8361
1152.00,1.7969
1151.00,1.7552
1150.00,1.7114
1149.00,1.6657
1148.00,1.6164
1147.00,1.5617
1146.00,1.5022
1145.00,1.4400
1144.00,1.3771
1143.00,1.3149
1142.00,1.2553
1141.00,1.1997
1140.00,1.1492
1139.00,1.1040
1138.00,1.0642
1137.00,1.0293
1136.00,0.9988
1135.00,0.9724
1134.00,0.9497
1133.00,0.9304
1132.00,0.9142
1131.00,0.9006
1130.00,0.8895
1129.00,0.8809
1128.00,0.8742
1127.00,0.8693
1126.00,0.8656
1125.00,0.8631
1124.00,0.8614
1123.00,0.8609
1122.00,0.8615
1121.00,0.8633
1120.00,0.8654
1119.00,0.8670
1118.00,0.8672
1117.00,0.8660
1116.00,0.8644
1115.00,0.8641
1114.00,0.8664
1113.00,0.8705
1112.00,0.8737
1111.00,0.8718
1110.00,0.8618
1109.00,0.8429
1108.00,0.8173
1107.00,0.7889
1106.00,0.7616
1105.00,0.7378
1104.00,0.7185
1103.00,0.7036
1102.00,0.6925
1101.00,0.6843
1100.00,0.6783
1099.00,0.6741
1098.00,0.6711
1097.00,0.6691
1096.00,0.6682
1095.00,0.6684
1094.00,0.6696
1093.00,0.6713
1092.00,0.6731
1091.00,0.6747
1090.00,0.6758
1089.00,0.6765
1088.00,0.6769
1087.00,0.6775
1086.00,0.6788
1085.00,0.6809
1084.00,0.6840
1083.00,0.6884
1082.00,0.6940
1081.00,0.7012
1080.00,0.7098
1079.00,0.7198
1078.00,0.7313
1077.00,0.7442
1076.00,0.7583
1075.00,0.7734
1074.00,0.7890
1073.00,0.8046
1072.00,0.8196
1071.00,0.8334
1070.00,0.8459
1069.00,0.8569
1068.00,0.8665
1067.00,0.8745
1066.00,0.8803
1065.00,0.8830
1064.00,0.8816
1063.00,0.8753
1062.00,0.8641
1061.00,0.8485
1060.00,0.8298
1059.00,0.8094
1058.00,0.7889
1057.00,0.7694
1056.00,0.7517
1055.00,0.7362
1054.00,0.7227
1053.00,0.7110
1052.00,0.7015
1051.00,0.6947
1050.00,0.6910
1049.00,0.6895
1048.00,0.6887
1047.00,0.6866
1046.00,0.6825
1045.00,0.6767
1044.00,0.6704
1043.00,0.6649
1042.00,0.6610
1041.00,0.6593
1040.00,0.6597
1039.00,0.6621
1038.00,0.6663
1037.00,0.6718
1036.00,0.6782
1035.00,0.6851
1034.00,0.6923
1033.00,0.6998
1032.00,0.7073
1031.00,0.7149
1030.00,0.7222
1029.00,0.7290
1028.00,0.7352
1027.00,0.7413
1026.00,0.7477
1025.00,0.7545
1024.00,0.7614
1023.00,0.7670
1022.00,0.7689
1021.00,0.7642
1020.00,0.7520
1019.00,0.7341
1018.00,0.7140
1017.00,0.6951
1016.00,0.6789
1015.00,0.6656
1014.00,0.6548
1013.00,0.6457
1012.00,0.6382
1011.00,0.6321
1010.00,0.6273
1009.00,0.6237
1008.00,0.6210
1007.00,0.6191
1006.00,0.6181
1005.00,0.6177
1004.00,0.6171
1003.00,0.6158
1002.00,0.6131
1001.00,0.6091
1000.00,0.6043
999.00,0.5995
998.00,0.5956
997.00,0.5925
996.00,0.5895
995.00,0.5862
994.00,0.5820
993.00,0.5773
992.00,0.5727
991.00,0.5685
990.00,0.5651
989.00,0.5624
988.00,0.5605
987.00,0.5596
986.00,0.5597
985.00,0.5608
984.00,0.5627
983.00,0.5654
982.00,0.5690
981.00,0.5735
980.00,0.5789
979.00,0.5848
978.00,0.5912
977.00,0.5979
976.00,0.6047
975.00,0.6117
974.00,0.6187
973.00,0.6256
972.00,0.6324
971.00,0.6390
970.00,0.6455
969.00,0.6519
968.00,0.6577
967.00,0.6620
966.00,0.6639
965.00,0.6625
964.00,0.6576
963.00,0.6496
962.00,0.6395
961.00,0.6285
960.00,0.6178
959.00,0.6083
958.00,0.6007
957.00,0.5950
956.00,0.5912
955.00,0.5888
954.00,0.5875
953.00,0.5866
952.00,0.5857
951.00,0.5846
950.00,0.5834
949.00,0.5820
948.00,0.5798
947.00,0.5769
946.00,0.5730
945.00,0.5686
944.00,0.5638
943.00,0.5590
942.00,0.5541
941.00,0.5490
940.00,0.5436
939.00,0.5379
938.00,0.5319
937.00,0.5257
936.00,0.5193
935.00,0.5129
934.00,0.5067
933.00,0.5007
932.00,0.4953
931.00,0.4905
930.00,0.4865
929.00,0.4832
928.00,0.4809
927.00,0.4798
926.00,0.4802
925.00,0.4819
924.00,0.4844
923.00,0.4871
922.00,0.4890
921.00,0.4896
920.00,0.4884
919.00,0.4859
918.00,0.4824
917.00,0.4783
916.00,0.4743
915.00,0.4711
914.00,0.4690
913.00,0.4683
912.00,0.4686
911.00,0.4694
910.00,0.4701
909.00,0.4698
908.00,0.4685
907.00,0.4666
906.00,0.4649
905.00,0.4637
904.00,0.4632
903.00,0.4636
902.00,0.4650
901.00,0.4675
900.00,0.4713
899.00,0.4763
898.00,0.4822
897.00,0.4885
896.00,0.4949
895.00,0.5016
894.00,0.5090
893.00,0.5166
892.00,0.5225
891.00,0.5249
890.00,0.5226
889.00,0.5162
888.00,0.5078
887.00,0.4998
886.00,0.4939
885.00,0.4911
884.00,0.4914
883.00,0.4952
882.00,0.5027
881.00,0.5146
880.00,0.5320
879.00,0.5572
878.00,0.5929
877.00,0.6416
876.00,0.7051
875.00,0.7812
874.00,0.8552
873.00,0.8952
872.00,0.8739
871.00,0.8055
870.00,0.7299
869.00,0.6732
868.00,0.6405
867.00,0.6247
866.00,0.6151
865.00,0.6033
864.00,0.5863
863.00,0.5657
862.00,0.5447
861.00,0.5266
860.00,0.5129
859.00,0.5037
858.00,0.4984
857.00,0.4951
856.00,0.4920
855.00,0.4879
854.00,0.4832
853.00,0.4791
852.00,0.4770
851.00,0.4778
850.00,0.4811
849.00,0.4861
848.00,0.4911
847.00,0.4952
846.00,0.4982
845.00,0.5007
844.00,0.5031
843.00,0.5051
842.00,0.5061
841.00,0.5060
840.00,0.5051
839.00,0.5036
838.00,0.5015
837.00,0.4991
836.00,0.4968
835.00,0.4949
834.00,0.4939
833.00,0.4937
832.00,0.4943
831.00,0.4953
830.00,0.4965
829.00,0.4974
828.00,0.4977
827.00,0.4973
826.00,0.4960
825.00,0.4940
824.00,0.4911
823.00,0.4875
822.00,0.4832
821.00,0.4784
820.00,0.4732
819.00,0.4679
818.00,0.4630
817.00,0.4588
816.00,0.4555
815.00,0.4532
814.00,0.4518
813.00,0.4509
812.00,0.4504
811.00,0.4500
810.00,0.4495
809.00,0.4490
808.00,0.4485
807.00,0.4481
806.00,0.4478
805.00,0.4473
804.00,0.4467
803.00,0.4459
802.00,0.4451
801.00,0.4443
800.00,0.4434
799.00,0.4422
798.00,0.4405
797.00,0.4381
796.00,0.4356
795.00,0.4334
794.00,0.4319
793.00,0.4315
792.00,0.4323
791.00,0.4342
790.00,0.4372
789.00,0.4409
788.00,0.4451
787.00,0.4501
786.00,0.4558
785.00,0.4621
784.00,0.4690
783.00,0.4765
782.00,0.4852
781.00,0.4952
780.00,0.5062
779.00,0.5179
778.00,0.5298
777.00,0.5418
776.00,0.5543
775.00,0.5680
774.00,0.5832
773.00,0.5986
772.00,0.6113
771.00,0.6182
770.00,0.6181
769.00,0.6132
768.00,0.6073
767.00,0.6036
766.00,0.6032
765.00,0.6054
764.00,0.6086
763.00,0.6119
762.00,0.6149
761.00,0.6182
760.00,0.6224
759.00,0.6282
758.00,0.6356
757.00,0.6440
756.00,0.6517
755.00,0.6573
754.00,0.6600
753.00,0.6601
752.00,0.6590
751.00,0.6580
750.00,0.6581
749.00,0.6597
748.00,0.6621
747.00,0.6641
746.00,0.6653
745.00,0.6659
744.00,0.6669
743.00,0.6695
742.00,0.6744
741.00,0.6814
740.00,0.6895
739.00,0.6974
738.00,0.7047
737.00,0.7115
736.00,0.7185
735.00,0.7277
734.00,0.7423
733.00,0.7647
732.00,0.7931
731.00,0.8208
730.00,0.8411
729.00,0.8540
728.00,0.8669
727.00,0.8880
726.00,0.9207
725.00,0.9631
724.00,1.0105
723.00,1.0579
722.00,1.0975
721.00,1.1158
720.00,1.0982
719.00,1.0436
718.00,0.9693
717.00,0.8963
716.00,0.8369
715.00,0.7928
714.00,0.7590
713.00,0.7291
712.00,0.6997
711.00,0.6709
710.00,0.6440
709.00,0.6205
708.00,0.6005
707.00,0.5835
706.00,0.5686
705.00,0.5552
704.00,0.5437
703.00,0.5346
702.00,0.5285
701.00,0.5253
700.00,0.5246
699.00,0.5261
698.00,0.5290
697.00,0.5323
696.00,0.5356
695.00,0.5387
694.00,0.5415
693.00,0.5438
692.00,0.5456
691.00,0.5470
690.00,0.5479
689.00,0.5481
688.00,0.5478
687.00,0.5476
686.00,0.5478
685.00,0.5483
684.00,0.5491
683.00,0.5502
682.00,0.5518
681.00,0.5539
680.00,0.5566
679.00,0.5596
678.00,0.5628
677.00,0.5660
676.00,0.5693
675.00,0.5728
674.00,0.5763
673.00,0.5798
672.00,0.5830
671.00,0.5863
670.00,0.5900
669.00,0.5944
668.00,0.5982
667.00,0.5993
666.00,0.5971
665.00,0.5941
664.00,0.5918
663.00,0.5900
662.00,0.5882
661.00,0.5862
660.00,0.5835
659.00,0.5802
658.00,0.5762
657.00,0.5716
656.00,0.5668
655.00,0.5618
654.00,0.5565
653.00,0.5508
652.00,0.5450
651.00,0.5393
650.00,0.5338
649.00,0.5284
648.00,0.5231
647.00,0.5181
646.00,0.5137
645.00,0.5105
644.00,0.5091
643.00,0.5099
642.00,0.5122
641.00,0.5141
640.00,0.5141
639.00,0.5116
638.00,0.5074
637.00,0.5018
636.00,0.4956
635.00,0.4896
634.00,0.4843
633.00,0.4798
632.00,0.4757
631.00,0.4722
630.00,0.4694
629.00,0.4671
628.00,0.4651
627.00,0.4634
626.00,0.4623
625.00,0.4615
624.00,0.4609
623.00,0.4606
622.00,0.4606
621.00,0.4604
620.00,0.4599
619.00,0.4596
618.00,0.4597
617.00,0.4599
616.00,0.4596
615.00,0.4591
614.00,0.4590
613.00,0.4599
612.00,0.4611
611.00,0.4613
610.00,0.4594
609.00,0.4553
608.00,0.4497
607.00,0.4440
606.00,0.4390
605.00,0.4347
604.00,0.4310
603.00,0.4284
602.00,0.4272
601.00,0.4270
600.00,0.4269
599.00,0.4268
598.00,0.4269
597.00,0.4275
596.00,0.4285
595.00,0.4298
594.00,0.4310
593.00,0.4319
592.00,0.4328
591.00,0.4339
590.00,0.4354
589.00,0.4372
588.00,0.4392
587.00,0.4414
586.00,0.4437
585.00,0.4458
584.00,0.4478
583.00,0.4497
582.00,0.4516
581.00,0.4530
580.00,0.4535
579.00,0.4538
578.00,0.4546
577.00,0.4560
576.00,0.4572
575.00,0.4576
574.00,0.4572
573.00,0.4564
572.00,0.4558
571.00,0.4558
570.00,0.4563
569.00,0.4569
568.00,0.4575
567.00,0.4584
566.00,0.4598
565.00,0.4620
564.00,0.4652
563.00,0.4701
562.00,0.4771
561.00,0.4859
560.00,0.4955
559.00,0.5049
558.00,0.5123
557.00,0.5160
556.00,0.5154
555.00,0.5119
554.00,0.5079
553.00,0.5050
552.00,0.5039
551.00,0.5046
550.00,0.5063
