Created as New Dataset,
cm-1,A
4000.00,0.3834
3999.00,0.3834
3998.00,0.3833
3997.00,0.3832
3996.00,0.3830
3995.00,0.3828
3994.00,0.3827
3993.00,0.3824
3992.00,0.3822
3991.00,0.3819
3990.00,0.3815
3989.00,0.3811
3988.00,0.3807
3987.00,0.3802
3986.00,0.3797
3985.00,0.3792
3984.00,0.3786
3983.00,0.3781
3982.00,0.3776
3981.00,0.3772
3980.00,0.3768
3979.00,0.3764
3978.00,0.3760
3977.00,0.3756
3976.00,0.3753
3975.00,0.3750
3974.00,0.3747
3973.00,0.3745
3972.00,0.3742
3971.00,0.3738
3970.00,0.3734
3969.00,0.3731
3968.00,0.3727
3967.00,0.3723
3966.00,0.3719
3965.00,0.3715
3964.00,0.3710
3963.00,0.3705
3962.00,0.3699
3961.00,0.3694
3960.00,0.3690
3959.00,0.3686
3958.00,0.3682
3957.00,0.3677
3956.00,0.3673
3955.00,0.3668
3954.00,0.3665
3953.00,0.3662
3952.00,0.3659
3951.00,0.3655
3950.00,0.3652
3949.00,0.3648
3948.00,0.3645
3947.00,0.3642
3946.00,0.3639
3945.00,0.3637
3944.00,0.3636
3943.00,0.3634
3942.00,0.3631
3941.00,0.3629
3940.00,0.3628
3939.00,0.3627
3938.00,0.3625
3937.00,0.3624
3936.00,0.3622
3935.00,0.3621
3934.00,0.3621
3933.00,0.3620
3932.00,0.3619
3931.00,0.3619
3930.00,0.3618
3929.00,0.3617
3928.00,0.3617
3927.00,0.3617
3926.00,0.3617
3925.00,0.3617
3924.00,0.3616
3923.00,0.3615
3922.00,0.3615
3921.00,0.3615
3920.00,0.3614
3919.00,0.3614
3918.00,0.3613
3917.00,0.3612
3916.00,0.3610
3915.00,0.3609
3914.00,0.3608
3913.00,0.3607
3912.00,0.3606
3911.00,0.3604
3910.00,0.3603
3909.00,0.3602
3908.00,0.3601
3907.00,0.3600
3906.00,0.3599
3905.00,0.3597
3904.00,0.3596
3903.00,0.3594
3902.00,0.3593
3901.00,0.3593
3900.00,0.3592
3899.00,0.3591
3898.00,0.3591
3897.00,0.3590
3896.00,0.3590
3895.00,0.3590
3894.00,0.3589
3893.00,0.3588
3892.00,0.3586
3891.00,0.3584
3890.00,0.3582
3889.00,0.3580
3888.00,0.3578
3887.00,0.3577
3886.00,0.3575
3885.00,0.3573
3884.00,0.3572
3883.00,0.3572
3882.00,0.3572
3881.00,0.3572
3880.00,0.3571
3879.00,0.3569
3878.00,0.3569
3877.00,0.3569
3876.00,0.3569
3875.00,0.3568
3874.00,0.3567
3873.00,0.3565
3872.00,0.3564
3871.00,0.3563
3870.00,0.3562
3869.00,0.3560
3868.00,0.3558
3867.00,0.3559
3866.00,0.3559
3865.00,0.3558
3864.00,0.3556
3863.00,0.3554
3862.00,0.3552
3861.00,0.3551
3860.00,0.3551
3859.00,0.3550
3858.00,0.3550
3857.00,0.3549
3856.00,0.3547
3855.00,0.3546
3854.00,0.3545
3853.00,0.3545
3852.00,0.3545
3851.00,0.3544
3850.00,0.3544
3849.00,0.3543
3848.00,0.3541
3847.00,0.3542
3846.00,0.3543
3845.00,0.3545
3844.00,0.3545
3843.00,0.3544
3842.00,0.3543
3841.00,0.3542
3840.00,0.3541
3839.00,0.3541
3838.00,0.3540
3837.00,0.3538
3836.00,0.3536
3835.00,0.3534
3834.00,0.3532
3833.00,0.3529
3832.00,0.3528
3831.00,0.3527
3830.00,0.3526
3829.00,0.3524
3828.00,0.3523
3827.00,0.3521
3826.00,0.3519
3825.00,0.3518
3824.00,0.3517
3823.00,0.3516
3822.00,0.3515
3821.00,0.3512
3820.00,0.3510
3819.00,0.3508
3818.00,0.3507
3817.00,0.3506
3816.00,0.3503
3815.00,0.3499
3814.00,0.3497
3813.00,0.3495
3812.00,0.3494
3811.00,0.3493
3810.00,0.3491
3809.00,0.3490
3808.00,0.3489
3807.00,0.3487
3806.00,0.3485
3805.00,0.3483
3804.00,0.3483
3803.00,0.3483
3802.00,0.3482
3801.00,0.3479
3800.00,0.3477
3799.00,0.3475
3798.00,0.3474
3797.00,0.3472
3796.00,0.3470
3795.00,0.3468
3794.00,0.3467
3793.00,0.3466
3792.00,0.3465
3791.00,0.3463
3790.00,0.3462
3789.00,0.3461
3788.00,0.3460
3787.00,0.3459
3786.00,0.3458
3785.00,0.3457
3784.00,0.3456
3783.00,0.3456
3782.00,0.3456
3781.00,0.3456
3780.00,0.3456
3779.00,0.3456
3778.00,0.3455
3777.00,0.3454
3776.00,0.3455
3775.00,0.3455
3774.00,0.3455
3773.00,0.3455
3772.00,0.3456
3771.00,0.3456
3770.00,0.3456
3769.00,0.3456
3768.00,0.3456
3767.00,0.3457
3766.00,0.3457
3765.00,0.3456
3764.00,0.3455
3763.00,0.3454
3762.00,0.3454
3761.00,0.3452
3760.00,0.3450
3759.00,0.3448
3758.00,0.3446
3757.00,0.3445
3756.00,0.3443
3755.00,0.3441
3754.00,0.3439
3753.00,0.3437
3752.00,0.3434
3751.00,0.3431
3750.00,0.3430
3749.00,0.3428
3748.00,0.3427
3747.00,0.3426
3746.00,0.3426
3745.00,0.3426
3744.00,0.3425
3743.00,0.3424
3742.00,0.3424
3741.00,0.3425
3740.00,0.3424
3739.00,0.3423
3738.00,0.3423
3737.00,0.3423
3736.00,0.3422
3735.00,0.3421
3734.00,0.3420
3733.00,0.3420
3732.00,0.3419
3731.00,0.3418
3730.00,0.3416
3729.00,0.3415
3728.00,0.3415
3727.00,0.3414
3726.00,0.3413
3725.00,0.3412
3724.00,0.3411
3723.00,0.3411
3722.00,0.3411
3721.00,0.3410
3720.00,0.3409
3719.00,0.3409
3718.00,0.3408
3717.00,0.3408
3716.00,0.3407
3715.00,0.3406
3714.00,0.3406
3713.00,0.3406
3712.00,0.3406
3711.00,0.3407
3710.00,0.3407
3709.00,0.3408
3708.00,0.3409
3707.00,0.3409
3706.00,0.3409
3705.00,0.3410
3704.00,0.3411
3703.00,0.3412
3702.00,0.3413
3701.00,0.3414
3700.00,0.3415
3699.00,0.3417
3698.00,0.3419
3697.00,0.3421
3696.00,0.3423
3695.00,0.3424
3694.00,0.3426
3693.00,0.3427
3692.00,0.3428
3691.00,0.3429
3690.00,0.3430
3689.00,0.3431
3688.00,0.3432
3687.00,0.3433
3686.00,0.3434
3685.00,0.3435
3684.00,0.3436
3683.00,0.3437
3682.00,0.3438
3681.00,0.3438
3680.00,0.3438
3679.00,0.3437
3678.00,0.3436
3677.00,0.3436
3676.00,0.3436
3675.00,0.3435
3674.00,0.3434
3673.00,0.3434
3672.00,0.3434
3671.00,0.3435
3670.00,0.3435
3669.00,0.3435
3668.00,0.3437
3667.00,0.3440
3666.00,0.3442
3665.00,0.3444
3664.00,0.3446
3663.00,0.3449
3662.00,0.3452
3661.00,0.3455
3660.00,0.3458
3659.00,0.3461
3658.00,0.3464
3657.00,0.3468
3656.00,0.3471
3655.00,0.3475
3654.00,0.3478
3653.00,0.3481
3652.00,0.3485
3651.00,0.3489
3650.00,0.3493
3649.00,0.3498
3648.00,0.3504
3647.00,0.3509
3646.00,0.3512
3645.00,0.3516
3644.00,0.3520
3643.00,0.3525
3642.00,0.3531
3641.00,0.3539
3640.00,0.3548
3639.00,0.3557
3638.00,0.3567
3637.00,0.3576
3636.00,0.3587
3635.00,0.3597
3634.00,0.3608
3633.00,0.3618
3632.00,0.3632
3631.00,0.3652
3630.00,0.3682
3629.00,0.3720
3628.00,0.3761
3627.00,0.3795
3626.00,0.3822
3625.00,0.3837
3624.00,0.3842
3623.00,0.3835
3622.00,0.3819
3621.00,0.3794
3620.00,0.3761
3619.00,0.3725
3618.00,0.3693
3617.00,0.3666
3616.00,0.3646
3615.00,0.3631
3614.00,0.3620
3613.00,0.3613
3612.00,0.3609
3611.00,0.3608
3610.00,0.3608
3609.00,0.3608
3608.00,0.3609
3607.00,0.3609
3606.00,0.3609
3605.00,0.3608
3604.00,0.3606
3603.00,0.3603
3602.00,0.3598
3601.00,0.3592
3600.00,0.3585
3599.00,0.3577
3598.00,0.3568
3597.00,0.3559
3596.00,0.3550
3595.00,0.3541
3594.00,0.3532
3593.00,0.3525
3592.00,0.3518
3591.00,0.3513
3590.00,0.3508
3589.00,0.3503
3588.00,0.3499
3587.00,0.3496
3586.00,0.3493
3585.00,0.3491
3584.00,0.3488
3583.00,0.3484
3582.00,0.3480
3581.00,0.3475
3580.00,0.3470
3579.00,0.3465
3578.00,0.3461
3577.00,0.3459
3576.00,0.3456
3575.00,0.3455
3574.00,0.3453
3573.00,0.3452
3572.00,0.3452
3571.00,0.3451
3570.00,0.3450
3569.00,0.3450
3568.00,0.3450
3567.00,0.3451
3566.00,0.3452
3565.00,0.3453
3564.00,0.3454
3563.00,0.3455
3562.00,0.3456
3561.00,0.3457
3560.00,0.3458
3559.00,0.3460
3558.00,0.3462
3557.00,0.3465
3556.00,0.3468
3555.00,0.3471
3554.00,0.3475
3553.00,0.3479
3552.00,0.3483
3551.00,0.3487
3550.00,0.3491
3549.00,0.3495
3548.00,0.3499
3547.00,0.3504
3546.00,0.3509
3545.00,0.3516
3544.00,0.3522
3543.00,0.3529
3542.00,0.3535
3541.00,0.3541
3540.00,0.3547
3539.00,0.3554
3538.00,0.3561
3537.00,0.3567
3536.00,0.3573
3535.00,0.3578
3534.00,0.3583
3533.00,0.3589
3532.00,0.3595
3531.00,0.3601
3530.00,0.3607
3529.00,0.3613
3528.00,0.3619
3527.00,0.3626
3526.00,0.3634
3525.00,0.3641
3524.00,0.3649
3523.00,0.3657
3522.00,0.3664
3521.00,0.3671
3520.00,0.3679
3519.00,0.3687
3518.00,0.3695
3517.00,0.3703
3516.00,0.3711
3515.00,0.3720
3514.00,0.3729
3513.00,0.3738
3512.00,0.3747
3511.00,0.3756
3510.00,0.3765
3509.00,0.3775
3508.00,0.3785
3507.00,0.3794
3506.00,0.3804
3505.00,0.3814
3504.00,0.3825
3503.00,0.3836
3502.00,0.3846
3501.00,0.3857
3500.00,0.3868
3499.00,0.3878
3498.00,0.3889
3497.00,0.3900
3496.00,0.3910
3495.00,0.3921
3494.00,0.3931
3493.00,0.3943
3492.00,0.3954
3491.00,0.3966
3490.00,0.3978
3489.00,0.3990
3488.00,0.4002
3487.00,0.4014
3486.00,0.4026
3485.00,0.4038
3484.00,0.4050
3483.00,0.4063
3482.00,0.4076
3481.00,0.4090
3480.00,0.4104
3479.00,0.4117
3478.00,0.4131
3477.00,0.4144
3476.00,0.4158
3475.00,0.4172
3474.00,0.4186
3473.00,0.4201
3472.00,0.4216
3471.00,0.4231
3470.00,0.4245
3469.00,0.4260
3468.00,0.4275
3467.00,0.4289
3466.00,0.4305
3465.00,0.4321
3464.00,0.4338
3463.00,0.4355
3462.00,0.4372
3461.00,0.4389
3460.00,0.4407
3459.00,0.4425
3458.00,0.4443
3457.00,0.4461
3456.00,0.4479
3455.00,0.4498
3454.00,0.4518
3453.00,0.4539
3452.00,0.4560
3451.00,0.4583
3450.00,0.4606
3449.00,0.4630
3448.00,0.4656
3447.00,0.4684
3446.00,0.4712
3445.00,0.4741
3444.00,0.4771
3443.00,0.4802
3442.00,0.4833
3441.00,0.4864
3440.00,0.4894
3439.00,0.4923
3438.00,0.4950
3437.00,0.4976
3436.00,0.5000
3435.00,0.5023
3434.00,0.5044
3433.00,0.5063
3432.00,0.5082
3431.00,0.5099
3430.00,0.5116
3429.00,0.5133
3428.00,0.5150
3427.00,0.5165
3426.00,0.5180
3425.00,0.5196
3424.00,0.5211
3423.00,0.5227
3422.00,0.5243
3421.00,0.5260
3420.00,0.5277
3419.00,0.5295
3418.00,0.5313
3417.00,0.5330
3416.00,0.5348
3415.00,0.5365
3414.00,0.5383
3413.00,0.5401
3412.00,0.5419
3411.00,0.5436
3410.00,0.5454
3409.00,0.5472
3408.00,0.5491
3407.00,0.5510
3406.00,0.5528
3405.00,0.5545
3404.00,0.5562
3403.00,0.5580
3402.00,0.5597
3401.00,0.5615
3400.00,0.5633
3399.00,0.5649
3398.00,0.5664
3397.00,0.5679
3396.00,0.5694
3395.00,0.5709
3394.00,0.5723
3393.00,0.5738
3392.00,0.5753
3391.00,0.5767
3390.00,0.5780
3389.00,0.5793
3388.00,0.5805
3387.00,0.5818
3386.00,0.5831
3385.00,0.5844
3384.00,0.5857
3383.00,0.5869
3382.00,0.5882
3381.00,0.5895
3380.00,0.5908
3379.00,0.5920
3378.00,0.5932
3377.00,0.5944
3376.00,0.5956
3375.00,0.5968
3374.00,0.5980
3373.00,0.5992
3372.00,0.6004
3371.00,0.6015
3370.00,0.6027
3369.00,0.6039
3368.00,0.6051
3367.00,0.6063
3366.00,0.6074
3365.00,0.6085
3364.00,0.6096
3363.00,0.6106
3362.00,0.6117
3361.00,0.6128
3360.00,0.6140
3359.00,0.6151
3358.00,0.6162
3357.00,0.6174
3356.00,0.6184
3355.00,0.6195
3354.00,0.6205
3353.00,0.6216
3352.00,0.6227
3351.00,0.6237
3350.00,0.6247
3349.00,0.6255
3348.00,0.6264
3347.00,0.6273
3346.00,0.6281
3345.00,0.6288
3344.00,0.6294
3343.00,0.6299
3342.00,0.6304
3341.00,0.6310
3340.00,0.6315
3339.00,0.6320
3338.00,0.6323
3337.00,0.6325
3336.00,0.6326
3335.00,0.6326
3334.00,0.6326
3333.00,0.6325
3332.00,0.6324
3331.00,0.6322
3330.00,0.6319
3329.00,0.6315
3328.00,0.6310
3327.00,0.6305
3326.00,0.6299
3325.00,0.6292
3324.00,0.6284
3323.00,0.6277
3322.00,0.6270
3321.00,0.6264
3320.00,0.6257
3319.00,0.6248
3318.00,0.6239
3317.00,0.6230
3316.00,0.6221
3315.00,0.6212
3314.00,0.6204
3313.00,0.6195
3312.00,0.6187
3311.00,0.6179
3310.00,0.6172
3309.00,0.6164
3308.00,0.6156
3307.00,0.6149
3306.00,0.6142
3305.00,0.6135
3304.00,0.6129
3303.00,0.6122
3302.00,0.6115
3301.00,0.6109
3300.00,0.6104
3299.00,0.6100
3298.00,0.6097
3297.00,0.6095
3296.00,0.6092
3295.00,0.6089
3294.00,0.6087
3293.00,0.6085
3292.00,0.6084
3291.00,0.6083
3290.00,0.6081
3289.00,0.6080
3288.00,0.6079
3287.00,0.6078
3286.00,0.6078
3285.00,0.6079
3284.00,0.6080
3283.00,0.6081
3282.00,0.6082
3281.00,0.6084
3280.00,0.6086
3279.00,0.6086
3278.00,0.6087
3277.00,0.6087
3276.00,0.6088
3275.00,0.6090
3274.00,0.6092
3273.00,0.6094
3272.00,0.6095
3271.00,0.6096
3270.00,0.6097
3269.00,0.6098
3268.00,0.6100
3267.00,0.6101
3266.00,0.6102
3265.00,0.6103
3264.00,0.6103
3263.00,0.6103
3262.00,0.6102
3261.00,0.6103
3260.00,0.6102
3259.00,0.6101
3258.00,0.6099
3257.00,0.6096
3256.00,0.6093
3255.00,0.6089
3254.00,0.6086
3253.00,0.6082
3252.00,0.6078
3251.00,0.6072
3250.00,0.6067
3249.00,0.6060
3248.00,0.6053
3247.00,0.6046
3246.00,0.6037
3245.00,0.6028
3244.00,0.6018
3243.00,0.6008
3242.00,0.5997
3241.00,0.5987
3240.00,0.5976
3239.00,0.5964
3238.00,0.5952
3237.00,0.5939
3236.00,0.5926
3235.00,0.5913
3234.00,0.5901
3233.00,0.5888
3232.00,0.5876
3231.00,0.5863
3230.00,0.5850
3229.00,0.5836
3228.00,0.5822
3227.00,0.5807
3226.00,0.5792
3225.00,0.5777
3224.00,0.5762
3223.00,0.5747
3222.00,0.5731
3221.00,0.5716
3220.00,0.5702
3219.00,0.5687
3218.00,0.5672
3217.00,0.5656
3216.00,0.5641
3215.00,0.5627
3214.00,0.5613
3213.00,0.5599
3212.00,0.5584
3211.00,0.5570
3210.00,0.5555
3209.00,0.5541
3208.00,0.5526
3207.00,0.5511
3206.00,0.5496
3205.00,0.5481
3204.00,0.5467
3203.00,0.5453
3202.00,0.5439
3201.00,0.5426
3200.00,0.5413
3199.00,0.5400
3198.00,0.5386
3197.00,0.5372
3196.00,0.5357
3195.00,0.5342
3194.00,0.5327
3193.00,0.5313
3192.00,0.5298
3191.00,0.5283
3190.00,0.5268
3189.00,0.5253
3188.00,0.5237
3187.00,0.5222
3186.00,0.5208
3185.00,0.5193
3184.00,0.5178
3183.00,0.5163
3182.00,0.5148
3181.00,0.5132
3180.00,0.5116
3179.00,0.5100
3178.00,0.5084
3177.00,0.5069
3176.00,0.5053
3175.00,0.5038
3174.00,0.5022
3173.00,0.5006
3172.00,0.4991
3171.00,0.4976
3170.00,0.4962
3169.00,0.4948
3168.00,0.4934
3167.00,0.4920
3166.00,0.4907
3165.00,0.4894
3164.00,0.4881
3163.00,0.4869
3162.00,0.4856
3161.00,0.4844
3160.00,0.4832
3159.00,0.4820
3158.00,0.4809
3157.00,0.4798
3156.00,0.4787
3155.00,0.4777
3154.00,0.4767
3153.00,0.4758
3152.00,0.4749
3151.00,0.4739
3150.00,0.4730
3149.00,0.4721
3148.00,0.4713
3147.00,0.4704
3146.00,0.4696
3145.00,0.4688
3144.00,0.4679
3143.00,0.4671
3142.00,0.4663
3141.00,0.4655
3140.00,0.4647
3139.00,0.4639
3138.00,0.4632
3137.00,0.4625
3136.00,0.4618
3135.00,0.4612
3134.00,0.4605
3133.00,0.4599
3132.00,0.4593
3131.00,0.4587
3130.00,0.4582
3129.00,0.4577
3128.00,0.4572
3127.00,0.4567
3126.00,0.4563
3125.00,0.4560
3124.00,0.4557
3123.00,0.4555
3122.00,0.4554
3121.00,0.4553
3120.00,0.4552
3119.00,0.4552
3118.00,0.4552
3117.00,0.4553
3116.00,0.4554
3115.00,0.4556
3114.00,0.4559
3113.00,0.4563
3112.00,0.4567
3111.00,0.4570
3110.00,0.4575
3109.00,0.4579
3108.00,0.4585
3107.00,0.4591
3106.00,0.4597
3105.00,0.4604
3104.00,0.4611
3103.00,0.4618
3102.00,0.4626
3101.00,0.4634
3100.00,0.4642
3099.00,0.4650
3098.00,0.4658
3097.00,0.4666
3096.00,0.4674
3095.00,0.4682
3094.00,0.4690
3093.00,0.4699
3092.00,0.4708
3091.00,0.4717
3090.00,0.4728
3089.00,0.4738
3088.00,0.4749
3087.00,0.4760
3086.00,0.4772
3085.00,0.4784
3084.00,0.4797
3083.00,0.4811
3082.00,0.4827
3081.00,0.4844
3080.00,0.4862
3079.00,0.4880
3078.00,0.4900
3077.00,0.4919
3076.00,0.4940
3075.00,0.4961
3074.00,0.4985
3073.00,0.5010
3072.00,0.5037
3071.00,0.5064
3070.00,0.5092
3069.00,0.5121
3068.00,0.5150
3067.00,0.5181
3066.00,0.5214
3065.00,0.5249
3064.00,0.5285
3063.00,0.5321
3062.00,0.5358
3061.00,0.5393
3060.00,0.5428
3059.00,0.5462
3058.00,0.5497
3057.00,0.5531
3056.00,0.5566
3055.00,0.5599
3054.00,0.5631
3053.00,0.5661
3052.00,0.5690
3051.00,0.5718
3050.00,0.5746
3049.00,0.5774
3048.00,0.5803
3047.00,0.5832
3046.00,0.5862
3045.00,0.5895
3044.00,0.5929
3043.00,0.5966
3042.00,0.6004
3041.00,0.6045
3040.00,0.6087
3039.00,0.6132
3038.00,0.6180
3037.00,0.6232
3036.00,0.6285
3035.00,0.6340
3034.00,0.6397
3033.00,0.6454
3032.00,0.6513
3031.00,0.6573
3030.00,0.6634
3029.00,0.6695
3028.00,0.6756
3027.00,0.6815
3026.00,0.6875
3025.00,0.6936
3024.00,0.6998
3023.00,0.7062
3022.00,0.7127
3021.00,0.7195
3020.00,0.7266
3019.00,0.7338
3018.00,0.7414
3017.00,0.7495
3016.00,0.7580
3015.00,0.7671
3014.00,0.7767
3013.00,0.7868
3012.00,0.7975
3011.00,0.8087
3010.00,0.8205
3009.00,0.8329
3008.00,0.8459
3007.00,0.8595
3006.00,0.8741
3005.00,0.8896
3004.00,0.9061
3003.00,0.9234
3002.00,0.9416
3001.00,0.9608
3000.00,0.9812
2999.00,1.0029
2998.00,1.0259
2997.00,1.0504
2996.00,1.0766
2995.00,1.1046
2994.00,1.1346
2993.00,1.1668
2992.00,1.2012
2991.00,1.2384
2990.00,1.2786
2989.00,1.3221
2988.00,1.3691
2987.00,1.4203
2986.00,1.4763
2985.00,1.5380
2984.00,1.6060
2983.00,1.6812
2982.00,1.7642
2981.00,1.8552
2980.00,1.9537
2979.00,2.0600
2978.00,2.1758
2977.00,2.3020
2976.00,2.4381
2975.00,2.5819
2974.00,2.7315
2973.00,2.8840
2972.00,3.0341
2971.00,3.1783
2970.00,3.3166
2969.00,3.4482
2968.00,3.5696
2967.00,3.6773
2966.00,3.7726
2965.00,3.8732
2964.00,3.9977
2963.00,4.1213
2962.00,4.2180
2961.00,4.1732
2960.00,4.0230
2959.00,3.9077
2958.00,3.8629
2957.00,3.8910
2956.00,3.9473
2955.00,3.9850
2954.00,3.9432
2953.00,3.8880
2952.00,3.8712
2951.00,3.8753
2950.00,3.8328
2949.00,3.7479
2948.00,3.6714
2947.00,3.6196
2946.00,3.6075
2945.00,3.6386
2944.00,3.7093
2943.00,3.8265
2942.00,3.9843
2941.00,4.1029
2940.00,4.0975
2939.00,4.0874
2938.00,4.1628
2937.00,4.3521
2936.00,4.4114
2935.00,4.2087
2934.00,4.0407
2933.00,3.9743
2932.00,3.9842
2931.00,4.0922
2930.00,4.4050
2929.00,4.2760
2928.00,4.0317
2927.00,3.8904
2926.00,3.9412
2925.00,3.9833
2924.00,3.9231
2923.00,3.8813
2922.00,3.8809
2921.00,3.9301
2920.00,3.9722
2919.00,3.9528
2918.00,3.9880
2917.00,4.2023
2916.00,4.3050
2915.00,4.1425
2914.00,4.0106
2913.00,4.0902
2912.00,4.4045
2911.00,4.6163
2910.00,4.3079
2909.00,4.1125
2908.00,4.1058
2907.00,4.2088
2906.00,4.1163
2905.00,4.0197
2904.00,3.9889
2903.00,3.9196
2902.00,3.8607
2901.00,3.8715
2900.00,3.9765
2899.00,4.0598
2898.00,4.0465
2897.00,4.0466
2896.00,4.1219
2895.00,4.2746
2894.00,4.3949
2893.00,4.3955
2892.00,4.3944
2891.00,4.5047
2890.00,4.5178
2889.00,4.1468
2888.00,3.8252
2887.00,3.6442
2886.00,3.5823
2885.00,3.5880
2884.00,3.6255
2883.00,3.6902
2882.00,3.7937
2881.00,3.9326
2880.00,4.0441
2879.00,4.0625
2878.00,4.0455
2877.00,4.0706
2876.00,4.1752
2875.00,4.3346
2874.00,4.2360
2873.00,4.0672
2872.00,4.0235
2871.00,4.2189
2870.00,4.5039
2869.00,4.3031
2868.00,4.0930
2867.00,4.0274
2866.00,4.0317
2865.00,3.9536
2864.00,3.8792
2863.00,3.8974
2862.00,3.9763
2861.00,3.9933
2860.00,3.9488
2859.00,3.9245
2858.00,3.9136
2857.00,3.9021
2856.00,3.9154
2855.00,3.9580
2854.00,3.9687
2853.00,3.9579
2852.00,3.9638
2851.00,3.9604
2850.00,3.9400
2849.00,3.9714
2848.00,4.1126
2847.00,4.1469
2846.00,4.1020
2845.00,4.1521
2844.00,4.0331
2843.00,3.7381
2842.00,3.4890
2841.00,3.3430
2840.00,3.2183
2839.00,3.0764
2838.00,2.9148
2837.00,2.7346
2836.00,2.5574
2835.00,2.3980
2834.00,2.2586
2833.00,2.1357
2832.00,2.0257
2831.00,1.9266
2830.00,1.8369
2829.00,1.7550
2828.00,1.6802
2827.00,1.6123
2826.00,1.5509
2825.00,1.4950
2824.00,1.4436
2823.00,1.3963
2822.00,1.3528
2821.00,1.3127
2820.00,1.2758
2819.00,1.2418
2818.00,1.2102
2817.00,1.1807
2816.00,1.1530
2815.00,1.1269
2814.00,1.1021
2813.00,1.0783
2812.00,1.0556
2811.00,1.0338
2810.00,1.0129
2809.00,0.9928
2808.00,0.9736
2807.00,0.9551
2806.00,0.9374
2805.00,0.9202
2804.00,0.9033
2803.00,0.8869
2802.00,0.8709
2801.00,0.8556
2800.00,0.8408
2799.00,0.8265
2798.00,0.8127
2797.00,0.7995
2796.00,0.7869
2795.00,0.7748
2794.00,0.7635
2793.00,0.7527
2792.00,0.7425
2791.00,0.7328
2790.00,0.7236
2789.00,0.7147
2788.00,0.7061
2787.00,0.6977
2786.00,0.6893
2785.00,0.6811
2784.00,0.6729
2783.00,0.6647
2782.00,0.6567
2781.00,0.6487
2780.00,0.6409
2779.00,0.6333
2778.00,0.6259
2777.00,0.6187
2776.00,0.6119
2775.00,0.6054
2774.00,0.5994
2773.00,0.5938
2772.00,0.5887
2771.00,0.5839
2770.00,0.5796
2769.00,0.5756
2768.00,0.5721
2767.00,0.5690
2766.00,0.5662
2765.00,0.5637
2764.00,0.5615
2763.00,0.5596
2762.00,0.5579
2761.00,0.5565
2760.00,0.5553
2759.00,0.5543
2758.00,0.5536
2757.00,0.5530
2756.00,0.5527
2755.00,0.5525
2754.00,0.5525
2753.00,0.5528
2752.00,0.5531
2751.00,0.5537
2750.00,0.5544
2749.00,0.5555
2748.00,0.5567
2747.00,0.5580
2746.00,0.5595
2745.00,0.5611
2744.00,0.5629
2743.00,0.5649
2742.00,0.5672
2741.00,0.5697
2740.00,0.5726
2739.00,0.5759
2738.00,0.5796
2737.00,0.5840
2736.00,0.5887
2735.00,0.5939
2734.00,0.5991
2733.00,0.6039
2732.00,0.6078
2731.00,0.6100
2730.00,0.6101
2729.00,0.6080
2728.00,0.6040
2727.00,0.5988
2726.00,0.5929
2725.00,0.5869
2724.00,0.5814
2723.00,0.5764
2722.00,0.5723
2721.00,0.5689
2720.00,0.5662
2719.00,0.5639
2718.00,0.5620
2717.00,0.5601
2716.00,0.5581
2715.00,0.5560
2714.00,0.5537
2713.00,0.5511
2712.00,0.5484
2711.00,0.5457
2710.00,0.5431
2709.00,0.5407
2708.00,0.5384
2707.00,0.5365
2706.00,0.5348
2705.00,0.5333
2704.00,0.5321
2703.00,0.5311
2702.00,0.5303
2701.00,0.5297
2700.00,0.5294
2699.00,0.5293
2698.00,0.5295
2697.00,0.5299
2696.00,0.5307
2695.00,0.5317
2694.00,0.5330
2693.00,0.5344
2692.00,0.5358
2691.00,0.5373
2690.00,0.5387
2689.00,0.5401
2688.00,0.5413
2687.00,0.5424
2686.00,0.5434
2685.00,0.5442
2684.00,0.5447
2683.00,0.5452
2682.00,0.5456
2681.00,0.5460
2680.00,0.5465
2679.00,0.5469
2678.00,0.5474
2677.00,0.5479
2676.00,0.5484
2675.00,0.5489
2674.00,0.5493
2673.00,0.5496
2672.00,0.5497
2671.00,0.5495
2670.00,0.5488
2669.00,0.5479
2668.00,0.5465
2667.00,0.5447
2666.00,0.5425
2665.00,0.5401
2664.00,0.5373
2663.00,0.5345
2662.00,0.5316
2661.00,0.5289
2660.00,0.5263
2659.00,0.5237
2658.00,0.5213
2657.00,0.5189
2656.00,0.5166
2655.00,0.5144
2654.00,0.5122
2653.00,0.5100
2652.00,0.5079
2651.00,0.5059
2650.00,0.5041
2649.00,0.5023
2648.00,0.5006
2647.00,0.4990
2646.00,0.4975
2645.00,0.4960
2644.00,0.4946
2643.00,0.4932
2642.00,0.4919
2641.00,0.4907
2640.00,0.4896
2639.00,0.4885
2638.00,0.4875
2637.00,0.4863
2636.00,0.4852
2635.00,0.4840
2634.00,0.4829
2633.00,0.4817
2632.00,0.4804
2631.00,0.4792
2630.00,0.4778
2629.00,0.4764
2628.00,0.4750
2627.00,0.4735
2626.00,0.4721
2625.00,0.4708
2624.00,0.4695
2623.00,0.4683
2622.00,0.4672
2621.00,0.4661
2620.00,0.4649
2619.00,0.4639
2618.00,0.4628
2617.00,0.4618
2616.00,0.4608
2615.00,0.4597
2614.00,0.4586
2613.00,0.4575
2612.00,0.4565
2611.00,0.4555
2610.00,0.4545
2609.00,0.4535
2608.00,0.4525
2607.00,0.4516
2606.00,0.4507
2605.00,0.4499
2604.00,0.4490
2603.00,0.4482
2602.00,0.4474
2601.00,0.4465
2600.00,0.4455
2599.00,0.4445
2598.00,0.4435
2597.00,0.4424
2596.00,0.4413
2595.00,0.4402
2594.00,0.4391
2593.00,0.4379
2592.00,0.4367
2591.00,0.4355
2590.00,0.4342
2589.00,0.4331
2588.00,0.4319
2587.00,0.4308
2586.00,0.4296
2585.00,0.4285
2584.00,0.4273
2583.00,0.4259
2582.00,0.4245
2581.00,0.4231
2580.00,0.4215
2579.00,0.4199
2578.00,0.4184
2577.00,0.4169
2576.00,0.4154
2575.00,0.4139
2574.00,0.4125
2573.00,0.4111
2572.00,0.4098
2571.00,0.4085
2570.00,0.4071
2569.00,0.4058
2568.00,0.4046
2567.00,0.4034
2566.00,0.4022
2565.00,0.4011
2564.00,0.4000
2563.00,0.3988
2562.00,0.3977
2561.00,0.3966
2560.00,0.3954
2559.00,0.3943
2558.00,0.3931
2557.00,0.3920
2556.00,0.3910
2555.00,0.3900
2554.00,0.3890
2553.00,0.3880
2552.00,0.3870
2551.00,0.3861
2550.00,0.3852
2549.00,0.3843
2548.00,0.3836
2547.00,0.3829
2546.00,0.3822
2545.00,0.3815
2544.00,0.3809
2543.00,0.3803
2542.00,0.3797
2541.00,0.3791
2540.00,0.3785
2539.00,0.3780
2538.00,0.3774
2537.00,0.3767
2536.00,0.3760
2535.00,0.3753
2534.00,0.3745
2533.00,0.3738
2532.00,0.3729
2531.00,0.3719
2530.00,0.3708
2529.00,0.3697
2528.00,0.3685
2527.00,0.3673
2526.00,0.3660
2525.00,0.3648
2524.00,0.3635
2523.00,0.3623
2522.00,0.3611
2521.00,0.3599
2520.00,0.3588
2519.00,0.3577
2518.00,0.3566
2517.00,0.3555
2516.00,0.3545
2515.00,0.3535
2514.00,0.3525
2513.00,0.3515
2512.00,0.3505
2511.00,0.3495
2510.00,0.3485
2509.00,0.3476
2508.00,0.3467
2507.00,0.3459
2506.00,0.3452
2505.00,0.3445
2504.00,0.3440
2503.00,0.3434
2502.00,0.3429
2501.00,0.3425
2500.00,0.3420
2499.00,0.3417
2498.00,0.3413
2497.00,0.3409
2496.00,0.3405
2495.00,0.3401
2494.00,0.3396
2493.00,0.3392
2492.00,0.3387
2491.00,0.3383
2490.00,0.3378
2489.00,0.3374
2488.00,0.3369
2487.00,0.3364
2486.00,0.3359
2485.00,0.3353
2484.00,0.3348
2483.00,0.3343
2482.00,0.3338
2481.00,0.3333
2480.00,0.3328
2479.00,0.3323
2478.00,0.3317
2477.00,0.3311
2476.00,0.3306
2475.00,0.3300
2474.00,0.3295
2473.00,0.3289
2472.00,0.3283
2471.00,0.3278
2470.00,0.3272
2469.00,0.3267
2468.00,0.3262
2467.00,0.3258
2466.00,0.3255
2465.00,0.3252
2464.00,0.3249
2463.00,0.3246
2462.00,0.3243
2461.00,0.3241
2460.00,0.3239
2459.00,0.3237
2458.00,0.3236
2457.00,0.3235
2456.00,0.3234
2455.00,0.3234
2454.00,0.3234
2453.00,0.3235
2452.00,0.3236
2451.00,0.3236
2450.00,0.3236
2449.00,0.3236
2448.00,0.3236
2447.00,0.3237
2446.00,0.3238
2445.00,0.3239
2444.00,0.3239
2443.00,0.3239
2442.00,0.3240
2441.00,0.3240
2440.00,0.3241
2439.00,0.3242
2438.00,0.3243
2437.00,0.3244
2436.00,0.3245
2435.00,0.3245
2434.00,0.3245
2433.00,0.3246
2432.00,0.3246
2431.00,0.3246
2430.00,0.3247
2429.00,0.3247
2428.00,0.3248
2427.00,0.3248
2426.00,0.3249
2425.00,0.3250
2424.00,0.3251
2423.00,0.3251
2422.00,0.3252
2421.00,0.3254
2420.00,0.3255
2419.00,0.3256
2418.00,0.3257
2417.00,0.3257
2416.00,0.3257
2415.00,0.3257
2414.00,0.3257
2413.00,0.3257
2412.00,0.3257
2411.00,0.3258
2410.00,0.3257
2409.00,0.3258
2408.00,0.3257
2407.00,0.3257
2406.00,0.3257
2405.00,0.3257
2404.00,0.3257
2403.00,0.3258
2402.00,0.3258
2401.00,0.3258
2400.00,0.3258
2399.00,0.3258
2398.00,0.3258
2397.00,0.3259
2396.00,0.3259
2395.00,0.3260
2394.00,0.3262
2393.00,0.3264
2392.00,0.3266
2391.00,0.3269
2390.00,0.3271
2389.00,0.3274
2388.00,0.3276
2387.00,0.3278
2386.00,0.3279
2385.00,0.3281
2384.00,0.3283
2383.00,0.3286
2382.00,0.3289
2381.00,0.3293
2380.00,0.3296
2379.00,0.3299
2378.00,0.3302
2377.00,0.3304
2376.00,0.3306
2375.00,0.3306
2374.00,0.3306
2373.00,0.3306
2372.00,0.3305
2371.00,0.3305
2370.00,0.3306
2369.00,0.3308
2368.00,0.3310
2367.00,0.3312
2366.00,0.3314
2365.00,0.3315
2364.00,0.3317
2363.00,0.3318
2362.00,0.3318
2361.00,0.3319
2360.00,0.3320
2359.00,0.3321
2358.00,0.3322
2357.00,0.3323
2356.00,0.3323
2355.00,0.3322
2354.00,0.3321
2353.00,0.3322
2352.00,0.3322
2351.00,0.3322
2350.00,0.3322
2349.00,0.3322
2348.00,0.3321
2347.00,0.3322
2346.00,0.3323
2345.00,0.3324
2344.00,0.3325
2343.00,0.3325
2342.00,0.3325
2341.00,0.3323
2340.00,0.3321
2339.00,0.3319
2338.00,0.3317
2337.00,0.3316
2336.00,0.3314
2335.00,0.3312
2334.00,0.3311
2333.00,0.3309
2332.00,0.3308
2331.00,0.3305
2330.00,0.3301
2329.00,0.3297
2328.00,0.3292
2327.00,0.3288
2326.00,0.3284
2325.00,0.3281
2324.00,0.3279
2323.00,0.3276
2322.00,0.3273
2321.00,0.3269
2320.00,0.3264
2319.00,0.3259
2318.00,0.3255
2317.00,0.3251
2316.00,0.3248
2315.00,0.3246
2314.00,0.3242
2313.00,0.3239
2312.00,0.3236
2311.00,0.3231
2310.00,0.3227
2309.00,0.3222
2308.00,0.3217
2307.00,0.3212
2306.00,0.3207
2305.00,0.3202
2304.00,0.3197
2303.00,0.3192
2302.00,0.3186
2301.00,0.3181
2300.00,0.3176
2299.00,0.3171
2298.00,0.3167
2297.00,0.3162
2296.00,0.3158
2295.00,0.3153
2294.00,0.3149
2293.00,0.3144
2292.00,0.3139
2291.00,0.3134
2290.00,0.3129
2289.00,0.3124
2288.00,0.3120
2287.00,0.3116
2286.00,0.3112
2285.00,0.3108
2284.00,0.3104
2283.00,0.3100
2282.00,0.3097
2281.00,0.3095
2280.00,0.3093
2279.00,0.3092
2278.00,0.3090
2277.00,0.3088
2276.00,0.3087
2275.00,0.3086
2274.00,0.3085
2273.00,0.3084
2272.00,0.3083
2271.00,0.3082
2270.00,0.3081
2269.00,0.3080
2268.00,0.3079
2267.00,0.3078
2266.00,0.3077
2265.00,0.3076
2264.00,0.3075
2263.00,0.3074
2262.00,0.3072
2261.00,0.3070
2260.00,0.3068
2259.00,0.3065
2258.00,0.3062
2257.00,0.3059
2256.00,0.3056
2255.00,0.3053
2254.00,0.3050
2253.00,0.3047
2252.00,0.3045
2251.00,0.3042
2250.00,0.3039
2249.00,0.3036
2248.00,0.3033
2247.00,0.3031
2246.00,0.3028
2245.00,0.3026
2244.00,0.3024
2243.00,0.3022
2242.00,0.3019
2241.00,0.3017
2240.00,0.3015
2239.00,0.3013
2238.00,0.3011
2237.00,0.3010
2236.00,0.3008
2235.00,0.3007
2234.00,0.3005
2233.00,0.3004
2232.00,0.3002
2231.00,0.3001
2230.00,0.2999
2229.00,0.2998
2228.00,0.2997
2227.00,0.2995
2226.00,0.2994
2225.00,0.2993
2224.00,0.2992
2223.00,0.2991
2222.00,0.2989
2221.00,0.2988
2220.00,0.2988
2219.00,0.2987
2218.00,0.2986
2217.00,0.2984
2216.00,0.2983
2215.00,0.2981
2214.00,0.2980
2213.00,0.2979
2212.00,0.2978
2211.00,0.2977
2210.00,0.2976
2209.00,0.2976
2208.00,0.2976
2207.00,0.2977
2206.00,0.2977
2205.00,0.2978
2204.00,0.2979
2203.00,0.2980
2202.00,0.2981
2201.00,0.2983
2200.00,0.2984
2199.00,0.2986
2198.00,0.2987
2197.00,0.2988
2196.00,0.2989
2195.00,0.2990
2194.00,0.2992
2193.00,0.2993
2192.00,0.2995
2191.00,0.2996
2190.00,0.2996
2189.00,0.2997
2188.00,0.2997
2187.00,0.2998
2186.00,0.2998
2185.00,0.2999
2184.00,0.2999
2183.00,0.2999
2182.00,0.2999
2181.00,0.2999
2180.00,0.2999
2179.00,0.2999
2178.00,0.2999
2177.00,0.2999
2176.00,0.2999
2175.00,0.2999
2174.00,0.2999
2173.00,0.3000
2172.00,0.3000
2171.00,0.3001
2170.00,0.3001
2169.00,0.3002
2168.00,0.3002
2167.00,0.3002
2166.00,0.3003
2165.00,0.3003
2164.00,0.3004
2163.00,0.3004
2162.00,0.3004
2161.00,0.3005
2160.00,0.3005
2159.00,0.3005
2158.00,0.3004
2157.00,0.3004
2156.00,0.3004
2155.00,0.3003
2154.00,0.3003
2153.00,0.3002
2152.00,0.3001
2151.00,0.3000
2150.00,0.2998
2149.00,0.2995
2148.00,0.2991
2147.00,0.2986
2146.00,0.2980
2145.00,0.2974
2144.00,0.2967
2143.00,0.2959
2142.00,0.2952
2141.00,0.2945
2140.00,0.2939
2139.00,0.2934
2138.00,0.2929
2137.00,0.2924
2136.00,0.2920
2135.00,0.2915
2134.00,0.2912
2133.00,0.2909
2132.00,0.2907
2131.00,0.2905
2130.00,0.2902
2129.00,0.2901
2128.00,0.2899
2127.00,0.2898
2126.00,0.2896
2125.00,0.2896
2124.00,0.2895
2123.00,0.2894
2122.00,0.2893
2121.00,0.2893
2120.00,0.2892
2119.00,0.2891
2118.00,0.2890
2117.00,0.2889
2116.00,0.2888
2115.00,0.2887
2114.00,0.2885
2113.00,0.2883
2112.00,0.2882
2111.00,0.2881
2110.00,0.2880
2109.00,0.2879
2108.00,0.2878
2107.00,0.2877
2106.00,0.2877
2105.00,0.2876
2104.00,0.2876
2103.00,0.2876
2102.00,0.2875
2101.00,0.2875
2100.00,0.2874
2099.00,0.2873
2098.00,0.2872
2097.00,0.2872
2096.00,0.2871
2095.00,0.2870
2094.00,0.2870
2093.00,0.2869
2092.00,0.2868
2091.00,0.2868
2090.00,0.2867
2089.00,0.2867
2088.00,0.2866
2087.00,0.2866
2086.00,0.2865
2085.00,0.2865
2084.00,0.2865
2083.00,0.2865
2082.00,0.2865
2081.00,0.2865
2080.00,0.2866
2079.00,0.2867
2078.00,0.2867
2077.00,0.2868
2076.00,0.2868
2075.00,0.2869
2074.00,0.2869
2073.00,0.2870
2072.00,0.2871
2071.00,0.2873
2070.00,0.2874
2069.00,0.2875
2068.00,0.2877
2067.00,0.2878
2066.00,0.2880
2065.00,0.2881
2064.00,0.2883
2063.00,0.2885
2062.00,0.2887
2061.00,0.2890
2060.00,0.2892
2059.00,0.2894
2058.00,0.2897
2057.00,0.2899
2056.00,0.2903
2055.00,0.2906
2054.00,0.2910
2053.00,0.2914
2052.00,0.2918
2051.00,0.2921
2050.00,0.2925
2049.00,0.2930
2048.00,0.2934
2047.00,0.2938
2046.00,0.2942
2045.00,0.2946
2044.00,0.2949
2043.00,0.2952
2042.00,0.2954
2041.00,0.2956
2040.00,0.2957
2039.00,0.2959
2038.00,0.2960
2037.00,0.2961
2036.00,0.2963
2035.00,0.2965
2034.00,0.2967
2033.00,0.2970
2032.00,0.2973
2031.00,0.2976
2030.00,0.2979
2029.00,0.2983
2028.00,0.2988
2027.00,0.2991
2026.00,0.2993
2025.00,0.2995
2024.00,0.2995
2023.00,0.2993
2022.00,0.2988
2021.00,0.2982
2020.00,0.2975
2019.00,0.2965
2018.00,0.2954
2017.00,0.2942
2016.00,0.2930
2015.00,0.2917
2014.00,0.2906
2013.00,0.2895
2012.00,0.2885
2011.00,0.2875
2010.00,0.2866
2009.00,0.2859
2008.00,0.2852
2007.00,0.2846
2006.00,0.2841
2005.00,0.2837
2004.00,0.2833
2003.00,0.2830
2002.00,0.2828
2001.00,0.2826
2000.00,0.2825
1999.00,0.2823
1998.00,0.2822
1997.00,0.2821
1996.00,0.2820
1995.00,0.2819
1994.00,0.2818
1993.00,0.2817
1992.00,0.2815
1991.00,0.2814
1990.00,0.2813
1989.00,0.2813
1988.00,0.2813
1987.00,0.2813
1986.00,0.2812
1985.00,0.2812
1984.00,0.2812
1983.00,0.2811
1982.00,0.2809
1981.00,0.2808
1980.00,0.2807
1979.00,0.2806
1978.00,0.2805
1977.00,0.2804
1976.00,0.2804
1975.00,0.2803
1974.00,0.2802
1973.00,0.2801
1972.00,0.2801
1971.00,0.2801
1970.00,0.2800
1969.00,0.2800
1968.00,0.2799
1967.00,0.2798
1966.00,0.2797
1965.00,0.2798
1964.00,0.2799
1963.00,0.2801
1962.00,0.2801
1961.00,0.2802
1960.00,0.2803
1959.00,0.2803
1958.00,0.2804
1957.00,0.2805
1956.00,0.2807
1955.00,0.2808
1954.00,0.2810
1953.00,0.2811
1952.00,0.2813
1951.00,0.2815
1950.00,0.2816
1949.00,0.2817
1948.00,0.2818
1947.00,0.2819
1946.00,0.2820
1945.00,0.2821
1944.00,0.2822
1943.00,0.2822
1942.00,0.2823
1941.00,0.2824
1940.00,0.2827
1939.00,0.2829
1938.00,0.2829
1937.00,0.2830
1936.00,0.2831
1935.00,0.2831
1934.00,0.2831
1933.00,0.2832
1932.00,0.2833
1931.00,0.2834
1930.00,0.2835
1929.00,0.2836
1928.00,0.2837
1927.00,0.2839
1926.00,0.2840
1925.00,0.2842
1924.00,0.2845
1923.00,0.2847
1922.00,0.2849
1921.00,0.2852
1920.00,0.2856
1919.00,0.2859
1918.00,0.2861
1917.00,0.2863
1916.00,0.2866
1915.00,0.2868
1914.00,0.2870
1913.00,0.2871
1912.00,0.2872
1911.00,0.2872
1910.00,0.2871
1909.00,0.2870
1908.00,0.2870
1907.00,0.2870
1906.00,0.2870
1905.00,0.2870
1904.00,0.2870
1903.00,0.2869
1902.00,0.2869
1901.00,0.2868
1900.00,0.2868
1899.00,0.2868
1898.00,0.2868
1897.00,0.2869
1896.00,0.2869
1895.00,0.2868
1894.00,0.2867
1893.00,0.2867
1892.00,0.2867
1891.00,0.2867
1890.00,0.2866
1889.00,0.2866
1888.00,0.2867
1887.00,0.2869
1886.00,0.2871
1885.00,0.2873
1884.00,0.2875
1883.00,0.2876
1882.00,0.2877
1881.00,0.2878
1880.00,0.2880
1879.00,0.2880
1878.00,0.2881
1877.00,0.2882
1876.00,0.2883
1875.00,0.2884
1874.00,0.2885
1873.00,0.2885
1872.00,0.2886
1871.00,0.2885
1870.00,0.2884
1869.00,0.2881
1868.00,0.2880
1867.00,0.2879
1866.00,0.2879
1865.00,0.2881
1864.00,0.2882
1863.00,0.2881
1862.00,0.2879
1861.00,0.2878
1860.00,0.2876
1859.00,0.2874
1858.00,0.2872
1857.00,0.2871
1856.00,0.2869
1855.00,0.2868
1854.00,0.2866
1853.00,0.2865
1852.00,0.2864
1851.00,0.2863
1850.00,0.2861
1849.00,0.2860
1848.00,0.2859
1847.00,0.2857
1846.00,0.2855
1845.00,0.2855
1844.00,0.2856
1843.00,0.2858
1842.00,0.2860
1841.00,0.2863
1840.00,0.2865
1839.00,0.2865
1838.00,0.2866
1837.00,0.2867
1836.00,0.2868
1835.00,0.2869
1834.00,0.2869
1833.00,0.2870
1832.00,0.2870
1831.00,0.2868
1830.00,0.2865
1829.00,0.2863
1828.00,0.2864
1827.00,0.2865
1826.00,0.2866
1825.00,0.2867
1824.00,0.2868
1823.00,0.2870
1822.00,0.2873
1821.00,0.2876
1820.00,0.2877
1819.00,0.2878
1818.00,0.2878
1817.00,0.2879
1816.00,0.2879
1815.00,0.2880
1814.00,0.2880
1813.00,0.2881
1812.00,0.2882
1811.00,0.2881
1810.00,0.2881
1809.00,0.2883
1808.00,0.2885
1807.00,0.2888
1806.00,0.2890
1805.00,0.2893
1804.00,0.2896
1803.00,0.2897
1802.00,0.2897
1801.00,0.2899
1800.00,0.2902
1799.00,0.2906
1798.00,0.2911
1797.00,0.2916
1796.00,0.2921
1795.00,0.2924
1794.00,0.2927
1793.00,0.2931
1792.00,0.2935
1791.00,0.2940
1790.00,0.2945
1789.00,0.2952
1788.00,0.2958
1787.00,0.2964
1786.00,0.2969
1785.00,0.2974
1784.00,0.2979
1783.00,0.2984
1782.00,0.2988
1781.00,0.2992
1780.00,0.2996
1779.00,0.3000
1778.00,0.3003
1777.00,0.3007
1776.00,0.3011
1775.00,0.3012
1774.00,0.3014
1773.00,0.3017
1772.00,0.3022
1771.00,0.3025
1770.00,0.3027
1769.00,0.3029
1768.00,0.3033
1767.00,0.3037
1766.00,0.3042
1765.00,0.3048
1764.00,0.3052
1763.00,0.3054
1762.00,0.3056
1761.00,0.3061
1760.00,0.3067
1759.00,0.3073
1758.00,0.3078
1757.00,0.3084
1756.00,0.3091
1755.00,0.3099
1754.00,0.3107
1753.00,0.3115
1752.00,0.3123
1751.00,0.3130
1750.00,0.3136
1749.00,0.3140
1748.00,0.3144
1747.00,0.3147
1746.00,0.3152
1745.00,0.3158
1744.00,0.3163
1743.00,0.3166
1742.00,0.3169
1741.00,0.3172
1740.00,0.3176
1739.00,0.3180
1738.00,0.3183
1737.00,0.3187
1736.00,0.3190
1735.00,0.3194
1734.00,0.3199
1733.00,0.3207
1732.00,0.3215
1731.00,0.3219
1730.00,0.3219
1729.00,0.3221
1728.00,0.3228
1727.00,0.3237
1726.00,0.3246
1725.00,0.3255
1724.00,0.3264
1723.00,0.3273
1722.00,0.3281
1721.00,0.3290
1720.00,0.3298
1719.00,0.3306
1718.00,0.3317
1717.00,0.3334
1716.00,0.3352
1715.00,0.3366
1714.00,0.3377
1713.00,0.3389
1712.00,0.3402
1711.00,0.3417
1710.00,0.3431
1709.00,0.3446
1708.00,0.3462
1707.00,0.3476
1706.00,0.3489
1705.00,0.3503
1704.00,0.3515
1703.00,0.3523
1702.00,0.3527
1701.00,0.3530
1700.00,0.3531
1699.00,0.3533
1698.00,0.3538
1697.00,0.3543
1696.00,0.3548
1695.00,0.3555
1694.00,0.3563
1693.00,0.3569
1692.00,0.3570
1691.00,0.3571
1690.00,0.3575
1689.00,0.3583
1688.00,0.3591
1687.00,0.3599
1686.00,0.3610
1685.00,0.3626
1684.00,0.3644
1683.00,0.3656
1682.00,0.3665
1681.00,0.3674
1680.00,0.3684
1679.00,0.3694
1678.00,0.3704
1677.00,0.3717
1676.00,0.3731
1675.00,0.3745
1674.00,0.3760
1673.00,0.3775
1672.00,0.3789
1671.00,0.3800
1670.00,0.3812
1669.00,0.3829
1668.00,0.3849
1667.00,0.3868
1666.00,0.3885
1665.00,0.3900
1664.00,0.3915
1663.00,0.3931
1662.00,0.3948
1661.00,0.3968
1660.00,0.3990
1659.00,0.4009
1658.00,0.4026
1657.00,0.4042
1656.00,0.4056
1655.00,0.4071
1654.00,0.4097
1653.00,0.4140
1652.00,0.4188
1651.00,0.4224
1650.00,0.4242
1649.00,0.4249
1648.00,0.4261
1647.00,0.4287
1646.00,0.4324
1645.00,0.4368
1644.00,0.4411
1643.00,0.4446
1642.00,0.4476
1641.00,0.4509
1640.00,0.4545
1639.00,0.4580
1638.00,0.4614
1637.00,0.4658
1636.00,0.4720
1635.00,0.4789
1634.00,0.4855
1633.00,0.4916
1632.00,0.4972
1631.00,0.5026
1630.00,0.5085
1629.00,0.5153
1628.00,0.5229
1627.00,0.5305
1626.00,0.5379
1625.00,0.5460
1624.00,0.5556
1623.00,0.5663
1622.00,0.5774
1621.00,0.5886
1620.00,0.5995
1619.00,0.6105
1618.00,0.6234
1617.00,0.6403
1616.00,0.6600
1615.00,0.6789
1614.00,0.6963
1613.00,0.7146
1612.00,0.7356
1611.00,0.7589
1610.00,0.7830
1609.00,0.8072
1608.00,0.8309
1607.00,0.8528
1606.00,0.8736
1605.00,0.8963
1604.00,0.9235
1603.00,0.9551
1602.00,0.9904
1601.00,1.0292
1600.00,1.0695
1599.00,1.1075
1598.00,1.1420
1597.00,1.1774
1596.00,1.2188
1595.00,1.2674
1594.00,1.3246
1593.00,1.3952
1592.00,1.4838
1591.00,1.5895
1590.00,1.7110
1589.00,1.8572
1588.00,2.0415
1587.00,2.2604
1586.00,2.4900
1585.00,2.7470
1584.00,3.1396
1583.00,3.7132
1582.00,3.7043
1581.00,3.7059
1580.00,3.7043
1579.00,3.6644
1578.00,3.8143
1577.00,3.6338
1576.00,3.7400
1575.00,3.6509
1574.00,3.2047
1573.00,2.9820
1572.00,2.8785
1571.00,2.7290
1570.00,2.5268
1569.00,2.3945
1568.00,2.3506
1567.00,2.3515
1566.00,2.3724
1565.00,2.4394
1564.00,2.5729
1563.00,2.7213
1562.00,2.7895
1561.00,2.8200
1560.00,2.9169
1559.00,2.9011
1558.00,2.6711
1557.00,2.4842
1556.00,2.3210
1555.00,2.1163
1554.00,1.9134
1553.00,1.7530
1552.00,1.6271
1551.00,1.5130
1550.00,1.4068
1549.00,1.3196
1548.00,1.2537
1547.00,1.1996
1546.00,1.1492
1545.00,1.1025
1544.00,1.0621
1543.00,1.0266
1542.00,0.9925
1541.00,0.9578
1540.00,0.9228
1539.00,0.8918
1538.00,0.8692
1537.00,0.8543
1536.00,0.8425
1535.00,0.8308
1534.00,0.8193
1533.00,0.8117
1532.00,0.8103
1531.00,0.8132
1530.00,0.8190
1529.00,0.8276
1528.00,0.8384
1527.00,0.8495
1526.00,0.8598
1525.00,0.8701
1524.00,0.8815
1523.00,0.8954
1522.00,0.9153
1521.00,0.9418
1520.00,0.9684
1519.00,0.9876
1518.00,0.9971
1517.00,0.9966
1516.00,0.9844
1515.00,0.9610
1514.00,0.9296
1513.00,0.8941
1512.00,0.8582
1511.00,0.8255
1510.00,0.7979
1509.00,0.7754
1508.00,0.7567
1507.00,0.7409
1506.00,0.7311
1505.00,0.7296
1504.00,0.7339
1503.00,0.7398
1502.00,0.7456
1501.00,0.7513
1500.00,0.7562
1499.00,0.7582
1498.00,0.7569
1497.00,0.7540
1496.00,0.7517
1495.00,0.7505
1494.00,0.7509
1493.00,0.7540
1492.00,0.7606
1491.00,0.7708
1490.00,0.7851
1489.00,0.8040
1488.00,0.8271
1487.00,0.8528
1486.00,0.8799
1485.00,0.9088
1484.00,0.9392
1483.00,0.9707
1482.00,1.0043
1481.00,1.0417
1480.00,1.0828
1479.00,1.1277
1478.00,1.1802
1477.00,1.2469
1476.00,1.3314
1475.00,1.4352
1474.00,1.5681
1473.00,1.7553
1472.00,2.0184
1471.00,2.3453
1470.00,2.6880
1469.00,3.0140
1468.00,3.3111
1467.00,3.4701
1466.00,3.4659
1465.00,3.4978
1464.00,3.5768
1463.00,3.5299
1462.00,3.4060
1461.00,3.3562
1460.00,3.3715
1459.00,3.3627
1458.00,3.3356
1457.00,3.4171
1456.00,3.5759
1455.00,3.5394
1454.00,3.4353
1453.00,3.4401
1452.00,3.4823
1451.00,3.4215
1450.00,3.3225
1449.00,3.3045
1448.00,3.3209
1447.00,3.2452
1446.00,3.1148
1445.00,3.0216
1444.00,2.9548
1443.00,2.8811
1442.00,2.8109
1441.00,2.7601
1440.00,2.7104
1439.00,2.6321
1438.00,2.5223
1437.00,2.3935
1436.00,2.2552
1435.00,2.1192
1434.00,1.9931
1433.00,1.8739
1432.00,1.7572
1431.00,1.6456
1430.00,1.5457
1429.00,1.4634
1428.00,1.4003
1427.00,1.3542
1426.00,1.3216
1425.00,1.3006
1424.00,1.2914
1423.00,1.2927
1422.00,1.3016
1421.00,1.3157
1420.00,1.3349
1419.00,1.3594
1418.00,1.3887
1417.00,1.4238
1416.00,1.4656
1415.00,1.5098
1414.00,1.5466
1413.00,1.5642
1412.00,1.5546
1411.00,1.5196
1410.00,1.4703
1409.00,1.4174
1408.00,1.3647
1407.00,1.3113
1406.00,1.2559
1405.00,1.2000
1404.00,1.1475
1403.00,1.1024
1402.00,1.0654
1401.00,1.0346
1400.00,1.0091
1399.00,0.9894
1398.00,0.9754
1397.00,0.9645
1396.00,0.9529
1395.00,0.9376
1394.00,0.9187
1393.00,0.8990
1392.00,0.8814
1391.00,0.8680
1390.00,0.8604
1389.00,0.8609
1388.00,0.8725
1387.00,0.8973
1386.00,0.9353
1385.00,0.9865
1384.00,1.0544
1383.00,1.1451
1382.00,1.2632
1381.00,1.4089
1380.00,1.5744
1379.00,1.7284
1378.00,1.8058
1377.00,1.7666
1376.00,1.6521
1375.00,1.5203
1374.00,1.4050
1373.00,1.3207
1372.00,1.2665
1371.00,1.2331
1370.00,1.2102
1369.00,1.1914
1368.00,1.1733
1367.00,1.1542
1366.00,1.1324
1365.00,1.1063
1364.00,1.0747
1363.00,1.0388
1362.00,1.0024
1361.00,0.9701
1360.00,0.9440
1359.00,0.9236
1358.00,0.9081
1357.00,0.8973
1356.00,0.8908
1355.00,0.8878
1354.00,0.8871
1353.00,0.8872
1352.00,0.8869
1351.00,0.8851
1350.00,0.8816
1349.00,0.8776
1348.00,0.8751
1347.00,0.8760
1346.00,0.8817
1345.00,0.8926
1344.00,0.9074
1343.00,0.9226
1342.00,0.9333
1341.00,0.9351
1340.00,0.9257
1339.00,0.9062
1338.00,0.8800
1337.00,0.8506
1336.00,0.8207
1335.00,0.7922
1334.00,0.7668
1333.00,0.7456
1332.00,0.7290
1331.00,0.7176
1330.00,0.7121
1329.00,0.7132
1328.00,0.7223
1327.00,0.7405
1326.00,0.7673
1325.00,0.7981
1324.00,0.8243
1323.00,0.8363
1322.00,0.8315
1321.00,0.8154
1320.00,0.7969
1319.00,0.7821
1318.00,0.7728
1317.00,0.7685
1316.00,0.7680
1315.00,0.7703
1314.00,0.7748
1313.00,0.7812
1312.00,0.7889
1311.00,0.7973
1310.00,0.8056
1309.00,0.8136
1308.00,0.8220
1307.00,0.8317
1306.00,0.8434
1305.00,0.8570
1304.00,0.8701
1303.00,0.8783
1302.00,0.8779
1301.00,0.8696
1300.00,0.8590
1299.00,0.8524
1298.00,0.8528
1297.00,0.8578
1296.00,0.8604
1295.00,0.8535
1294.00,0.8353
1293.00,0.8104
1292.00,0.7855
1291.00,0.7643
1290.00,0.7470
1289.00,0.7326
1288.00,0.7197
1287.00,0.7075
1286.00,0.6949
1285.00,0.6816
1284.00,0.6679
1283.00,0.6546
1282.00,0.6424
1281.00,0.6319
1280.00,0.6235
1279.00,0.6171
1278.00,0.6125
1277.00,0.6091
1276.00,0.6070
1275.00,0.6062
1274.00,0.6068
1273.00,0.6088
1272.00,0.6121
1271.00,0.6160
1270.00,0.6194
1269.00,0.6205
1268.00,0.6182
1267.00,0.6122
1266.00,0.6034
1265.00,0.5935
1264.00,0.5843
1263.00,0.5770
1262.00,0.5720
1261.00,0.5691
1260.00,0.5680
1259.00,0.5683
1258.00,0.5691
1257.00,0.5698
1256.00,0.5698
1255.00,0.5688
1254.00,0.5667
1253.00,0.5637
1252.00,0.5600
1251.00,0.5558
1250.00,0.5514
1249.00,0.5469
1248.00,0.5425
1247.00,0.5384
1246.00,0.5346
1245.00,0.5307
1244.00,0.5263
1243.00,0.5214
1242.00,0.5159
1241.00,0.5097
1240.00,0.5034
1239.00,0.4976
1238.00,0.4926
1237.00,0.4885
1236.00,0.4857
1235.00,0.4844
1234.00,0.4846
1233.00,0.4865
1232.00,0.4902
1231.00,0.4956
1230.00,0.5026
1229.00,0.5102
1228.00,0.5177
1227.00,0.5247
1226.00,0.5310
1225.00,0.5368
1224.00,0.5422
1223.00,0.5478
1222.00,0.5530
1221.00,0.5564
1220.00,0.5560
1219.00,0.5509
1218.00,0.5420
1217.00,0.5320
1216.00,0.5235
1215.00,0.5180
1214.00,0.5148
1213.00,0.5117
1212.00,0.5070
1211.00,0.4998
1210.00,0.4910
1209.00,0.4822
1208.00,0.4750
1207.00,0.4705
1206.00,0.4685
1205.00,0.4680
1204.00,0.4679
1203.00,0.4676
1202.00,0.4668
1201.00,0.4661
1200.00,0.4664
1199.00,0.4682
1198.00,0.4713
1197.00,0.4756
1196.00,0.4810
1195.00,0.4875
1194.00,0.4951
1193.00,0.5036
1192.00,0.5120
1191.00,0.5189
1190.00,0.5227
1189.00,0.5221
1188.00,0.5175
1187.00,0.5107
1186.00,0.5034
1185.00,0.4969
1184.00,0.4914
1183.00,0.4872
1182.00,0.4838
1181.00,0.4807
1180.00,0.4776
1179.00,0.4743
1178.00,0.4705
1177.00,0.4657
1176.00,0.4600
1175.00,0.4535
1174.00,0.4466
1173.00,0.4396
1172.00,0.4329
1171.00,0.4268
1170.00,0.4213
1169.00,0.4163
1168.00,0.4119
1167.00,0.4080
1166.00,0.4048
1165.00,0.4022
1164.00,0.4003
1163.00,0.3993
1162.00,0.3993
1161.00,0.4007
1160.00,0.4035
1159.00,0.4085
1158.00,0.4163
1157.00,0.4283
1156.00,0.4466
1155.00,0.4740
1154.00,0.5114
1153.00,0.5545
1152.00,0.5910
1151.00,0.6068
1150.00,0.5974
1149.00,0.5731
1148.00,0.5480
1147.00,0.5303
1146.00,0.5211
1145.00,0.5184
1144.00,0.5207
1143.00,0.5272
1142.00,0.5377
1141.00,0.5527
1140.00,0.5723
1139.00,0.5956
1138.00,0.6197
1137.00,0.6401
1136.00,0.6532
1135.00,0.6567
1134.00,0.6506
1133.00,0.6366
1132.00,0.6171
1131.00,0.5945
1130.00,0.5712
1129.00,0.5495
1128.00,0.5315
1127.00,0.5181
1126.00,0.5093
1125.00,0.5043
1124.00,0.5024
1123.00,0.5028
1122.00,0.5048
1121.00,0.5076
1120.00,0.5116
1119.00,0.5174
1118.00,0.5258
1117.00,0.5370
1116.00,0.5502
1115.00,0.5626
1114.00,0.5702
1113.00,0.5692
1112.00,0.5594
1111.00,0.5433
1110.00,0.5250
1109.00,0.5079
1108.00,0.4936
1107.00,0.4828
1106.00,0.4753
1105.00,0.4706
1104.00,0.4681
1103.00,0.4673
1102.00,0.4675
1101.00,0.4680
1100.00,0.4688
1099.00,0.4695
1098.00,0.4696
1097.00,0.4687
1096.00,0.4668
1095.00,0.4644
1094.00,0.4621
1093.00,0.4602
1092.00,0.4592
1091.00,0.4594
1090.00,0.4610
1089.00,0.4640
1088.00,0.4687
1087.00,0.4753
1086.00,0.4836
1085.00,0.4934
1084.00,0.5046
1083.00,0.5169
1082.00,0.5303
1081.00,0.5439
1080.00,0.5570
1079.00,0.5682
1078.00,0.5762
1077.00,0.5798
1076.00,0.5788
1075.00,0.5736
1074.00,0.5655
1073.00,0.5559
1072.00,0.5462
1071.00,0.5373
1070.00,0.5296
1069.00,0.5232
1068.00,0.5183
1067.00,0.5149
1066.00,0.5124
1065.00,0.5107
1064.00,0.5097
1063.00,0.5094
1062.00,0.5098
1061.00,0.5108
1060.00,0.5122
1059.00,0.5138
1058.00,0.5150
1057.00,0.5158
1056.00,0.5162
1055.00,0.5164
1054.00,0.5167
1053.00,0.5173
1052.00,0.5187
1051.00,0.5211
1050.00,0.5246
1049.00,0.5290
1048.00,0.5340
1047.00,0.5389
1046.00,0.5431
1045.00,0.5465
1044.00,0.5491
1043.00,0.5514
1042.00,0.5536
1041.00,0.5560
1040.00,0.5587
1039.00,0.5616
1038.00,0.5644
1037.00,0.5669
1036.00,0.5697
1035.00,0.5731
1034.00,0.5778
1033.00,0.5839
1032.00,0.5917
1031.00,0.6011
1030.00,0.6113
1029.00,0.6209
1028.00,0.6283
1027.00,0.6325
1026.00,0.6332
1025.00,0.6308
1024.00,0.6266
1023.00,0.6220
1022.00,0.6181
1021.00,0.6160
1020.00,0.6160
1019.00,0.6183
1018.00,0.6226
1017.00,0.6282
1016.00,0.6347
1015.00,0.6419
1014.00,0.6492
1013.00,0.6563
1012.00,0.6631
1011.00,0.6696
1010.00,0.6761
1009.00,0.6831
1008.00,0.6905
1007.00,0.6981
1006.00,0.7051
1005.00,0.7110
1004.00,0.7159
1003.00,0.7196
1002.00,0.7218
1001.00,0.7222
1000.00,0.7200
999.00,0.7150
998.00,0.7070
997.00,0.6967
996.00,0.6847
995.00,0.6719
994.00,0.6584
993.00,0.6444
992.00,0.6302
991.00,0.6162
990.00,0.6024
989.00,0.5890
988.00,0.5760
987.00,0.5636
986.00,0.5519
985.00,0.5409
984.00,0.5305
983.00,0.5204
982.00,0.5106
981.00,0.5010
980.00,0.4915
979.00,0.4823
978.00,0.4735
977.00,0.4650
976.00,0.4572
975.00,0.4504
974.00,0.4446
973.00,0.4398
972.00,0.4361
971.00,0.4335
970.00,0.4320
969.00,0.4311
968.00,0.4310
967.00,0.4313
966.00,0.4316
965.00,0.4311
964.00,0.4294
963.00,0.4264
962.00,0.4222
961.00,0.4174
960.00,0.4127
959.00,0.4088
958.00,0.4059
957.00,0.4041
956.00,0.4032
955.00,0.4031
954.00,0.4032
953.00,0.4033
952.00,0.4035
951.00,0.4043
950.00,0.4061
949.00,0.4091
948.00,0.4134
947.00,0.4187
946.00,0.4246
945.00,0.4302
944.00,0.4346
943.00,0.4373
942.00,0.4379
941.00,0.4366
940.00,0.4339
939.00,0.4307
938.00,0.4273
937.00,0.4241
936.00,0.4213
935.00,0.4191
934.00,0.4177
933.00,0.4174
932.00,0.4186
931.00,0.4217
930.00,0.4271
929.00,0.4350
928.00,0.4457
927.00,0.4591
926.00,0.4741
925.00,0.4893
924.00,0.5025
923.00,0.5128
922.00,0.5197
921.00,0.5233
920.00,0.5237
919.00,0.5204
918.00,0.5130
917.00,0.5012
916.00,0.4855
915.00,0.4672
914.00,0.4484
913.00,0.4312
912.00,0.4172
911.00,0.4067
910.00,0.3989
909.00,0.3931
908.00,0.3885
907.00,0.3848
906.00,0.3818
905.00,0.3793
904.00,0.3774
903.00,0.3765
902.00,0.3764
901.00,0.3771
900.00,0.3786
899.00,0.3807
898.00,0.3836
897.00,0.3870
896.00,0.3914
895.00,0.3968
894.00,0.4035
893.00,0.4112
892.00,0.4194
891.00,0.4269
890.00,0.4326
889.00,0.4356
888.00,0.4354
887.00,0.4323
886.00,0.4271
885.00,0.4208
884.00,0.4147
883.00,0.4098
882.00,0.4065
881.00,0.4046
880.00,0.4037
879.00,0.4036
878.00,0.4038
877.00,0.4041
876.00,0.4046
875.00,0.4051
874.00,0.4059
873.00,0.4070
872.00,0.4083
871.00,0.4103
870.00,0.4130
869.00,0.4168
868.00,0.4221
867.00,0.4293
866.00,0.4385
865.00,0.4491
864.00,0.4603
863.00,0.4708
862.00,0.4789
861.00,0.4828
860.00,0.4816
859.00,0.4759
858.00,0.4672
857.00,0.4577
856.00,0.4492
855.00,0.4426
854.00,0.4383
853.00,0.4361
852.00,0.4354
851.00,0.4360
850.00,0.4372
849.00,0.4388
848.00,0.4407
847.00,0.4430
846.00,0.4456
845.00,0.4483
844.00,0.4516
843.00,0.4561
842.00,0.4625
841.00,0.4714
840.00,0.4831
839.00,0.4975
838.00,0.5130
837.00,0.5267
836.00,0.5350
835.00,0.5353
834.00,0.5273
833.00,0.5137
832.00,0.4986
831.00,0.4853
830.00,0.4756
829.00,0.4698
828.00,0.4675
827.00,0.4685
826.00,0.4723
825.00,0.4782
824.00,0.4853
823.00,0.4923
822.00,0.4976
821.00,0.4994
820.00,0.4970
819.00,0.4909
818.00,0.4827
817.00,0.4737
816.00,0.4654
815.00,0.4587
814.00,0.4535
813.00,0.4497
812.00,0.4466
811.00,0.4440
810.00,0.4416
809.00,0.4391
808.00,0.4365
807.00,0.4337
806.00,0.4309
805.00,0.4285
804.00,0.4267
803.00,0.4257
802.00,0.4256
801.00,0.4263
800.00,0.4278
799.00,0.4301
798.00,0.4332
797.00,0.4368
796.00,0.4409
795.00,0.4453
794.00,0.4496
793.00,0.4538
792.00,0.4578
791.00,0.4618
790.00,0.4657
789.00,0.4692
788.00,0.4726
787.00,0.4766
786.00,0.4820
785.00,0.4894
784.00,0.4988
783.00,0.5092
782.00,0.5185
781.00,0.5243
780.00,0.5246
779.00,0.5185
778.00,0.5071
777.00,0.4929
776.00,0.4787
775.00,0.4666
774.00,0.4575
773.00,0.4515
772.00,0.4485
771.00,0.4482
770.00,0.4502
769.00,0.4541
768.00,0.4595
767.00,0.4662
766.00,0.4735
765.00,0.4810
764.00,0.4885
763.00,0.4958
762.00,0.5031
761.00,0.5102
760.00,0.5166
759.00,0.5220
758.00,0.5258
757.00,0.5282
756.00,0.5302
755.00,0.5330
754.00,0.5369
753.00,0.5416
752.00,0.5473
751.00,0.5542
750.00,0.5631
749.00,0.5745
748.00,0.5883
747.00,0.6033
746.00,0.6177
745.00,0.6291
744.00,0.6363
743.00,0.6389
742.00,0.6379
741.00,0.6353
740.00,0.6331
739.00,0.6331
738.00,0.6368
737.00,0.6447
736.00,0.6568
735.00,0.6729
734.00,0.6926
733.00,0.7161
732.00,0.7441
731.00,0.7780
730.00,0.8194
729.00,0.8699
728.00,0.9312
727.00,1.0040
726.00,1.0876
725.00,1.1780
724.00,1.2659
723.00,1.3333
722.00,1.3554
721.00,1.3181
720.00,1.2349
719.00,1.1338
718.00,1.0352
717.00,0.9483
716.00,0.8754
715.00,0.8158
714.00,0.7674
713.00,0.7274
712.00,0.6937
711.00,0.6650
710.00,0.6402
709.00,0.6184
708.00,0.5990
707.00,0.5818
706.00,0.5668
705.00,0.5537
704.00,0.5420
703.00,0.5317
702.00,0.5226
701.00,0.5146
700.00,0.5075
699.00,0.5010
698.00,0.4950
697.00,0.4892
696.00,0.4838
695.00,0.4792
694.00,0.4755
693.00,0.4729
692.00,0.4714
691.00,0.4709
690.00,0.4712
689.00,0.4723
688.00,0.4740
687.00,0.4763
686.00,0.4793
685.00,0.4830
684.00,0.4881
683.00,0.4945
682.00,0.5023
681.00,0.5114
680.00,0.5219
679.00,0.5339
678.00,0.5469
677.00,0.5600
676.00,0.5721
675.00,0.5820
674.00,0.5889
673.00,0.5924
672.00,0.5926
671.00,0.5906
670.00,0.5872
669.00,0.5829
668.00,0.5781
667.00,0.5746
666.00,0.5738
665.00,0.5748
664.00,0.5763
663.00,0.5774
662.00,0.5775
661.00,0.5762
660.00,0.5733
659.00,0.5691
658.00,0.5642
657.00,0.5592
656.00,0.5546
655.00,0.5510
654.00,0.5485
653.00,0.5469
652.00,0.5465
651.00,0.5473
650.00,0.5493
649.00,0.5524
648.00,0.5565
647.00,0.5613
646.00,0.5659
645.00,0.5695
644.00,0.5712
643.00,0.5709
642.00,0.5686
641.00,0.5644
640.00,0.5583
639.00,0.5509
638.00,0.5427
637.00,0.5340
636.00,0.5252
635.00,0.5170
634.00,0.5100
633.00,0.5045
632.00,0.5006
631.00,0.4984
630.00,0.4980
629.00,0.4992
628.00,0.5021
627.00,0.5067
626.00,0.5132
625.00,0.5213
624.00,0.5306
623.00,0.5412
622.00,0.5525
621.00,0.5641
620.00,0.5751
619.00,0.5849
618.00,0.5923
617.00,0.5960
616.00,0.5954
615.00,0.5903
614.00,0.5816
613.00,0.5704
612.00,0.5578
611.00,0.5449
610.00,0.5327
609.00,0.5216
608.00,0.5117
607.00,0.5030
606.00,0.4953
605.00,0.4886
604.00,0.4833
603.00,0.4797
602.00,0.4776
601.00,0.4762
600.00,0.4751
599.00,0.4742
598.00,0.4736
597.00,0.4732
596.00,0.4731
595.00,0.4737
594.00,0.4751
593.00,0.4771
592.00,0.4793
591.00,0.4818
590.00,0.4848
589.00,0.4883
588.00,0.4920
587.00,0.4954
586.00,0.4982
585.00,0.5005
584.00,0.5027
583.00,0.5054
582.00,0.5084
581.00,0.5113
580.00,0.5137
579.00,0.5158
578.00,0.5181
577.00,0.5209
576.00,0.5246
575.00,0.5291
574.00,0.5343
573.00,0.5400
572.00,0.5463
571.00,0.5534
570.00,0.5611
569.00,0.5691
568.00,0.5774
567.00,0.5859
566.00,0.5945
565.00,0.6033
564.00,0.6120
563.00,0.6206
562.00,0.6290
561.00,0.6371
560.00,0.6445
559.00,0.6504
558.00,0.6542
557.00,0.6564
556.00,0.6581
555.00,0.6602
554.00,0.6624
553.00,0.6647
552.00,0.6671
551.00,0.6701
550.00,0.6738
