Created as New Dataset,
cm-1,A
4000.00,0.3844
3999.00,0.3843
3998.00,0.3843
3997.00,0.3843
3996.00,0.3842
3995.00,0.3841
3994.00,0.3839
3993.00,0.3836
3992.00,0.3834
3991.00,0.3831
3990.00,0.3827
3989.00,0.3823
3988.00,0.3819
3987.00,0.3815
3986.00,0.3811
3985.00,0.3807
3984.00,0.3803
3983.00,0.3799
3982.00,0.3795
3981.00,0.3790
3980.00,0.3785
3979.00,0.3780
3978.00,0.3776
3977.00,0.3771
3976.00,0.3767
3975.00,0.3764
3974.00,0.3759
3973.00,0.3755
3972.00,0.3752
3971.00,0.3748
3970.00,0.3745
3969.00,0.3741
3968.00,0.3737
3967.00,0.3733
3966.00,0.3728
3965.00,0.3723
3964.00,0.3718
3963.00,0.3712
3962.00,0.3707
3961.00,0.3702
3960.00,0.3696
3959.00,0.3692
3958.00,0.3688
3957.00,0.3684
3956.00,0.3681
3955.00,0.3678
3954.00,0.3675
3953.00,0.3673
3952.00,0.3670
3951.00,0.3668
3950.00,0.3665
3949.00,0.3663
3948.00,0.3660
3947.00,0.3658
3946.00,0.3656
3945.00,0.3654
3944.00,0.3652
3943.00,0.3650
3942.00,0.3647
3941.00,0.3645
3940.00,0.3643
3939.00,0.3641
3938.00,0.3639
3937.00,0.3638
3936.00,0.3638
3935.00,0.3637
3934.00,0.3637
3933.00,0.3636
3932.00,0.3636
3931.00,0.3635
3930.00,0.3635
3929.00,0.3635
3928.00,0.3635
3927.00,0.3635
3926.00,0.3635
3925.00,0.3634
3924.00,0.3634
3923.00,0.3634
3922.00,0.3635
3921.00,0.3635
3920.00,0.3635
3919.00,0.3635
3918.00,0.3635
3917.00,0.3634
3916.00,0.3633
3915.00,0.3633
3914.00,0.3632
3913.00,0.3631
3912.00,0.3630
3911.00,0.3629
3910.00,0.3628
3909.00,0.3627
3908.00,0.3628
3907.00,0.3628
3906.00,0.3628
3905.00,0.3627
3904.00,0.3626
3903.00,0.3625
3902.00,0.3624
3901.00,0.3623
3900.00,0.3622
3899.00,0.3622
3898.00,0.3621
3897.00,0.3619
3896.00,0.3617
3895.00,0.3614
3894.00,0.3611
3893.00,0.3609
3892.00,0.3607
3891.00,0.3606
3890.00,0.3605
3889.00,0.3604
3888.00,0.3602
3887.00,0.3601
3886.00,0.3600
3885.00,0.3600
3884.00,0.3599
3883.00,0.3597
3882.00,0.3595
3881.00,0.3594
3880.00,0.3593
3879.00,0.3592
3878.00,0.3591
3877.00,0.3590
3876.00,0.3590
3875.00,0.3591
3874.00,0.3591
3873.00,0.3591
3872.00,0.3590
3871.00,0.3589
3870.00,0.3589
3869.00,0.3589
3868.00,0.3589
3867.00,0.3587
3866.00,0.3585
3865.00,0.3584
3864.00,0.3583
3863.00,0.3580
3862.00,0.3577
3861.00,0.3574
3860.00,0.3572
3859.00,0.3571
3858.00,0.3571
3857.00,0.3572
3856.00,0.3573
3855.00,0.3572
3854.00,0.3572
3853.00,0.3572
3852.00,0.3572
3851.00,0.3572
3850.00,0.3570
3849.00,0.3568
3848.00,0.3566
3847.00,0.3565
3846.00,0.3563
3845.00,0.3561
3844.00,0.3560
3843.00,0.3560
3842.00,0.3561
3841.00,0.3561
3840.00,0.3562
3839.00,0.3563
3838.00,0.3563
3837.00,0.3563
3836.00,0.3562
3835.00,0.3560
3834.00,0.3558
3833.00,0.3556
3832.00,0.3554
3831.00,0.3551
3830.00,0.3548
3829.00,0.3545
3828.00,0.3543
3827.00,0.3542
3826.00,0.3542
3825.00,0.3542
3824.00,0.3542
3823.00,0.3541
3822.00,0.3541
3821.00,0.3541
3820.00,0.3540
3819.00,0.3538
3818.00,0.3535
3817.00,0.3532
3816.00,0.3529
3815.00,0.3526
3814.00,0.3523
3813.00,0.3519
3812.00,0.3517
3811.00,0.3515
3810.00,0.3513
3809.00,0.3511
3808.00,0.3510
3807.00,0.3509
3806.00,0.3508
3805.00,0.3508
3804.00,0.3507
3803.00,0.3506
3802.00,0.3505
3801.00,0.3504
3800.00,0.3502
3799.00,0.3499
3798.00,0.3496
3797.00,0.3494
3796.00,0.3492
3795.00,0.3490
3794.00,0.3487
3793.00,0.3484
3792.00,0.3481
3791.00,0.3479
3790.00,0.3477
3789.00,0.3476
3788.00,0.3474
3787.00,0.3473
3786.00,0.3472
3785.00,0.3472
3784.00,0.3472
3783.00,0.3471
3782.00,0.3470
3781.00,0.3469
3780.00,0.3469
3779.00,0.3469
3778.00,0.3469
3777.00,0.3469
3776.00,0.3468
3775.00,0.3467
3774.00,0.3467
3773.00,0.3466
3772.00,0.3466
3771.00,0.3466
3770.00,0.3466
3769.00,0.3466
3768.00,0.3466
3767.00,0.3465
3766.00,0.3465
3765.00,0.3465
3764.00,0.3465
3763.00,0.3464
3762.00,0.3463
3761.00,0.3463
3760.00,0.3463
3759.00,0.3462
3758.00,0.3462
3757.00,0.3461
3756.00,0.3461
3755.00,0.3461
3754.00,0.3462
3753.00,0.3462
3752.00,0.3462
3751.00,0.3462
3750.00,0.3462
3749.00,0.3463
3748.00,0.3463
3747.00,0.3462
3746.00,0.3460
3745.00,0.3458
3744.00,0.3458
3743.00,0.3456
3742.00,0.3452
3741.00,0.3448
3740.00,0.3446
3739.00,0.3445
3738.00,0.3445
3737.00,0.3444
3736.00,0.3443
3735.00,0.3441
3734.00,0.3439
3733.00,0.3437
3732.00,0.3435
3731.00,0.3433
3730.00,0.3431
3729.00,0.3428
3728.00,0.3425
3727.00,0.3423
3726.00,0.3421
3725.00,0.3420
3724.00,0.3419
3723.00,0.3418
3722.00,0.3417
3721.00,0.3417
3720.00,0.3416
3719.00,0.3416
3718.00,0.3417
3717.00,0.3417
3716.00,0.3418
3715.00,0.3419
3714.00,0.3420
3713.00,0.3422
3712.00,0.3424
3711.00,0.3425
3710.00,0.3426
3709.00,0.3426
3708.00,0.3426
3707.00,0.3426
3706.00,0.3426
3705.00,0.3426
3704.00,0.3426
3703.00,0.3426
3702.00,0.3426
3701.00,0.3426
3700.00,0.3427
3699.00,0.3427
3698.00,0.3428
3697.00,0.3430
3696.00,0.3432
3695.00,0.3435
3694.00,0.3438
3693.00,0.3441
3692.00,0.3444
3691.00,0.3447
3690.00,0.3450
3689.00,0.3453
3688.00,0.3456
3687.00,0.3459
3686.00,0.3461
3685.00,0.3462
3684.00,0.3464
3683.00,0.3465
3682.00,0.3466
3681.00,0.3467
3680.00,0.3468
3679.00,0.3469
3678.00,0.3471
3677.00,0.3474
3676.00,0.3477
3675.00,0.3481
3674.00,0.3483
3673.00,0.3484
3672.00,0.3485
3671.00,0.3486
3670.00,0.3488
3669.00,0.3488
3668.00,0.3488
3667.00,0.3488
3666.00,0.3489
3665.00,0.3489
3664.00,0.3491
3663.00,0.3492
3662.00,0.3494
3661.00,0.3497
3660.00,0.3501
3659.00,0.3504
3658.00,0.3509
3657.00,0.3514
3656.00,0.3521
3655.00,0.3528
3654.00,0.3534
3653.00,0.3541
3652.00,0.3548
3651.00,0.3555
3650.00,0.3562
3649.00,0.3568
3648.00,0.3574
3647.00,0.3581
3646.00,0.3586
3645.00,0.3592
3644.00,0.3599
3643.00,0.3605
3642.00,0.3613
3641.00,0.3621
3640.00,0.3631
3639.00,0.3642
3638.00,0.3654
3637.00,0.3668
3636.00,0.3681
3635.00,0.3695
3634.00,0.3709
3633.00,0.3725
3632.00,0.3744
3631.00,0.3768
3630.00,0.3799
3629.00,0.3837
3628.00,0.3876
3627.00,0.3909
3626.00,0.3934
3625.00,0.3951
3624.00,0.3958
3623.00,0.3954
3622.00,0.3940
3621.00,0.3916
3620.00,0.3886
3619.00,0.3853
3618.00,0.3824
3617.00,0.3799
3616.00,0.3781
3615.00,0.3768
3614.00,0.3761
3613.00,0.3757
3612.00,0.3756
3611.00,0.3757
3610.00,0.3759
3609.00,0.3763
3608.00,0.3768
3607.00,0.3773
3606.00,0.3776
3605.00,0.3778
3604.00,0.3779
3603.00,0.3779
3602.00,0.3777
3601.00,0.3774
3600.00,0.3769
3599.00,0.3763
3598.00,0.3756
3597.00,0.3749
3596.00,0.3743
3595.00,0.3736
3594.00,0.3729
3593.00,0.3722
3592.00,0.3716
3591.00,0.3711
3590.00,0.3708
3589.00,0.3705
3588.00,0.3704
3587.00,0.3702
3586.00,0.3700
3585.00,0.3698
3584.00,0.3696
3583.00,0.3695
3582.00,0.3693
3581.00,0.3691
3580.00,0.3689
3579.00,0.3688
3578.00,0.3686
3577.00,0.3686
3576.00,0.3687
3575.00,0.3688
3574.00,0.3690
3573.00,0.3693
3572.00,0.3697
3571.00,0.3701
3570.00,0.3706
3569.00,0.3710
3568.00,0.3715
3567.00,0.3721
3566.00,0.3726
3565.00,0.3731
3564.00,0.3736
3563.00,0.3740
3562.00,0.3744
3561.00,0.3748
3560.00,0.3753
3559.00,0.3758
3558.00,0.3763
3557.00,0.3770
3556.00,0.3776
3555.00,0.3783
3554.00,0.3790
3553.00,0.3797
3552.00,0.3805
3551.00,0.3813
3550.00,0.3821
3549.00,0.3829
3548.00,0.3838
3547.00,0.3846
3546.00,0.3856
3545.00,0.3866
3544.00,0.3876
3543.00,0.3886
3542.00,0.3896
3541.00,0.3906
3540.00,0.3916
3539.00,0.3925
3538.00,0.3936
3537.00,0.3946
3536.00,0.3958
3535.00,0.3969
3534.00,0.3980
3533.00,0.3991
3532.00,0.4001
3531.00,0.4013
3530.00,0.4024
3529.00,0.4035
3528.00,0.4046
3527.00,0.4058
3526.00,0.4069
3525.00,0.4081
3524.00,0.4093
3523.00,0.4105
3522.00,0.4116
3521.00,0.4128
3520.00,0.4139
3519.00,0.4151
3518.00,0.4163
3517.00,0.4176
3516.00,0.4189
3515.00,0.4202
3514.00,0.4215
3513.00,0.4230
3512.00,0.4245
3511.00,0.4259
3510.00,0.4274
3509.00,0.4289
3508.00,0.4304
3507.00,0.4318
3506.00,0.4332
3505.00,0.4347
3504.00,0.4361
3503.00,0.4376
3502.00,0.4391
3501.00,0.4407
3500.00,0.4423
3499.00,0.4440
3498.00,0.4456
3497.00,0.4472
3496.00,0.4488
3495.00,0.4504
3494.00,0.4520
3493.00,0.4536
3492.00,0.4551
3491.00,0.4567
3490.00,0.4583
3489.00,0.4599
3488.00,0.4616
3487.00,0.4633
3486.00,0.4650
3485.00,0.4668
3484.00,0.4686
3483.00,0.4704
3482.00,0.4723
3481.00,0.4742
3480.00,0.4760
3479.00,0.4777
3478.00,0.4795
3477.00,0.4814
3476.00,0.4833
3475.00,0.4852
3474.00,0.4871
3473.00,0.4890
3472.00,0.4910
3471.00,0.4930
3470.00,0.4950
3469.00,0.4970
3468.00,0.4990
3467.00,0.5010
3466.00,0.5031
3465.00,0.5052
3464.00,0.5073
3463.00,0.5095
3462.00,0.5117
3461.00,0.5139
3460.00,0.5162
3459.00,0.5184
3458.00,0.5207
3457.00,0.5230
3456.00,0.5254
3455.00,0.5280
3454.00,0.5306
3453.00,0.5332
3452.00,0.5359
3451.00,0.5385
3450.00,0.5413
3449.00,0.5442
3448.00,0.5473
3447.00,0.5505
3446.00,0.5538
3445.00,0.5571
3444.00,0.5606
3443.00,0.5641
3442.00,0.5676
3441.00,0.5711
3440.00,0.5745
3439.00,0.5778
3438.00,0.5810
3437.00,0.5841
3436.00,0.5871
3435.00,0.5898
3434.00,0.5923
3433.00,0.5946
3432.00,0.5969
3431.00,0.5990
3430.00,0.6011
3429.00,0.6032
3428.00,0.6052
3427.00,0.6072
3426.00,0.6091
3425.00,0.6112
3424.00,0.6133
3423.00,0.6155
3422.00,0.6176
3421.00,0.6198
3420.00,0.6220
3419.00,0.6241
3418.00,0.6261
3417.00,0.6281
3416.00,0.6302
3415.00,0.6324
3414.00,0.6348
3413.00,0.6372
3412.00,0.6395
3411.00,0.6417
3410.00,0.6438
3409.00,0.6460
3408.00,0.6481
3407.00,0.6502
3406.00,0.6524
3405.00,0.6546
3404.00,0.6568
3403.00,0.6590
3402.00,0.6611
3401.00,0.6633
3400.00,0.6655
3399.00,0.6675
3398.00,0.6696
3397.00,0.6715
3396.00,0.6734
3395.00,0.6752
3394.00,0.6771
3393.00,0.6790
3392.00,0.6810
3391.00,0.6828
3390.00,0.6847
3389.00,0.6865
3388.00,0.6883
3387.00,0.6901
3386.00,0.6919
3385.00,0.6937
3384.00,0.6954
3383.00,0.6972
3382.00,0.6989
3381.00,0.7007
3380.00,0.7024
3379.00,0.7040
3378.00,0.7055
3377.00,0.7071
3376.00,0.7086
3375.00,0.7102
3374.00,0.7118
3373.00,0.7135
3372.00,0.7152
3371.00,0.7169
3370.00,0.7186
3369.00,0.7203
3368.00,0.7220
3367.00,0.7235
3366.00,0.7251
3365.00,0.7266
3364.00,0.7282
3363.00,0.7298
3362.00,0.7315
3361.00,0.7333
3360.00,0.7349
3359.00,0.7365
3358.00,0.7380
3357.00,0.7395
3356.00,0.7411
3355.00,0.7426
3354.00,0.7441
3353.00,0.7455
3352.00,0.7468
3351.00,0.7481
3350.00,0.7494
3349.00,0.7506
3348.00,0.7518
3347.00,0.7529
3346.00,0.7540
3345.00,0.7550
3344.00,0.7559
3343.00,0.7568
3342.00,0.7577
3341.00,0.7585
3340.00,0.7593
3339.00,0.7599
3338.00,0.7603
3337.00,0.7606
3336.00,0.7608
3335.00,0.7608
3334.00,0.7609
3333.00,0.7609
3332.00,0.7609
3331.00,0.7607
3330.00,0.7604
3329.00,0.7599
3328.00,0.7594
3327.00,0.7588
3326.00,0.7581
3325.00,0.7572
3324.00,0.7562
3323.00,0.7553
3322.00,0.7544
3321.00,0.7535
3320.00,0.7525
3319.00,0.7515
3318.00,0.7503
3317.00,0.7491
3316.00,0.7478
3315.00,0.7465
3314.00,0.7452
3313.00,0.7439
3312.00,0.7427
3311.00,0.7414
3310.00,0.7400
3309.00,0.7386
3308.00,0.7372
3307.00,0.7360
3306.00,0.7348
3305.00,0.7337
3304.00,0.7325
3303.00,0.7313
3302.00,0.7302
3301.00,0.7292
3300.00,0.7283
3299.00,0.7275
3298.00,0.7265
3297.00,0.7256
3296.00,0.7248
3295.00,0.7240
3294.00,0.7232
3293.00,0.7224
3292.00,0.7216
3291.00,0.7208
3290.00,0.7201
3289.00,0.7195
3288.00,0.7191
3287.00,0.7187
3286.00,0.7184
3285.00,0.7181
3284.00,0.7178
3283.00,0.7174
3282.00,0.7170
3281.00,0.7166
3280.00,0.7162
3279.00,0.7158
3278.00,0.7156
3277.00,0.7153
3276.00,0.7151
3275.00,0.7148
3274.00,0.7146
3273.00,0.7143
3272.00,0.7140
3271.00,0.7136
3270.00,0.7132
3269.00,0.7128
3268.00,0.7126
3267.00,0.7125
3266.00,0.7123
3265.00,0.7121
3264.00,0.7118
3263.00,0.7115
3262.00,0.7111
3261.00,0.7107
3260.00,0.7102
3259.00,0.7096
3258.00,0.7091
3257.00,0.7085
3256.00,0.7080
3255.00,0.7074
3254.00,0.7067
3253.00,0.7060
3252.00,0.7053
3251.00,0.7046
3250.00,0.7037
3249.00,0.7027
3248.00,0.7016
3247.00,0.7005
3246.00,0.6993
3245.00,0.6980
3244.00,0.6967
3243.00,0.6953
3242.00,0.6939
3241.00,0.6924
3240.00,0.6907
3239.00,0.6891
3238.00,0.6875
3237.00,0.6859
3236.00,0.6842
3235.00,0.6825
3234.00,0.6808
3233.00,0.6790
3232.00,0.6772
3231.00,0.6754
3230.00,0.6735
3229.00,0.6715
3228.00,0.6695
3227.00,0.6675
3226.00,0.6655
3225.00,0.6637
3224.00,0.6618
3223.00,0.6598
3222.00,0.6578
3221.00,0.6557
3220.00,0.6536
3219.00,0.6515
3218.00,0.6495
3217.00,0.6474
3216.00,0.6453
3215.00,0.6432
3214.00,0.6412
3213.00,0.6392
3212.00,0.6373
3211.00,0.6353
3210.00,0.6332
3209.00,0.6312
3208.00,0.6292
3207.00,0.6271
3206.00,0.6251
3205.00,0.6231
3204.00,0.6211
3203.00,0.6191
3202.00,0.6170
3201.00,0.6150
3200.00,0.6131
3199.00,0.6110
3198.00,0.6090
3197.00,0.6068
3196.00,0.6047
3195.00,0.6026
3194.00,0.6005
3193.00,0.5984
3192.00,0.5963
3191.00,0.5941
3190.00,0.5919
3189.00,0.5897
3188.00,0.5876
3187.00,0.5855
3186.00,0.5835
3185.00,0.5814
3184.00,0.5792
3183.00,0.5770
3182.00,0.5749
3181.00,0.5729
3180.00,0.5710
3179.00,0.5691
3178.00,0.5671
3177.00,0.5650
3176.00,0.5629
3175.00,0.5608
3174.00,0.5586
3173.00,0.5565
3172.00,0.5545
3171.00,0.5526
3170.00,0.5508
3169.00,0.5489
3168.00,0.5470
3167.00,0.5450
3166.00,0.5431
3165.00,0.5412
3164.00,0.5393
3163.00,0.5375
3162.00,0.5357
3161.00,0.5340
3160.00,0.5324
3159.00,0.5309
3158.00,0.5293
3157.00,0.5277
3156.00,0.5261
3155.00,0.5245
3154.00,0.5230
3153.00,0.5216
3152.00,0.5203
3151.00,0.5190
3150.00,0.5177
3149.00,0.5164
3148.00,0.5151
3147.00,0.5139
3146.00,0.5126
3145.00,0.5114
3144.00,0.5102
3143.00,0.5091
3142.00,0.5081
3141.00,0.5070
3140.00,0.5059
3139.00,0.5049
3138.00,0.5039
3137.00,0.5029
3136.00,0.5018
3135.00,0.5008
3134.00,0.4997
3133.00,0.4987
3132.00,0.4977
3131.00,0.4968
3130.00,0.4958
3129.00,0.4949
3128.00,0.4940
3127.00,0.4932
3126.00,0.4924
3125.00,0.4916
3124.00,0.4909
3123.00,0.4902
3122.00,0.4896
3121.00,0.4892
3120.00,0.4889
3119.00,0.4886
3118.00,0.4883
3117.00,0.4880
3116.00,0.4878
3115.00,0.4877
3114.00,0.4877
3113.00,0.4878
3112.00,0.4880
3111.00,0.4883
3110.00,0.4887
3109.00,0.4890
3108.00,0.4894
3107.00,0.4898
3106.00,0.4902
3105.00,0.4907
3104.00,0.4911
3103.00,0.4916
3102.00,0.4921
3101.00,0.4926
3100.00,0.4931
3099.00,0.4936
3098.00,0.4941
3097.00,0.4946
3096.00,0.4951
3095.00,0.4957
3094.00,0.4963
3093.00,0.4970
3092.00,0.4977
3091.00,0.4984
3090.00,0.4991
3089.00,0.5000
3088.00,0.5009
3087.00,0.5019
3086.00,0.5030
3085.00,0.5042
3084.00,0.5055
3083.00,0.5070
3082.00,0.5085
3081.00,0.5101
3080.00,0.5118
3079.00,0.5135
3078.00,0.5153
3077.00,0.5171
3076.00,0.5191
3075.00,0.5212
3074.00,0.5235
3073.00,0.5258
3072.00,0.5283
3071.00,0.5309
3070.00,0.5337
3069.00,0.5365
3068.00,0.5395
3067.00,0.5425
3066.00,0.5456
3065.00,0.5488
3064.00,0.5520
3063.00,0.5554
3062.00,0.5587
3061.00,0.5621
3060.00,0.5655
3059.00,0.5689
3058.00,0.5722
3057.00,0.5756
3056.00,0.5789
3055.00,0.5821
3054.00,0.5852
3053.00,0.5882
3052.00,0.5911
3051.00,0.5937
3050.00,0.5963
3049.00,0.5989
3048.00,0.6017
3047.00,0.6047
3046.00,0.6078
3045.00,0.6111
3044.00,0.6144
3043.00,0.6178
3042.00,0.6214
3041.00,0.6253
3040.00,0.6294
3039.00,0.6339
3038.00,0.6386
3037.00,0.6435
3036.00,0.6488
3035.00,0.6542
3034.00,0.6598
3033.00,0.6655
3032.00,0.6713
3031.00,0.6772
3030.00,0.6832
3029.00,0.6894
3028.00,0.6955
3027.00,0.7017
3026.00,0.7077
3025.00,0.7138
3024.00,0.7200
3023.00,0.7265
3022.00,0.7332
3021.00,0.7401
3020.00,0.7472
3019.00,0.7545
3018.00,0.7622
3017.00,0.7703
3016.00,0.7788
3015.00,0.7878
3014.00,0.7974
3013.00,0.8074
3012.00,0.8180
3011.00,0.8291
3010.00,0.8410
3009.00,0.8535
3008.00,0.8668
3007.00,0.8807
3006.00,0.8956
3005.00,0.9112
3004.00,0.9278
3003.00,0.9454
3002.00,0.9640
3001.00,0.9838
3000.00,1.0048
2999.00,1.0271
2998.00,1.0509
2997.00,1.0763
2996.00,1.1035
2995.00,1.1325
2994.00,1.1635
2993.00,1.1968
2992.00,1.2325
2991.00,1.2710
2990.00,1.3127
2989.00,1.3580
2988.00,1.4071
2987.00,1.4610
2986.00,1.5204
2985.00,1.5859
2984.00,1.6578
2983.00,1.7369
2982.00,1.8247
2981.00,1.9222
2980.00,2.0300
2979.00,2.1491
2978.00,2.2817
2977.00,2.4297
2976.00,2.5935
2975.00,2.7720
2974.00,2.9615
2973.00,3.1518
2972.00,3.3263
2971.00,3.4761
2970.00,3.5929
2969.00,3.6499
2968.00,3.6486
2967.00,3.6489
2966.00,3.7013
2965.00,3.7413
2964.00,3.6677
2963.00,3.5724
2962.00,3.5563
2961.00,3.6618
2960.00,3.8652
2959.00,4.0013
2958.00,3.9191
2957.00,3.7760
2956.00,3.7063
2955.00,3.7275
2954.00,3.8039
2953.00,3.9626
2952.00,4.2468
2951.00,4.3093
2950.00,4.1015
2949.00,3.9727
2948.00,4.1107
2947.00,4.5858
2946.00,4.6253
2945.00,4.2667
2944.00,4.0367
2943.00,4.0180
2942.00,4.0895
2941.00,4.1636
2940.00,4.1522
2939.00,4.2155
2938.00,4.4128
2937.00,4.3086
2936.00,4.1192
2935.00,4.0156
2934.00,4.0563
2933.00,3.9861
2932.00,3.8346
2931.00,3.7290
2930.00,3.6648
2929.00,3.6452
2928.00,3.6521
2927.00,3.7020
2926.00,3.8315
2925.00,4.0472
2924.00,4.2390
2923.00,4.2125
2922.00,4.0933
2921.00,4.0605
2920.00,4.1202
2919.00,4.2540
2918.00,4.2681
2917.00,4.0674
2916.00,3.9035
2915.00,3.8745
2914.00,4.0035
2913.00,4.1322
2912.00,4.0853
2911.00,3.9762
2910.00,3.9472
2909.00,4.0142
2908.00,4.2099
2907.00,4.6524
2906.00,4.5117
2905.00,4.1980
2904.00,4.0303
2903.00,4.0137
2902.00,3.9737
2901.00,3.8964
2900.00,3.8851
2899.00,3.9522
2898.00,4.1195
2897.00,4.2464
2896.00,4.1529
2895.00,4.0223
2894.00,4.0280
2893.00,4.2167
2892.00,4.3562
2891.00,4.1772
2890.00,4.1409
2889.00,4.4219
2888.00,4.3992
2887.00,4.2739
2886.00,4.3077
2885.00,4.8285
2884.00,5.2832
2883.00,4.2468
2882.00,4.0032
2881.00,3.8725
2880.00,3.8553
2879.00,3.8620
2878.00,3.8297
2877.00,3.7843
2876.00,3.7480
2875.00,3.7792
2874.00,3.8712
2873.00,3.9567
2872.00,3.9852
2871.00,4.0447
2870.00,4.1419
2869.00,4.1033
2868.00,3.9820
2867.00,3.9321
2866.00,4.0215
2865.00,4.0959
2864.00,3.9907
2863.00,3.8962
2862.00,3.9060
2861.00,4.0240
2860.00,4.2190
2859.00,4.4116
2858.00,4.4573
2857.00,4.4030
2856.00,4.3420
2855.00,4.2588
2854.00,4.0743
2853.00,3.9080
2852.00,3.8462
2851.00,3.9291
2850.00,4.1574
2849.00,4.2892
2848.00,4.1898
2847.00,4.1538
2846.00,4.2456
2845.00,4.2493
2844.00,4.0349
2843.00,3.8490
2842.00,3.7454
2841.00,3.6540
2840.00,3.4965
2839.00,3.2837
2838.00,3.0624
2837.00,2.8532
2836.00,2.6642
2835.00,2.4971
2834.00,2.3485
2833.00,2.2145
2832.00,2.0938
2831.00,1.9859
2830.00,1.8894
2829.00,1.8025
2828.00,1.7242
2827.00,1.6537
2826.00,1.5900
2825.00,1.5319
2824.00,1.4786
2823.00,1.4297
2822.00,1.3848
2821.00,1.3432
2820.00,1.3046
2819.00,1.2688
2818.00,1.2356
2817.00,1.2047
2816.00,1.1758
2815.00,1.1486
2814.00,1.1230
2813.00,1.0986
2812.00,1.0754
2811.00,1.0533
2810.00,1.0322
2809.00,1.0119
2808.00,0.9923
2807.00,0.9733
2806.00,0.9549
2805.00,0.9371
2804.00,0.9199
2803.00,0.9031
2802.00,0.8869
2801.00,0.8711
2800.00,0.8558
2799.00,0.8411
2798.00,0.8272
2797.00,0.8138
2796.00,0.8010
2795.00,0.7889
2794.00,0.7774
2793.00,0.7666
2792.00,0.7563
2791.00,0.7466
2790.00,0.7372
2789.00,0.7282
2788.00,0.7194
2787.00,0.7107
2786.00,0.7022
2785.00,0.6937
2784.00,0.6854
2783.00,0.6771
2782.00,0.6691
2781.00,0.6611
2780.00,0.6534
2779.00,0.6458
2778.00,0.6384
2777.00,0.6314
2776.00,0.6247
2775.00,0.6183
2774.00,0.6122
2773.00,0.6065
2772.00,0.6014
2771.00,0.5968
2770.00,0.5927
2769.00,0.5890
2768.00,0.5856
2767.00,0.5825
2766.00,0.5798
2765.00,0.5774
2764.00,0.5752
2763.00,0.5733
2762.00,0.5716
2761.00,0.5701
2760.00,0.5688
2759.00,0.5678
2758.00,0.5669
2757.00,0.5662
2756.00,0.5657
2755.00,0.5654
2754.00,0.5652
2753.00,0.5652
2752.00,0.5654
2751.00,0.5657
2750.00,0.5663
2749.00,0.5671
2748.00,0.5680
2747.00,0.5690
2746.00,0.5702
2745.00,0.5716
2744.00,0.5731
2743.00,0.5748
2742.00,0.5767
2741.00,0.5789
2740.00,0.5815
2739.00,0.5844
2738.00,0.5878
2737.00,0.5915
2736.00,0.5958
2735.00,0.6004
2734.00,0.6050
2733.00,0.6093
2732.00,0.6125
2731.00,0.6142
2730.00,0.6140
2729.00,0.6118
2728.00,0.6078
2727.00,0.6026
2726.00,0.5968
2725.00,0.5908
2724.00,0.5852
2723.00,0.5803
2722.00,0.5761
2721.00,0.5727
2720.00,0.5699
2719.00,0.5675
2718.00,0.5655
2717.00,0.5636
2716.00,0.5615
2715.00,0.5593
2714.00,0.5569
2713.00,0.5543
2712.00,0.5516
2711.00,0.5490
2710.00,0.5465
2709.00,0.5442
2708.00,0.5421
2707.00,0.5404
2706.00,0.5390
2705.00,0.5379
2704.00,0.5369
2703.00,0.5361
2702.00,0.5355
2701.00,0.5352
2700.00,0.5352
2699.00,0.5355
2698.00,0.5361
2697.00,0.5370
2696.00,0.5382
2695.00,0.5395
2694.00,0.5411
2693.00,0.5429
2692.00,0.5448
2691.00,0.5467
2690.00,0.5485
2689.00,0.5502
2688.00,0.5517
2687.00,0.5530
2686.00,0.5542
2685.00,0.5550
2684.00,0.5556
2683.00,0.5559
2682.00,0.5562
2681.00,0.5566
2680.00,0.5569
2679.00,0.5573
2678.00,0.5577
2677.00,0.5579
2676.00,0.5581
2675.00,0.5582
2674.00,0.5582
2673.00,0.5581
2672.00,0.5578
2671.00,0.5572
2670.00,0.5563
2669.00,0.5551
2668.00,0.5534
2667.00,0.5514
2666.00,0.5490
2665.00,0.5463
2664.00,0.5435
2663.00,0.5406
2662.00,0.5379
2661.00,0.5353
2660.00,0.5328
2659.00,0.5303
2658.00,0.5279
2657.00,0.5255
2656.00,0.5232
2655.00,0.5211
2654.00,0.5190
2653.00,0.5171
2652.00,0.5152
2651.00,0.5133
2650.00,0.5114
2649.00,0.5096
2648.00,0.5079
2647.00,0.5061
2646.00,0.5044
2645.00,0.5027
2644.00,0.5011
2643.00,0.4996
2642.00,0.4983
2641.00,0.4970
2640.00,0.4958
2639.00,0.4946
2638.00,0.4935
2637.00,0.4924
2636.00,0.4912
2635.00,0.4901
2634.00,0.4890
2633.00,0.4879
2632.00,0.4867
2631.00,0.4854
2630.00,0.4841
2629.00,0.4827
2628.00,0.4813
2627.00,0.4800
2626.00,0.4786
2625.00,0.4773
2624.00,0.4760
2623.00,0.4747
2622.00,0.4735
2621.00,0.4723
2620.00,0.4711
2619.00,0.4699
2618.00,0.4688
2617.00,0.4676
2616.00,0.4665
2615.00,0.4653
2614.00,0.4641
2613.00,0.4630
2612.00,0.4618
2611.00,0.4608
2610.00,0.4597
2609.00,0.4586
2608.00,0.4576
2607.00,0.4565
2606.00,0.4556
2605.00,0.4547
2604.00,0.4538
2603.00,0.4529
2602.00,0.4519
2601.00,0.4509
2600.00,0.4498
2599.00,0.4487
2598.00,0.4476
2597.00,0.4464
2596.00,0.4451
2595.00,0.4438
2594.00,0.4425
2593.00,0.4413
2592.00,0.4400
2591.00,0.4388
2590.00,0.4375
2589.00,0.4362
2588.00,0.4350
2587.00,0.4337
2586.00,0.4324
2585.00,0.4311
2584.00,0.4298
2583.00,0.4283
2582.00,0.4268
2581.00,0.4253
2580.00,0.4237
2579.00,0.4221
2578.00,0.4204
2577.00,0.4188
2576.00,0.4173
2575.00,0.4157
2574.00,0.4143
2573.00,0.4128
2572.00,0.4113
2571.00,0.4098
2570.00,0.4085
2569.00,0.4072
2568.00,0.4059
2567.00,0.4046
2566.00,0.4034
2565.00,0.4022
2564.00,0.4011
2563.00,0.3999
2562.00,0.3988
2561.00,0.3977
2560.00,0.3967
2559.00,0.3956
2558.00,0.3946
2557.00,0.3935
2556.00,0.3925
2555.00,0.3914
2554.00,0.3903
2553.00,0.3894
2552.00,0.3884
2551.00,0.3875
2550.00,0.3867
2549.00,0.3859
2548.00,0.3851
2547.00,0.3844
2546.00,0.3836
2545.00,0.3830
2544.00,0.3823
2543.00,0.3817
2542.00,0.3810
2541.00,0.3804
2540.00,0.3798
2539.00,0.3793
2538.00,0.3788
2537.00,0.3784
2536.00,0.3779
2535.00,0.3773
2534.00,0.3767
2533.00,0.3759
2532.00,0.3750
2531.00,0.3741
2530.00,0.3731
2529.00,0.3720
2528.00,0.3709
2527.00,0.3697
2526.00,0.3685
2525.00,0.3672
2524.00,0.3659
2523.00,0.3647
2522.00,0.3635
2521.00,0.3624
2520.00,0.3613
2519.00,0.3603
2518.00,0.3592
2517.00,0.3582
2516.00,0.3572
2515.00,0.3562
2514.00,0.3552
2513.00,0.3542
2512.00,0.3532
2511.00,0.3523
2510.00,0.3514
2509.00,0.3505
2508.00,0.3497
2507.00,0.3489
2506.00,0.3482
2505.00,0.3475
2504.00,0.3470
2503.00,0.3464
2502.00,0.3460
2501.00,0.3456
2500.00,0.3452
2499.00,0.3449
2498.00,0.3446
2497.00,0.3443
2496.00,0.3439
2495.00,0.3435
2494.00,0.3430
2493.00,0.3425
2492.00,0.3421
2491.00,0.3416
2490.00,0.3412
2489.00,0.3408
2488.00,0.3404
2487.00,0.3400
2486.00,0.3396
2485.00,0.3393
2484.00,0.3389
2483.00,0.3385
2482.00,0.3380
2481.00,0.3376
2480.00,0.3371
2479.00,0.3366
2478.00,0.3360
2477.00,0.3354
2476.00,0.3348
2475.00,0.3341
2474.00,0.3334
2473.00,0.3327
2472.00,0.3321
2471.00,0.3314
2470.00,0.3308
2469.00,0.3302
2468.00,0.3297
2467.00,0.3292
2466.00,0.3287
2465.00,0.3282
2464.00,0.3278
2463.00,0.3273
2462.00,0.3269
2461.00,0.3266
2460.00,0.3263
2459.00,0.3260
2458.00,0.3258
2457.00,0.3257
2456.00,0.3256
2455.00,0.3256
2454.00,0.3256
2453.00,0.3256
2452.00,0.3256
2451.00,0.3256
2450.00,0.3256
2449.00,0.3257
2448.00,0.3258
2447.00,0.3259
2446.00,0.3260
2445.00,0.3261
2444.00,0.3262
2443.00,0.3263
2442.00,0.3264
2441.00,0.3266
2440.00,0.3267
2439.00,0.3268
2438.00,0.3269
2437.00,0.3270
2436.00,0.3270
2435.00,0.3270
2434.00,0.3270
2433.00,0.3270
2432.00,0.3270
2431.00,0.3270
2430.00,0.3270
2429.00,0.3270
2428.00,0.3270
2427.00,0.3270
2426.00,0.3270
2425.00,0.3270
2424.00,0.3270
2423.00,0.3270
2422.00,0.3271
2421.00,0.3272
2420.00,0.3273
2419.00,0.3274
2418.00,0.3275
2417.00,0.3276
2416.00,0.3277
2415.00,0.3278
2414.00,0.3279
2413.00,0.3280
2412.00,0.3282
2411.00,0.3282
2410.00,0.3283
2409.00,0.3284
2408.00,0.3285
2407.00,0.3286
2406.00,0.3287
2405.00,0.3288
2404.00,0.3289
2403.00,0.3290
2402.00,0.3291
2401.00,0.3292
2400.00,0.3293
2399.00,0.3293
2398.00,0.3294
2397.00,0.3294
2396.00,0.3294
2395.00,0.3295
2394.00,0.3296
2393.00,0.3297
2392.00,0.3299
2391.00,0.3300
2390.00,0.3302
2389.00,0.3303
2388.00,0.3305
2387.00,0.3308
2386.00,0.3310
2385.00,0.3313
2384.00,0.3315
2383.00,0.3317
2382.00,0.3319
2381.00,0.3320
2380.00,0.3322
2379.00,0.3324
2378.00,0.3326
2377.00,0.3328
2376.00,0.3329
2375.00,0.3330
2374.00,0.3330
2373.00,0.3331
2372.00,0.3332
2371.00,0.3333
2370.00,0.3334
2369.00,0.3336
2368.00,0.3337
2367.00,0.3337
2366.00,0.3337
2365.00,0.3336
2364.00,0.3337
2363.00,0.3337
2362.00,0.3338
2361.00,0.3340
2360.00,0.3341
2359.00,0.3341
2358.00,0.3341
2357.00,0.3341
2356.00,0.3341
2355.00,0.3342
2354.00,0.3342
2353.00,0.3341
2352.00,0.3341
2351.00,0.3340
2350.00,0.3341
2349.00,0.3341
2348.00,0.3341
2347.00,0.3340
2346.00,0.3338
2345.00,0.3336
2344.00,0.3335
2343.00,0.3335
2342.00,0.3334
2341.00,0.3334
2340.00,0.3333
2339.00,0.3332
2338.00,0.3332
2337.00,0.3332
2336.00,0.3332
2335.00,0.3331
2334.00,0.3330
2333.00,0.3328
2332.00,0.3325
2331.00,0.3321
2330.00,0.3318
2329.00,0.3316
2328.00,0.3313
2327.00,0.3310
2326.00,0.3307
2325.00,0.3304
2324.00,0.3301
2323.00,0.3297
2322.00,0.3293
2321.00,0.3289
2320.00,0.3286
2319.00,0.3282
2318.00,0.3279
2317.00,0.3276
2316.00,0.3274
2315.00,0.3271
2314.00,0.3267
2313.00,0.3263
2312.00,0.3259
2311.00,0.3255
2310.00,0.3251
2309.00,0.3246
2308.00,0.3241
2307.00,0.3236
2306.00,0.3231
2305.00,0.3227
2304.00,0.3222
2303.00,0.3217
2302.00,0.3213
2301.00,0.3209
2300.00,0.3205
2299.00,0.3201
2298.00,0.3197
2297.00,0.3193
2296.00,0.3189
2295.00,0.3185
2294.00,0.3182
2293.00,0.3178
2292.00,0.3174
2291.00,0.3170
2290.00,0.3166
2289.00,0.3161
2288.00,0.3157
2287.00,0.3152
2286.00,0.3148
2285.00,0.3145
2284.00,0.3142
2283.00,0.3138
2282.00,0.3135
2281.00,0.3133
2280.00,0.3130
2279.00,0.3127
2278.00,0.3125
2277.00,0.3124
2276.00,0.3122
2275.00,0.3120
2274.00,0.3118
2273.00,0.3116
2272.00,0.3114
2271.00,0.3113
2270.00,0.3111
2269.00,0.3111
2268.00,0.3110
2267.00,0.3109
2266.00,0.3107
2265.00,0.3106
2264.00,0.3104
2263.00,0.3102
2262.00,0.3099
2261.00,0.3096
2260.00,0.3093
2259.00,0.3091
2258.00,0.3089
2257.00,0.3087
2256.00,0.3084
2255.00,0.3081
2254.00,0.3078
2253.00,0.3075
2252.00,0.3072
2251.00,0.3069
2250.00,0.3066
2249.00,0.3063
2248.00,0.3061
2247.00,0.3058
2246.00,0.3056
2245.00,0.3054
2244.00,0.3052
2243.00,0.3050
2242.00,0.3047
2241.00,0.3045
2240.00,0.3043
2239.00,0.3041
2238.00,0.3039
2237.00,0.3037
2236.00,0.3035
2235.00,0.3033
2234.00,0.3031
2233.00,0.3029
2232.00,0.3027
2231.00,0.3026
2230.00,0.3025
2229.00,0.3024
2228.00,0.3022
2227.00,0.3021
2226.00,0.3019
2225.00,0.3019
2224.00,0.3018
2223.00,0.3017
2222.00,0.3016
2221.00,0.3015
2220.00,0.3014
2219.00,0.3013
2218.00,0.3011
2217.00,0.3010
2216.00,0.3009
2215.00,0.3008
2214.00,0.3007
2213.00,0.3007
2212.00,0.3007
2211.00,0.3007
2210.00,0.3007
2209.00,0.3008
2208.00,0.3008
2207.00,0.3008
2206.00,0.3009
2205.00,0.3009
2204.00,0.3010
2203.00,0.3011
2202.00,0.3012
2201.00,0.3013
2200.00,0.3015
2199.00,0.3016
2198.00,0.3017
2197.00,0.3018
2196.00,0.3019
2195.00,0.3020
2194.00,0.3021
2193.00,0.3022
2192.00,0.3022
2191.00,0.3023
2190.00,0.3024
2189.00,0.3025
2188.00,0.3025
2187.00,0.3025
2186.00,0.3025
2185.00,0.3025
2184.00,0.3025
2183.00,0.3025
2182.00,0.3024
2181.00,0.3023
2180.00,0.3022
2179.00,0.3022
2178.00,0.3022
2177.00,0.3022
2176.00,0.3022
2175.00,0.3023
2174.00,0.3024
2173.00,0.3024
2172.00,0.3025
2171.00,0.3025
2170.00,0.3026
2169.00,0.3027
2168.00,0.3028
2167.00,0.3029
2166.00,0.3030
2165.00,0.3031
2164.00,0.3032
2163.00,0.3032
2162.00,0.3033
2161.00,0.3033
2160.00,0.3033
2159.00,0.3034
2158.00,0.3034
2157.00,0.3034
2156.00,0.3034
2155.00,0.3034
2154.00,0.3034
2153.00,0.3034
2152.00,0.3033
2151.00,0.3032
2150.00,0.3030
2149.00,0.3027
2148.00,0.3024
2147.00,0.3019
2146.00,0.3012
2145.00,0.3005
2144.00,0.2997
2143.00,0.2989
2142.00,0.2981
2141.00,0.2974
2140.00,0.2968
2139.00,0.2961
2138.00,0.2955
2137.00,0.2950
2136.00,0.2946
2135.00,0.2943
2134.00,0.2941
2133.00,0.2938
2132.00,0.2936
2131.00,0.2934
2130.00,0.2932
2129.00,0.2930
2128.00,0.2928
2127.00,0.2927
2126.00,0.2926
2125.00,0.2926
2124.00,0.2926
2123.00,0.2925
2122.00,0.2925
2121.00,0.2924
2120.00,0.2924
2119.00,0.2922
2118.00,0.2921
2117.00,0.2920
2116.00,0.2919
2115.00,0.2918
2114.00,0.2916
2113.00,0.2914
2112.00,0.2912
2111.00,0.2910
2110.00,0.2909
2109.00,0.2908
2108.00,0.2907
2107.00,0.2906
2106.00,0.2905
2105.00,0.2903
2104.00,0.2902
2103.00,0.2901
2102.00,0.2900
2101.00,0.2900
2100.00,0.2899
2099.00,0.2899
2098.00,0.2898
2097.00,0.2898
2096.00,0.2897
2095.00,0.2897
2094.00,0.2896
2093.00,0.2896
2092.00,0.2896
2091.00,0.2896
2090.00,0.2896
2089.00,0.2896
2088.00,0.2896
2087.00,0.2897
2086.00,0.2897
2085.00,0.2898
2084.00,0.2899
2083.00,0.2900
2082.00,0.2901
2081.00,0.2901
2080.00,0.2902
2079.00,0.2902
2078.00,0.2903
2077.00,0.2903
2076.00,0.2904
2075.00,0.2905
2074.00,0.2906
2073.00,0.2906
2072.00,0.2907
2071.00,0.2908
2070.00,0.2909
2069.00,0.2909
2068.00,0.2911
2067.00,0.2912
2066.00,0.2914
2065.00,0.2916
2064.00,0.2918
2063.00,0.2919
2062.00,0.2921
2061.00,0.2923
2060.00,0.2925
2059.00,0.2928
2058.00,0.2931
2057.00,0.2934
2056.00,0.2937
2055.00,0.2940
2054.00,0.2943
2053.00,0.2947
2052.00,0.2951
2051.00,0.2955
2050.00,0.2959
2049.00,0.2964
2048.00,0.2969
2047.00,0.2973
2046.00,0.2977
2045.00,0.2981
2044.00,0.2984
2043.00,0.2987
2042.00,0.2990
2041.00,0.2993
2040.00,0.2996
2039.00,0.2998
2038.00,0.3000
2037.00,0.3002
2036.00,0.3003
2035.00,0.3005
2034.00,0.3008
2033.00,0.3011
2032.00,0.3015
2031.00,0.3018
2030.00,0.3021
2029.00,0.3024
2028.00,0.3026
2027.00,0.3029
2026.00,0.3031
2025.00,0.3033
2024.00,0.3032
2023.00,0.3030
2022.00,0.3025
2021.00,0.3019
2020.00,0.3012
2019.00,0.3003
2018.00,0.2992
2017.00,0.2981
2016.00,0.2970
2015.00,0.2957
2014.00,0.2945
2013.00,0.2934
2012.00,0.2924
2011.00,0.2914
2010.00,0.2905
2009.00,0.2898
2008.00,0.2891
2007.00,0.2885
2006.00,0.2880
2005.00,0.2875
2004.00,0.2872
2003.00,0.2868
2002.00,0.2865
2001.00,0.2862
2000.00,0.2860
1999.00,0.2857
1998.00,0.2855
1997.00,0.2854
1996.00,0.2852
1995.00,0.2849
1994.00,0.2847
1993.00,0.2845
1992.00,0.2844
1991.00,0.2842
1990.00,0.2842
1989.00,0.2841
1988.00,0.2841
1987.00,0.2840
1986.00,0.2839
1985.00,0.2838
1984.00,0.2837
1983.00,0.2836
1982.00,0.2835
1981.00,0.2833
1980.00,0.2831
1979.00,0.2830
1978.00,0.2828
1977.00,0.2827
1976.00,0.2827
1975.00,0.2826
1974.00,0.2825
1973.00,0.2825
1972.00,0.2824
1971.00,0.2823
1970.00,0.2822
1969.00,0.2821
1968.00,0.2821
1967.00,0.2822
1966.00,0.2823
1965.00,0.2825
1964.00,0.2826
1963.00,0.2827
1962.00,0.2828
1961.00,0.2829
1960.00,0.2830
1959.00,0.2831
1958.00,0.2832
1957.00,0.2833
1956.00,0.2834
1955.00,0.2835
1954.00,0.2837
1953.00,0.2838
1952.00,0.2840
1951.00,0.2841
1950.00,0.2841
1949.00,0.2841
1948.00,0.2841
1947.00,0.2840
1946.00,0.2838
1945.00,0.2837
1944.00,0.2838
1943.00,0.2838
1942.00,0.2840
1941.00,0.2842
1940.00,0.2845
1939.00,0.2847
1938.00,0.2848
1937.00,0.2848
1936.00,0.2848
1935.00,0.2848
1934.00,0.2848
1933.00,0.2849
1932.00,0.2850
1931.00,0.2851
1930.00,0.2852
1929.00,0.2853
1928.00,0.2854
1927.00,0.2854
1926.00,0.2854
1925.00,0.2854
1924.00,0.2856
1923.00,0.2858
1922.00,0.2861
1921.00,0.2864
1920.00,0.2868
1919.00,0.2872
1918.00,0.2875
1917.00,0.2878
1916.00,0.2880
1915.00,0.2882
1914.00,0.2883
1913.00,0.2883
1912.00,0.2882
1911.00,0.2881
1910.00,0.2880
1909.00,0.2879
1908.00,0.2879
1907.00,0.2879
1906.00,0.2878
1905.00,0.2878
1904.00,0.2878
1903.00,0.2877
1902.00,0.2876
1901.00,0.2875
1900.00,0.2874
1899.00,0.2873
1898.00,0.2872
1897.00,0.2872
1896.00,0.2873
1895.00,0.2874
1894.00,0.2873
1893.00,0.2872
1892.00,0.2871
1891.00,0.2870
1890.00,0.2871
1889.00,0.2874
1888.00,0.2876
1887.00,0.2879
1886.00,0.2881
1885.00,0.2884
1884.00,0.2886
1883.00,0.2887
1882.00,0.2888
1881.00,0.2889
1880.00,0.2890
1879.00,0.2890
1878.00,0.2889
1877.00,0.2889
1876.00,0.2890
1875.00,0.2889
1874.00,0.2888
1873.00,0.2885
1872.00,0.2882
1871.00,0.2878
1870.00,0.2874
1869.00,0.2872
1868.00,0.2873
1867.00,0.2875
1866.00,0.2877
1865.00,0.2879
1864.00,0.2880
1863.00,0.2878
1862.00,0.2875
1861.00,0.2873
1860.00,0.2871
1859.00,0.2868
1858.00,0.2865
1857.00,0.2863
1856.00,0.2862
1855.00,0.2861
1854.00,0.2859
1853.00,0.2858
1852.00,0.2856
1851.00,0.2854
1850.00,0.2851
1849.00,0.2847
1848.00,0.2843
1847.00,0.2840
1846.00,0.2841
1845.00,0.2844
1844.00,0.2848
1843.00,0.2850
1842.00,0.2851
1841.00,0.2853
1840.00,0.2855
1839.00,0.2856
1838.00,0.2855
1837.00,0.2855
1836.00,0.2856
1835.00,0.2855
1834.00,0.2852
1833.00,0.2848
1832.00,0.2845
1831.00,0.2841
1830.00,0.2839
1829.00,0.2838
1828.00,0.2838
1827.00,0.2841
1826.00,0.2843
1825.00,0.2846
1824.00,0.2849
1823.00,0.2851
1822.00,0.2853
1821.00,0.2854
1820.00,0.2855
1819.00,0.2855
1818.00,0.2855
1817.00,0.2855
1816.00,0.2856
1815.00,0.2855
1814.00,0.2854
1813.00,0.2853
1812.00,0.2853
1811.00,0.2854
1810.00,0.2856
1809.00,0.2860
1808.00,0.2864
1807.00,0.2866
1806.00,0.2868
1805.00,0.2869
1804.00,0.2869
1803.00,0.2869
1802.00,0.2869
1801.00,0.2872
1800.00,0.2876
1799.00,0.2880
1798.00,0.2884
1797.00,0.2887
1796.00,0.2889
1795.00,0.2890
1794.00,0.2893
1793.00,0.2897
1792.00,0.2904
1791.00,0.2911
1790.00,0.2918
1789.00,0.2925
1788.00,0.2931
1787.00,0.2936
1786.00,0.2940
1785.00,0.2944
1784.00,0.2948
1783.00,0.2950
1782.00,0.2954
1781.00,0.2959
1780.00,0.2965
1779.00,0.2970
1778.00,0.2973
1777.00,0.2975
1776.00,0.2975
1775.00,0.2976
1774.00,0.2979
1773.00,0.2983
1772.00,0.2986
1771.00,0.2991
1770.00,0.2998
1769.00,0.3009
1768.00,0.3020
1767.00,0.3025
1766.00,0.3027
1765.00,0.3030
1764.00,0.3036
1763.00,0.3042
1762.00,0.3049
1761.00,0.3058
1760.00,0.3067
1759.00,0.3078
1758.00,0.3093
1757.00,0.3109
1756.00,0.3125
1755.00,0.3140
1754.00,0.3154
1753.00,0.3170
1752.00,0.3184
1751.00,0.3194
1750.00,0.3203
1749.00,0.3214
1748.00,0.3226
1747.00,0.3238
1746.00,0.3247
1745.00,0.3256
1744.00,0.3262
1743.00,0.3267
1742.00,0.3271
1741.00,0.3276
1740.00,0.3282
1739.00,0.3281
1738.00,0.3278
1737.00,0.3278
1736.00,0.3282
1735.00,0.3283
1734.00,0.3278
1733.00,0.3272
1732.00,0.3266
1731.00,0.3264
1730.00,0.3265
1729.00,0.3267
1728.00,0.3270
1727.00,0.3273
1726.00,0.3276
1725.00,0.3281
1724.00,0.3287
1723.00,0.3293
1722.00,0.3298
1721.00,0.3305
1720.00,0.3315
1719.00,0.3327
1718.00,0.3342
1717.00,0.3361
1716.00,0.3383
1715.00,0.3404
1714.00,0.3425
1713.00,0.3446
1712.00,0.3465
1711.00,0.3482
1710.00,0.3497
1709.00,0.3511
1708.00,0.3524
1707.00,0.3538
1706.00,0.3552
1705.00,0.3564
1704.00,0.3570
1703.00,0.3574
1702.00,0.3576
1701.00,0.3567
1700.00,0.3542
1699.00,0.3516
1698.00,0.3504
1697.00,0.3506
1696.00,0.3509
1695.00,0.3502
1694.00,0.3492
1693.00,0.3487
1692.00,0.3487
1691.00,0.3487
1690.00,0.3485
1689.00,0.3483
1688.00,0.3485
1687.00,0.3491
1686.00,0.3497
1685.00,0.3504
1684.00,0.3511
1683.00,0.3520
1682.00,0.3531
1681.00,0.3545
1680.00,0.3558
1679.00,0.3567
1678.00,0.3575
1677.00,0.3587
1676.00,0.3601
1675.00,0.3611
1674.00,0.3617
1673.00,0.3624
1672.00,0.3634
1671.00,0.3647
1670.00,0.3664
1669.00,0.3685
1668.00,0.3705
1667.00,0.3720
1666.00,0.3731
1665.00,0.3744
1664.00,0.3758
1663.00,0.3773
1662.00,0.3789
1661.00,0.3808
1660.00,0.3826
1659.00,0.3840
1658.00,0.3849
1657.00,0.3855
1656.00,0.3865
1655.00,0.3881
1654.00,0.3909
1653.00,0.3950
1652.00,0.3982
1651.00,0.3990
1650.00,0.3992
1649.00,0.4004
1648.00,0.4028
1647.00,0.4063
1646.00,0.4103
1645.00,0.4142
1644.00,0.4174
1643.00,0.4200
1642.00,0.4226
1641.00,0.4253
1640.00,0.4277
1639.00,0.4298
1638.00,0.4324
1637.00,0.4363
1636.00,0.4420
1635.00,0.4483
1634.00,0.4538
1633.00,0.4588
1632.00,0.4636
1631.00,0.4683
1630.00,0.4732
1629.00,0.4789
1628.00,0.4854
1627.00,0.4919
1626.00,0.4986
1625.00,0.5062
1624.00,0.5151
1623.00,0.5253
1622.00,0.5357
1621.00,0.5460
1620.00,0.5564
1619.00,0.5675
1618.00,0.5807
1617.00,0.5975
1616.00,0.6165
1615.00,0.6351
1614.00,0.6530
1613.00,0.6727
1612.00,0.6950
1611.00,0.7194
1610.00,0.7446
1609.00,0.7703
1608.00,0.7959
1607.00,0.8200
1606.00,0.8435
1605.00,0.8691
1604.00,0.8995
1603.00,0.9350
1602.00,0.9752
1601.00,1.0201
1600.00,1.0680
1599.00,1.1157
1598.00,1.1622
1597.00,1.2120
1596.00,1.2708
1595.00,1.3403
1594.00,1.4219
1593.00,1.5215
1592.00,1.6458
1591.00,1.7942
1590.00,1.9636
1589.00,2.1682
1588.00,2.4345
1587.00,2.7661
1586.00,3.0656
1585.00,3.3751
1584.00,3.9755
1583.00,4.1147
1582.00,4.0236
1581.00,3.7473
1580.00,3.6282
1579.00,3.5605
1578.00,3.5014
1577.00,3.4870
1576.00,3.4811
1575.00,3.5545
1574.00,3.5609
1573.00,3.3356
1572.00,3.2222
1571.00,3.0130
1570.00,2.7332
1569.00,2.5712
1568.00,2.5152
1567.00,2.5065
1566.00,2.5196
1565.00,2.6026
1564.00,2.7902
1563.00,3.0538
1562.00,3.1807
1561.00,3.3149
1560.00,3.7128
1559.00,3.8711
1558.00,3.7801
1557.00,3.3678
1556.00,3.1539
1555.00,2.7916
1554.00,2.4296
1553.00,2.1710
1552.00,1.9650
1551.00,1.7771
1550.00,1.6078
1549.00,1.4728
1548.00,1.3699
1547.00,1.2850
1546.00,1.2084
1545.00,1.1402
1544.00,1.0828
1543.00,1.0340
1542.00,0.9892
1541.00,0.9457
1540.00,0.9040
1539.00,0.8675
1538.00,0.8394
1537.00,0.8199
1536.00,0.8053
1535.00,0.7921
1534.00,0.7799
1533.00,0.7723
1532.00,0.7710
1531.00,0.7745
1530.00,0.7813
1529.00,0.7915
1528.00,0.8042
1527.00,0.8173
1526.00,0.8290
1525.00,0.8397
1524.00,0.8507
1523.00,0.8635
1522.00,0.8806
1521.00,0.9027
1520.00,0.9251
1519.00,0.9422
1518.00,0.9521
1517.00,0.9534
1516.00,0.9434
1515.00,0.9219
1514.00,0.8920
1513.00,0.8576
1512.00,0.8226
1511.00,0.7904
1510.00,0.7634
1509.00,0.7420
1508.00,0.7255
1507.00,0.7135
1506.00,0.7074
1505.00,0.7074
1504.00,0.7113
1503.00,0.7172
1502.00,0.7240
1501.00,0.7309
1500.00,0.7369
1499.00,0.7405
1498.00,0.7415
1497.00,0.7414
1496.00,0.7417
1495.00,0.7426
1494.00,0.7445
1493.00,0.7493
1492.00,0.7577
1491.00,0.7699
1490.00,0.7861
1489.00,0.8072
1488.00,0.8326
1487.00,0.8606
1486.00,0.8905
1485.00,0.9226
1484.00,0.9566
1483.00,0.9923
1482.00,1.0307
1481.00,1.0734
1480.00,1.1204
1479.00,1.1720
1478.00,1.2323
1477.00,1.3080
1476.00,1.4035
1475.00,1.5204
1474.00,1.6684
1473.00,1.8715
1472.00,2.1536
1471.00,2.5133
1470.00,2.9197
1469.00,3.3696
1468.00,3.9672
1467.00,4.5815
1466.00,4.5152
1465.00,4.0910
1464.00,3.8886
1463.00,3.9899
1462.00,4.1707
1461.00,4.3796
1460.00,4.3776
1459.00,4.2297
1458.00,4.2638
1457.00,4.0483
1456.00,4.1027
1455.00,4.0464
1454.00,3.7555
1453.00,3.7549
1452.00,3.8870
1451.00,3.9087
1450.00,4.0553
1449.00,4.1868
1448.00,4.2204
1447.00,4.3891
1446.00,3.8989
1445.00,3.7922
1444.00,3.8527
1443.00,3.6656
1442.00,3.4232
1441.00,3.2495
1440.00,3.1069
1439.00,2.9512
1438.00,2.8003
1437.00,2.6563
1436.00,2.4980
1435.00,2.3313
1434.00,2.1747
1433.00,2.0294
1432.00,1.8897
1431.00,1.7581
1430.00,1.6430
1429.00,1.5500
1428.00,1.4792
1427.00,1.4277
1426.00,1.3924
1425.00,1.3719
1424.00,1.3653
1423.00,1.3698
1422.00,1.3807
1421.00,1.3955
1420.00,1.4135
1419.00,1.4346
1418.00,1.4589
1417.00,1.4890
1416.00,1.5266
1415.00,1.5677
1414.00,1.6015
1413.00,1.6152
1412.00,1.6006
1411.00,1.5616
1410.00,1.5107
1409.00,1.4589
1408.00,1.4086
1407.00,1.3576
1406.00,1.3036
1405.00,1.2478
1404.00,1.1944
1403.00,1.1480
1402.00,1.1106
1401.00,1.0820
1400.00,1.0621
1399.00,1.0516
1398.00,1.0493
1397.00,1.0506
1396.00,1.0479
1395.00,1.0340
1394.00,1.0072
1393.00,0.9733
1392.00,0.9399
1391.00,0.9122
1390.00,0.8929
1389.00,0.8845
1388.00,0.8896
1387.00,0.9100
1386.00,0.9455
1385.00,0.9961
1384.00,1.0649
1383.00,1.1574
1382.00,1.2775
1381.00,1.4248
1380.00,1.5898
1379.00,1.7388
1378.00,1.8067
1377.00,1.7594
1376.00,1.6409
1375.00,1.5083
1374.00,1.3941
1373.00,1.3114
1372.00,1.2584
1371.00,1.2261
1370.00,1.2050
1369.00,1.1887
1368.00,1.1736
1367.00,1.1566
1366.00,1.1357
1365.00,1.1097
1364.00,1.0783
1363.00,1.0430
1362.00,1.0078
1361.00,0.9769
1360.00,0.9521
1359.00,0.9334
1358.00,0.9200
1357.00,0.9116
1356.00,0.9078
1355.00,0.9078
1354.00,0.9103
1353.00,0.9139
1352.00,0.9171
1351.00,0.9189
1350.00,0.9190
1349.00,0.9189
1348.00,0.9207
1347.00,0.9267
1346.00,0.9387
1345.00,0.9575
1344.00,0.9815
1343.00,1.0058
1342.00,1.0224
1341.00,1.0235
1340.00,1.0062
1339.00,0.9746
1338.00,0.9355
1337.00,0.8949
1336.00,0.8561
1335.00,0.8209
1334.00,0.7909
1333.00,0.7664
1332.00,0.7474
1331.00,0.7340
1330.00,0.7265
1329.00,0.7256
1328.00,0.7323
1327.00,0.7479
1326.00,0.7718
1325.00,0.7998
1324.00,0.8237
1323.00,0.8345
1322.00,0.8292
1321.00,0.8133
1320.00,0.7955
1319.00,0.7816
1318.00,0.7734
1317.00,0.7703
1316.00,0.7709
1315.00,0.7744
1314.00,0.7803
1313.00,0.7880
1312.00,0.7971
1311.00,0.8068
1310.00,0.8163
1309.00,0.8253
1308.00,0.8342
1307.00,0.8439
1306.00,0.8551
1305.00,0.8673
1304.00,0.8777
1303.00,0.8821
1302.00,0.8775
1301.00,0.8656
1300.00,0.8518
1299.00,0.8417
1298.00,0.8378
1297.00,0.8375
1296.00,0.8352
1295.00,0.8255
1294.00,0.8080
1293.00,0.7866
1292.00,0.7664
1291.00,0.7500
1290.00,0.7371
1289.00,0.7265
1288.00,0.7169
1287.00,0.7073
1286.00,0.6967
1285.00,0.6849
1284.00,0.6723
1283.00,0.6598
1282.00,0.6480
1281.00,0.6376
1280.00,0.6291
1279.00,0.6225
1278.00,0.6175
1277.00,0.6136
1276.00,0.6108
1275.00,0.6093
1274.00,0.6092
1273.00,0.6107
1272.00,0.6138
1271.00,0.6180
1270.00,0.6220
1269.00,0.6238
1268.00,0.6220
1267.00,0.6162
1266.00,0.6073
1265.00,0.5971
1264.00,0.5876
1263.00,0.5805
1262.00,0.5760
1261.00,0.5741
1260.00,0.5742
1259.00,0.5757
1258.00,0.5777
1257.00,0.5792
1256.00,0.5797
1255.00,0.5792
1254.00,0.5779
1253.00,0.5759
1252.00,0.5734
1251.00,0.5706
1250.00,0.5674
1249.00,0.5638
1248.00,0.5600
1247.00,0.5563
1246.00,0.5526
1245.00,0.5486
1244.00,0.5440
1243.00,0.5387
1242.00,0.5325
1241.00,0.5257
1240.00,0.5188
1239.00,0.5126
1238.00,0.5076
1237.00,0.5040
1236.00,0.5019
1235.00,0.5014
1234.00,0.5028
1233.00,0.5059
1232.00,0.5110
1231.00,0.5180
1230.00,0.5262
1229.00,0.5345
1228.00,0.5419
1227.00,0.5482
1226.00,0.5533
1225.00,0.5575
1224.00,0.5610
1223.00,0.5641
1222.00,0.5664
1221.00,0.5670
1220.00,0.5650
1219.00,0.5598
1218.00,0.5528
1217.00,0.5463
1216.00,0.5430
1215.00,0.5436
1214.00,0.5470
1213.00,0.5496
1212.00,0.5476
1211.00,0.5392
1210.00,0.5256
1209.00,0.5105
1208.00,0.4975
1207.00,0.4884
1206.00,0.4830
1205.00,0.4801
1204.00,0.4785
1203.00,0.4774
1202.00,0.4766
1201.00,0.4766
1200.00,0.4777
1199.00,0.4803
1198.00,0.4839
1197.00,0.4882
1196.00,0.4932
1195.00,0.4991
1194.00,0.5061
1193.00,0.5138
1192.00,0.5215
1191.00,0.5276
1190.00,0.5304
1189.00,0.5288
1188.00,0.5233
1187.00,0.5156
1186.00,0.5074
1185.00,0.5000
1184.00,0.4939
1183.00,0.4889
1182.00,0.4848
1181.00,0.4811
1180.00,0.4775
1179.00,0.4739
1178.00,0.4701
1177.00,0.4659
1176.00,0.4611
1175.00,0.4558
1174.00,0.4503
1173.00,0.4450
1172.00,0.4402
1171.00,0.4360
1170.00,0.4326
1169.00,0.4298
1168.00,0.4274
1167.00,0.4256
1166.00,0.4242
1165.00,0.4232
1164.00,0.4225
1163.00,0.4224
1162.00,0.4231
1161.00,0.4246
1160.00,0.4271
1159.00,0.4312
1158.00,0.4373
1157.00,0.4463
1156.00,0.4601
1155.00,0.4813
1154.00,0.5110
1153.00,0.5456
1152.00,0.5755
1151.00,0.5892
1150.00,0.5834
1149.00,0.5663
1148.00,0.5487
1147.00,0.5370
1146.00,0.5317
1145.00,0.5315
1144.00,0.5352
1143.00,0.5428
1142.00,0.5540
1141.00,0.5693
1140.00,0.5889
1139.00,0.6119
1138.00,0.6360
1137.00,0.6574
1136.00,0.6731
1135.00,0.6813
1134.00,0.6814
1133.00,0.6738
1132.00,0.6597
1131.00,0.6407
1130.00,0.6193
1129.00,0.5985
1128.00,0.5807
1127.00,0.5672
1126.00,0.5579
1125.00,0.5524
1124.00,0.5500
1123.00,0.5501
1122.00,0.5518
1121.00,0.5544
1120.00,0.5583
1119.00,0.5643
1118.00,0.5729
1117.00,0.5846
1116.00,0.5986
1115.00,0.6118
1114.00,0.6196
1113.00,0.6178
1112.00,0.6059
1111.00,0.5870
1110.00,0.5656
1109.00,0.5457
1108.00,0.5293
1107.00,0.5171
1106.00,0.5089
1105.00,0.5040
1104.00,0.5016
1103.00,0.5009
1102.00,0.5014
1101.00,0.5022
1100.00,0.5030
1099.00,0.5036
1098.00,0.5034
1097.00,0.5022
1096.00,0.5002
1095.00,0.4978
1094.00,0.4955
1093.00,0.4939
1092.00,0.4935
1091.00,0.4947
1090.00,0.4976
1089.00,0.5023
1088.00,0.5091
1087.00,0.5180
1086.00,0.5292
1085.00,0.5423
1084.00,0.5571
1083.00,0.5733
1082.00,0.5902
1081.00,0.6071
1080.00,0.6227
1079.00,0.6357
1078.00,0.6448
1077.00,0.6489
1076.00,0.6477
1075.00,0.6417
1074.00,0.6323
1073.00,0.6211
1072.00,0.6097
1071.00,0.5993
1070.00,0.5902
1069.00,0.5826
1068.00,0.5766
1067.00,0.5722
1066.00,0.5692
1065.00,0.5671
1064.00,0.5661
1063.00,0.5662
1062.00,0.5673
1061.00,0.5689
1060.00,0.5707
1059.00,0.5721
1058.00,0.5727
1057.00,0.5723
1056.00,0.5710
1055.00,0.5695
1054.00,0.5680
1053.00,0.5673
1052.00,0.5676
1051.00,0.5694
1050.00,0.5726
1049.00,0.5767
1048.00,0.5814
1047.00,0.5859
1046.00,0.5897
1045.00,0.5921
1044.00,0.5935
1043.00,0.5942
1042.00,0.5949
1041.00,0.5960
1040.00,0.5972
1039.00,0.5984
1038.00,0.5995
1037.00,0.6005
1036.00,0.6019
1035.00,0.6043
1034.00,0.6083
1033.00,0.6145
1032.00,0.6229
1031.00,0.6333
1030.00,0.6445
1029.00,0.6548
1028.00,0.6626
1027.00,0.6663
1026.00,0.6655
1025.00,0.6607
1024.00,0.6537
1023.00,0.6460
1022.00,0.6391
1021.00,0.6337
1020.00,0.6304
1019.00,0.6294
1018.00,0.6305
1017.00,0.6333
1016.00,0.6374
1015.00,0.6421
1014.00,0.6468
1013.00,0.6514
1012.00,0.6559
1011.00,0.6605
1010.00,0.6655
1009.00,0.6712
1008.00,0.6778
1007.00,0.6851
1006.00,0.6924
1005.00,0.6993
1004.00,0.7056
1003.00,0.7111
1002.00,0.7155
1001.00,0.7184
1000.00,0.7191
999.00,0.7171
998.00,0.7122
997.00,0.7044
996.00,0.6944
995.00,0.6829
994.00,0.6705
993.00,0.6573
992.00,0.6437
991.00,0.6297
990.00,0.6156
989.00,0.6016
988.00,0.5884
987.00,0.5762
986.00,0.5649
985.00,0.5543
984.00,0.5443
983.00,0.5349
982.00,0.5259
981.00,0.5171
980.00,0.5083
979.00,0.4995
978.00,0.4909
977.00,0.4826
976.00,0.4748
975.00,0.4678
974.00,0.4616
973.00,0.4562
972.00,0.4519
971.00,0.4487
970.00,0.4466
969.00,0.4455
968.00,0.4451
967.00,0.4454
966.00,0.4456
965.00,0.4453
964.00,0.4440
963.00,0.4416
962.00,0.4384
961.00,0.4346
960.00,0.4310
959.00,0.4281
958.00,0.4261
957.00,0.4249
956.00,0.4242
955.00,0.4238
954.00,0.4235
953.00,0.4230
952.00,0.4226
951.00,0.4226
950.00,0.4233
949.00,0.4250
948.00,0.4280
947.00,0.4322
946.00,0.4372
945.00,0.4423
944.00,0.4467
943.00,0.4501
942.00,0.4520
941.00,0.4522
940.00,0.4511
939.00,0.4493
938.00,0.4473
937.00,0.4454
936.00,0.4438
935.00,0.4427
934.00,0.4422
933.00,0.4425
932.00,0.4441
931.00,0.4476
930.00,0.4536
929.00,0.4623
928.00,0.4743
927.00,0.4889
926.00,0.5051
925.00,0.5206
924.00,0.5337
923.00,0.5438
922.00,0.5508
921.00,0.5553
920.00,0.5576
919.00,0.5579
918.00,0.5557
917.00,0.5492
916.00,0.5360
915.00,0.5156
914.00,0.4907
913.00,0.4661
912.00,0.4454
911.00,0.4300
910.00,0.4191
909.00,0.4114
908.00,0.4057
907.00,0.4014
906.00,0.3981
905.00,0.3955
904.00,0.3937
903.00,0.3928
902.00,0.3927
901.00,0.3931
900.00,0.3941
899.00,0.3958
898.00,0.3984
897.00,0.4017
896.00,0.4060
895.00,0.4113
894.00,0.4178
893.00,0.4251
892.00,0.4328
891.00,0.4400
890.00,0.4454
889.00,0.4480
888.00,0.4472
887.00,0.4431
886.00,0.4365
885.00,0.4286
884.00,0.4209
883.00,0.4143
882.00,0.4093
881.00,0.4061
880.00,0.4044
879.00,0.4039
878.00,0.4041
877.00,0.4046
876.00,0.4052
875.00,0.4062
874.00,0.4076
873.00,0.4091
872.00,0.4107
871.00,0.4128
870.00,0.4157
869.00,0.4201
868.00,0.4262
867.00,0.4346
866.00,0.4452
865.00,0.4577
864.00,0.4712
863.00,0.4842
862.00,0.4943
861.00,0.4992
860.00,0.4978
859.00,0.4908
858.00,0.4804
857.00,0.4691
856.00,0.4592
855.00,0.4517
854.00,0.4466
853.00,0.4436
852.00,0.4422
851.00,0.4423
850.00,0.4433
849.00,0.4448
848.00,0.4467
847.00,0.4491
846.00,0.4522
845.00,0.4560
844.00,0.4608
843.00,0.4671
842.00,0.4753
841.00,0.4864
840.00,0.5012
839.00,0.5194
838.00,0.5386
837.00,0.5550
836.00,0.5641
835.00,0.5628
834.00,0.5512
833.00,0.5332
832.00,0.5137
831.00,0.4968
830.00,0.4844
829.00,0.4766
828.00,0.4728
827.00,0.4725
826.00,0.4753
825.00,0.4806
824.00,0.4875
823.00,0.4947
822.00,0.5002
821.00,0.5027
820.00,0.5011
819.00,0.4960
818.00,0.4886
817.00,0.4803
816.00,0.4727
815.00,0.4664
814.00,0.4616
813.00,0.4579
812.00,0.4551
811.00,0.4529
810.00,0.4510
809.00,0.4492
808.00,0.4476
807.00,0.4460
806.00,0.4442
805.00,0.4421
804.00,0.4403
803.00,0.4393
802.00,0.4392
801.00,0.4402
800.00,0.4420
799.00,0.4445
798.00,0.4474
797.00,0.4504
796.00,0.4535
795.00,0.4568
794.00,0.4602
793.00,0.4634
792.00,0.4666
791.00,0.4697
790.00,0.4725
789.00,0.4744
788.00,0.4756
787.00,0.4767
786.00,0.4789
785.00,0.4834
784.00,0.4904
783.00,0.4994
782.00,0.5084
781.00,0.5150
780.00,0.5171
779.00,0.5139
778.00,0.5061
777.00,0.4962
776.00,0.4865
775.00,0.4787
774.00,0.4738
773.00,0.4719
772.00,0.4729
771.00,0.4763
770.00,0.4815
769.00,0.4880
768.00,0.4956
767.00,0.5039
766.00,0.5126
765.00,0.5213
764.00,0.5297
763.00,0.5380
762.00,0.5458
761.00,0.5531
760.00,0.5594
759.00,0.5639
758.00,0.5665
757.00,0.5681
756.00,0.5703
755.00,0.5741
754.00,0.5791
753.00,0.5840
752.00,0.5883
751.00,0.5931
750.00,0.6002
749.00,0.6115
748.00,0.6276
747.00,0.6478
746.00,0.6696
745.00,0.6892
744.00,0.7031
743.00,0.7090
742.00,0.7077
741.00,0.7025
740.00,0.6977
739.00,0.6964
738.00,0.7001
737.00,0.7089
736.00,0.7220
735.00,0.7388
734.00,0.7588
733.00,0.7819
732.00,0.8091
731.00,0.8417
730.00,0.8810
729.00,0.9288
728.00,0.9868
727.00,1.0564
726.00,1.1379
725.00,1.2288
724.00,1.3214
723.00,1.3989
722.00,1.4360
721.00,1.4127
720.00,1.3359
719.00,1.2337
718.00,1.1306
717.00,1.0392
716.00,0.9633
715.00,0.9023
714.00,0.8534
713.00,0.8132
712.00,0.7792
711.00,0.7498
710.00,0.7244
709.00,0.7023
708.00,0.6828
707.00,0.6655
706.00,0.6498
705.00,0.6355
704.00,0.6228
703.00,0.6120
702.00,0.6028
701.00,0.5947
700.00,0.5869
699.00,0.5794
698.00,0.5722
697.00,0.5656
696.00,0.5599
695.00,0.5552
694.00,0.5512
693.00,0.5479
692.00,0.5454
691.00,0.5439
690.00,0.5432
689.00,0.5429
688.00,0.5429
687.00,0.5434
686.00,0.5444
685.00,0.5464
684.00,0.5493
683.00,0.5533
682.00,0.5580
681.00,0.5633
680.00,0.5694
679.00,0.5764
678.00,0.5840
677.00,0.5918
676.00,0.5989
675.00,0.6047
674.00,0.6089
673.00,0.6111
672.00,0.6113
671.00,0.6100
670.00,0.6077
669.00,0.6048
668.00,0.6020
667.00,0.6008
666.00,0.6015
665.00,0.6025
664.00,0.6027
663.00,0.6019
662.00,0.5999
661.00,0.5968
660.00,0.5927
659.00,0.5878
658.00,0.5826
657.00,0.5776
656.00,0.5735
655.00,0.5706
654.00,0.5690
653.00,0.5681
652.00,0.5678
651.00,0.5683
650.00,0.5700
649.00,0.5727
648.00,0.5761
647.00,0.5799
646.00,0.5838
645.00,0.5872
644.00,0.5897
643.00,0.5911
642.00,0.5909
641.00,0.5888
640.00,0.5848
639.00,0.5793
638.00,0.5724
637.00,0.5647
636.00,0.5567
635.00,0.5495
634.00,0.5435
633.00,0.5385
632.00,0.5347
631.00,0.5324
630.00,0.5317
629.00,0.5327
628.00,0.5350
627.00,0.5389
626.00,0.5443
625.00,0.5510
624.00,0.5585
623.00,0.5665
622.00,0.5749
621.00,0.5836
620.00,0.5925
619.00,0.6011
618.00,0.6082
617.00,0.6125
616.00,0.6132
615.00,0.6104
614.00,0.6047
613.00,0.5967
612.00,0.5874
611.00,0.5780
610.00,0.5691
609.00,0.5614
608.00,0.5553
607.00,0.5507
606.00,0.5474
605.00,0.5449
604.00,0.5433
603.00,0.5428
602.00,0.5435
601.00,0.5446
600.00,0.5456
599.00,0.5464
598.00,0.5468
597.00,0.5466
596.00,0.5454
595.00,0.5440
594.00,0.5431
593.00,0.5434
592.00,0.5447
591.00,0.5466
590.00,0.5486
589.00,0.5503
588.00,0.5520
587.00,0.5544
586.00,0.5576
585.00,0.5612
584.00,0.5647
583.00,0.5677
582.00,0.5705
581.00,0.5736
580.00,0.5774
579.00,0.5815
578.00,0.5854
577.00,0.5891
576.00,0.5933
575.00,0.5987
574.00,0.6052
573.00,0.6126
572.00,0.6212
571.00,0.6317
570.00,0.6439
569.00,0.6570
568.00,0.6701
567.00,0.6831
566.00,0.6960
565.00,0.7091
564.00,0.7227
563.00,0.7365
562.00,0.7492
561.00,0.7597
560.00,0.7675
559.00,0.7726
558.00,0.7751
557.00,0.7756
556.00,0.7748
555.00,0.7729
554.00,0.7691
553.00,0.7640
552.00,0.7589
551.00,0.7554
550.00,0.7536
