Created as New Dataset,
cm-1,A
4000.00,0.6143
3999.00,0.6137
3998.00,0.6129
3997.00,0.6121
3996.00,0.6113
3995.00,0.6105
3994.00,0.6096
3993.00,0.6087
3992.00,0.6078
3991.00,0.6068
3990.00,0.6058
3989.00,0.6049
3988.00,0.6039
3987.00,0.6029
3986.00,0.6019
3985.00,0.6009
3984.00,0.5999
3983.00,0.5990
3982.00,0.5980
3981.00,0.5971
3980.00,0.5961
3979.00,0.5951
3978.00,0.5940
3977.00,0.5930
3976.00,0.5921
3975.00,0.5913
3974.00,0.5906
3973.00,0.5898
3972.00,0.5890
3971.00,0.5883
3970.00,0.5875
3969.00,0.5869
3968.00,0.5863
3967.00,0.5858
3966.00,0.5854
3965.00,0.5848
3964.00,0.5843
3963.00,0.5838
3962.00,0.5833
3961.00,0.5829
3960.00,0.5824
3959.00,0.5818
3958.00,0.5814
3957.00,0.5810
3956.00,0.5807
3955.00,0.5805
3954.00,0.5802
3953.00,0.5800
3952.00,0.5797
3951.00,0.5793
3950.00,0.5789
3949.00,0.5785
3948.00,0.5783
3947.00,0.5782
3946.00,0.5779
3945.00,0.5775
3944.00,0.5771
3943.00,0.5770
3942.00,0.5770
3941.00,0.5769
3940.00,0.5767
3939.00,0.5765
3938.00,0.5764
3937.00,0.5765
3936.00,0.5764
3935.00,0.5761
3934.00,0.5757
3933.00,0.5754
3932.00,0.5751
3931.00,0.5747
3930.00,0.5745
3929.00,0.5743
3928.00,0.5740
3927.00,0.5736
3926.00,0.5733
3925.00,0.5732
3924.00,0.5730
3923.00,0.5726
3922.00,0.5722
3921.00,0.5719
3920.00,0.5717
3919.00,0.5714
3918.00,0.5711
3917.00,0.5709
3916.00,0.5708
3915.00,0.5706
3914.00,0.5704
3913.00,0.5701
3912.00,0.5698
3911.00,0.5696
3910.00,0.5694
3909.00,0.5692
3908.00,0.5688
3907.00,0.5680
3906.00,0.5671
3905.00,0.5665
3904.00,0.5661
3903.00,0.5657
3902.00,0.5649
3901.00,0.5642
3900.00,0.5640
3899.00,0.5642
3898.00,0.5645
3897.00,0.5647
3896.00,0.5648
3895.00,0.5648
3894.00,0.5644
3893.00,0.5639
3892.00,0.5636
3891.00,0.5637
3890.00,0.5639
3889.00,0.5633
3888.00,0.5621
3887.00,0.5613
3886.00,0.5615
3885.00,0.5621
3884.00,0.5620
3883.00,0.5611
3882.00,0.5600
3881.00,0.5597
3880.00,0.5601
3879.00,0.5605
3878.00,0.5601
3877.00,0.5590
3876.00,0.5581
3875.00,0.5582
3874.00,0.5588
3873.00,0.5586
3872.00,0.5571
3871.00,0.5559
3870.00,0.5558
3869.00,0.5562
3868.00,0.5559
3867.00,0.5551
3866.00,0.5546
3865.00,0.5549
3864.00,0.5552
3863.00,0.5551
3862.00,0.5544
3861.00,0.5535
3860.00,0.5529
3859.00,0.5527
3858.00,0.5527
3857.00,0.5519
3856.00,0.5505
3855.00,0.5496
3854.00,0.5496
3853.00,0.5495
3852.00,0.5491
3851.00,0.5486
3850.00,0.5487
3849.00,0.5493
3848.00,0.5501
3847.00,0.5506
3846.00,0.5506
3845.00,0.5502
3844.00,0.5498
3843.00,0.5494
3842.00,0.5488
3841.00,0.5478
3840.00,0.5468
3839.00,0.5460
3838.00,0.5458
3837.00,0.5459
3836.00,0.5460
3835.00,0.5462
3834.00,0.5462
3833.00,0.5463
3832.00,0.5468
3831.00,0.5473
3830.00,0.5474
3829.00,0.5469
3828.00,0.5461
3827.00,0.5458
3826.00,0.5460
3825.00,0.5460
3824.00,0.5449
3823.00,0.5433
3822.00,0.5426
3821.00,0.5430
3820.00,0.5434
3819.00,0.5427
3818.00,0.5415
3817.00,0.5410
3816.00,0.5417
3815.00,0.5423
3814.00,0.5420
3813.00,0.5412
3812.00,0.5409
3811.00,0.5409
3810.00,0.5406
3809.00,0.5394
3808.00,0.5382
3807.00,0.5377
3806.00,0.5376
3805.00,0.5369
3804.00,0.5352
3803.00,0.5337
3802.00,0.5336
3801.00,0.5342
3800.00,0.5343
3799.00,0.5337
3798.00,0.5332
3797.00,0.5334
3796.00,0.5342
3795.00,0.5346
3794.00,0.5345
3793.00,0.5341
3792.00,0.5339
3791.00,0.5338
3790.00,0.5338
3789.00,0.5336
3788.00,0.5331
3787.00,0.5324
3786.00,0.5317
3785.00,0.5311
3784.00,0.5307
3783.00,0.5301
3782.00,0.5294
3781.00,0.5287
3780.00,0.5284
3779.00,0.5283
3778.00,0.5280
3777.00,0.5272
3776.00,0.5264
3775.00,0.5260
3774.00,0.5258
3773.00,0.5253
3772.00,0.5246
3771.00,0.5242
3770.00,0.5241
3769.00,0.5238
3768.00,0.5231
3767.00,0.5220
3766.00,0.5214
3765.00,0.5213
3764.00,0.5213
3763.00,0.5209
3762.00,0.5204
3761.00,0.5199
3760.00,0.5195
3759.00,0.5189
3758.00,0.5180
3757.00,0.5172
3756.00,0.5163
3755.00,0.5152
3754.00,0.5143
3753.00,0.5137
3752.00,0.5129
3751.00,0.5118
3750.00,0.5110
3749.00,0.5112
3748.00,0.5115
3747.00,0.5108
3746.00,0.5101
3745.00,0.5108
3744.00,0.5120
3743.00,0.5124
3742.00,0.5121
3741.00,0.5120
3740.00,0.5124
3739.00,0.5127
3738.00,0.5127
3737.00,0.5127
3736.00,0.5129
3735.00,0.5128
3734.00,0.5124
3733.00,0.5120
3732.00,0.5124
3731.00,0.5133
3730.00,0.5140
3729.00,0.5142
3728.00,0.5143
3727.00,0.5145
3726.00,0.5147
3725.00,0.5145
3724.00,0.5141
3723.00,0.5138
3722.00,0.5139
3721.00,0.5141
3720.00,0.5140
3719.00,0.5139
3718.00,0.5138
3717.00,0.5139
3716.00,0.5138
3715.00,0.5134
3714.00,0.5131
3713.00,0.5133
3712.00,0.5136
3711.00,0.5139
3710.00,0.5139
3709.00,0.5140
3708.00,0.5145
3707.00,0.5154
3706.00,0.5164
3705.00,0.5173
3704.00,0.5181
3703.00,0.5190
3702.00,0.5200
3701.00,0.5209
3700.00,0.5217
3699.00,0.5222
3698.00,0.5228
3697.00,0.5238
3696.00,0.5248
3695.00,0.5256
3694.00,0.5263
3693.00,0.5273
3692.00,0.5288
3691.00,0.5305
3690.00,0.5323
3689.00,0.5346
3688.00,0.5373
3687.00,0.5400
3686.00,0.5427
3685.00,0.5456
3684.00,0.5488
3683.00,0.5520
3682.00,0.5549
3681.00,0.5579
3680.00,0.5613
3679.00,0.5643
3678.00,0.5664
3677.00,0.5692
3676.00,0.5739
3675.00,0.5795
3674.00,0.5844
3673.00,0.5881
3672.00,0.5919
3671.00,0.5976
3670.00,0.6049
3669.00,0.6122
3668.00,0.6186
3667.00,0.6244
3666.00,0.6304
3665.00,0.6367
3664.00,0.6433
3663.00,0.6498
3662.00,0.6563
3661.00,0.6628
3660.00,0.6693
3659.00,0.6755
3658.00,0.6822
3657.00,0.6904
3656.00,0.7001
3655.00,0.7100
3654.00,0.7193
3653.00,0.7292
3652.00,0.7421
3651.00,0.7608
3650.00,0.7862
3649.00,0.8174
3648.00,0.8518
3647.00,0.8852
3646.00,0.9140
3645.00,0.9365
3644.00,0.9526
3643.00,0.9624
3642.00,0.9660
3641.00,0.9639
3640.00,0.9571
3639.00,0.9474
3638.00,0.9366
3637.00,0.9260
3636.00,0.9165
3635.00,0.9086
3634.00,0.9031
3633.00,0.8994
3632.00,0.8965
3631.00,0.8941
3630.00,0.8937
3629.00,0.8959
3628.00,0.8993
3627.00,0.9026
3626.00,0.9055
3625.00,0.9087
3624.00,0.9123
3623.00,0.9158
3622.00,0.9191
3621.00,0.9224
3620.00,0.9264
3619.00,0.9309
3618.00,0.9355
3617.00,0.9396
3616.00,0.9431
3615.00,0.9463
3614.00,0.9500
3613.00,0.9542
3612.00,0.9583
3611.00,0.9619
3610.00,0.9654
3609.00,0.9695
3608.00,0.9739
3607.00,0.9779
3606.00,0.9812
3605.00,0.9840
3604.00,0.9866
3603.00,0.9890
3602.00,0.9913
3601.00,0.9935
3600.00,0.9955
3599.00,0.9968
3598.00,0.9977
3597.00,0.9983
3596.00,0.9987
3595.00,0.9988
3594.00,0.9988
3593.00,0.9989
3592.00,0.9989
3591.00,0.9985
3590.00,0.9980
3589.00,0.9978
3588.00,0.9981
3587.00,0.9987
3586.00,0.9991
3585.00,0.9995
3584.00,0.9999
3583.00,1.0001
3582.00,1.0003
3581.00,1.0004
3580.00,1.0003
3579.00,1.0001
3578.00,0.9999
3577.00,0.9997
3576.00,0.9996
3575.00,0.9993
3574.00,0.9990
3573.00,0.9987
3572.00,0.9982
3571.00,0.9973
3570.00,0.9961
3569.00,0.9951
3568.00,0.9945
3567.00,0.9944
3566.00,0.9945
3565.00,0.9944
3564.00,0.9941
3563.00,0.9936
3562.00,0.9931
3561.00,0.9929
3560.00,0.9927
3559.00,0.9924
3558.00,0.9920
3557.00,0.9917
3556.00,0.9914
3555.00,0.9910
3554.00,0.9906
3553.00,0.9901
3552.00,0.9897
3551.00,0.9892
3550.00,0.9885
3549.00,0.9877
3548.00,0.9870
3547.00,0.9864
3546.00,0.9860
3545.00,0.9857
3544.00,0.9854
3543.00,0.9851
3542.00,0.9848
3541.00,0.9846
3540.00,0.9845
3539.00,0.9843
3538.00,0.9841
3537.00,0.9839
3536.00,0.9837
3535.00,0.9834
3534.00,0.9831
3533.00,0.9828
3532.00,0.9826
3531.00,0.9824
3530.00,0.9822
3529.00,0.9822
3528.00,0.9823
3527.00,0.9825
3526.00,0.9825
3525.00,0.9826
3524.00,0.9827
3523.00,0.9830
3522.00,0.9832
3521.00,0.9836
3520.00,0.9839
3519.00,0.9842
3518.00,0.9847
3517.00,0.9852
3516.00,0.9856
3515.00,0.9860
3514.00,0.9863
3513.00,0.9867
3512.00,0.9870
3511.00,0.9873
3510.00,0.9875
3509.00,0.9879
3508.00,0.9881
3507.00,0.9884
3506.00,0.9887
3505.00,0.9892
3504.00,0.9898
3503.00,0.9904
3502.00,0.9908
3501.00,0.9914
3500.00,0.9921
3499.00,0.9928
3498.00,0.9934
3497.00,0.9940
3496.00,0.9945
3495.00,0.9951
3494.00,0.9957
3493.00,0.9965
3492.00,0.9973
3491.00,0.9981
3490.00,0.9987
3489.00,0.9992
3488.00,0.9995
3487.00,0.9999
3486.00,1.0002
3485.00,1.0006
3484.00,1.0009
3483.00,1.0011
3482.00,1.0011
3481.00,1.0013
3480.00,1.0015
3479.00,1.0018
3478.00,1.0020
3477.00,1.0021
3476.00,1.0021
3475.00,1.0020
3474.00,1.0021
3473.00,1.0024
3472.00,1.0026
3471.00,1.0025
3470.00,1.0024
3469.00,1.0023
3468.00,1.0023
3467.00,1.0026
3466.00,1.0030
3465.00,1.0033
3464.00,1.0035
3463.00,1.0034
3462.00,1.0033
3461.00,1.0033
3460.00,1.0035
3459.00,1.0036
3458.00,1.0037
3457.00,1.0038
3456.00,1.0039
3455.00,1.0040
3454.00,1.0041
3453.00,1.0042
3452.00,1.0043
3451.00,1.0045
3450.00,1.0048
3449.00,1.0053
3448.00,1.0059
3447.00,1.0066
3446.00,1.0074
3445.00,1.0083
3444.00,1.0092
3443.00,1.0101
3442.00,1.0110
3441.00,1.0119
3440.00,1.0128
3439.00,1.0137
3438.00,1.0144
3437.00,1.0150
3436.00,1.0155
3435.00,1.0157
3434.00,1.0157
3433.00,1.0157
3432.00,1.0155
3431.00,1.0151
3430.00,1.0146
3429.00,1.0142
3428.00,1.0137
3427.00,1.0131
3426.00,1.0126
3425.00,1.0121
3424.00,1.0117
3423.00,1.0113
3422.00,1.0109
3421.00,1.0106
3420.00,1.0103
3419.00,1.0099
3418.00,1.0094
3417.00,1.0090
3416.00,1.0088
3415.00,1.0086
3414.00,1.0085
3413.00,1.0084
3412.00,1.0081
3411.00,1.0078
3410.00,1.0076
3409.00,1.0075
3408.00,1.0075
3407.00,1.0074
3406.00,1.0072
3405.00,1.0071
3404.00,1.0069
3403.00,1.0065
3402.00,1.0062
3401.00,1.0059
3400.00,1.0058
3399.00,1.0056
3398.00,1.0054
3397.00,1.0052
3396.00,1.0049
3395.00,1.0045
3394.00,1.0040
3393.00,1.0034
3392.00,1.0028
3391.00,1.0023
3390.00,1.0018
3389.00,1.0014
3388.00,1.0010
3387.00,1.0005
3386.00,1.0000
3385.00,0.9995
3384.00,0.9990
3383.00,0.9985
3382.00,0.9981
3381.00,0.9976
3380.00,0.9971
3379.00,0.9965
3378.00,0.9958
3377.00,0.9952
3376.00,0.9945
3375.00,0.9938
3374.00,0.9932
3373.00,0.9928
3372.00,0.9924
3371.00,0.9919
3370.00,0.9913
3369.00,0.9907
3368.00,0.9900
3367.00,0.9894
3366.00,0.9888
3365.00,0.9882
3364.00,0.9877
3363.00,0.9871
3362.00,0.9864
3361.00,0.9858
3360.00,0.9851
3359.00,0.9843
3358.00,0.9835
3357.00,0.9827
3356.00,0.9819
3355.00,0.9813
3354.00,0.9808
3353.00,0.9803
3352.00,0.9797
3351.00,0.9790
3350.00,0.9782
3349.00,0.9774
3348.00,0.9765
3347.00,0.9756
3346.00,0.9747
3345.00,0.9739
3344.00,0.9732
3343.00,0.9724
3342.00,0.9715
3341.00,0.9704
3340.00,0.9691
3339.00,0.9678
3338.00,0.9665
3337.00,0.9655
3336.00,0.9644
3335.00,0.9633
3334.00,0.9620
3333.00,0.9605
3332.00,0.9590
3331.00,0.9574
3330.00,0.9557
3329.00,0.9542
3328.00,0.9527
3327.00,0.9514
3326.00,0.9501
3325.00,0.9487
3324.00,0.9471
3323.00,0.9453
3322.00,0.9435
3321.00,0.9418
3320.00,0.9401
3319.00,0.9385
3318.00,0.9369
3317.00,0.9354
3316.00,0.9337
3315.00,0.9319
3314.00,0.9302
3313.00,0.9286
3312.00,0.9270
3311.00,0.9254
3310.00,0.9237
3309.00,0.9221
3308.00,0.9205
3307.00,0.9189
3306.00,0.9173
3305.00,0.9157
3304.00,0.9143
3303.00,0.9129
3302.00,0.9116
3301.00,0.9103
3300.00,0.9089
3299.00,0.9075
3298.00,0.9060
3297.00,0.9047
3296.00,0.9034
3295.00,0.9022
3294.00,0.9010
3293.00,0.8999
3292.00,0.8988
3291.00,0.8977
3290.00,0.8966
3289.00,0.8955
3288.00,0.8945
3287.00,0.8935
3286.00,0.8926
3285.00,0.8917
3284.00,0.8908
3283.00,0.8899
3282.00,0.8890
3281.00,0.8881
3280.00,0.8872
3279.00,0.8863
3278.00,0.8855
3277.00,0.8849
3276.00,0.8843
3275.00,0.8838
3274.00,0.8832
3273.00,0.8825
3272.00,0.8818
3271.00,0.8812
3270.00,0.8807
3269.00,0.8804
3268.00,0.8801
3267.00,0.8797
3266.00,0.8791
3265.00,0.8784
3264.00,0.8777
3263.00,0.8772
3262.00,0.8768
3261.00,0.8766
3260.00,0.8765
3259.00,0.8763
3258.00,0.8760
3257.00,0.8757
3256.00,0.8753
3255.00,0.8750
3254.00,0.8747
3253.00,0.8745
3252.00,0.8744
3251.00,0.8741
3250.00,0.8738
3249.00,0.8736
3248.00,0.8734
3247.00,0.8734
3246.00,0.8735
3245.00,0.8736
3244.00,0.8736
3243.00,0.8736
3242.00,0.8735
3241.00,0.8734
3240.00,0.8735
3239.00,0.8736
3238.00,0.8736
3237.00,0.8737
3236.00,0.8738
3235.00,0.8739
3234.00,0.8741
3233.00,0.8743
3232.00,0.8745
3231.00,0.8746
3230.00,0.8747
3229.00,0.8750
3228.00,0.8754
3227.00,0.8757
3226.00,0.8761
3225.00,0.8764
3224.00,0.8767
3223.00,0.8771
3222.00,0.8776
3221.00,0.8782
3220.00,0.8787
3219.00,0.8792
3218.00,0.8798
3217.00,0.8804
3216.00,0.8811
3215.00,0.8817
3214.00,0.8824
3213.00,0.8830
3212.00,0.8836
3211.00,0.8842
3210.00,0.8848
3209.00,0.8854
3208.00,0.8860
3207.00,0.8866
3206.00,0.8874
3205.00,0.8882
3204.00,0.8891
3203.00,0.8898
3202.00,0.8904
3201.00,0.8908
3200.00,0.8911
3199.00,0.8915
3198.00,0.8919
3197.00,0.8924
3196.00,0.8928
3195.00,0.8931
3194.00,0.8932
3193.00,0.8933
3192.00,0.8934
3191.00,0.8934
3190.00,0.8934
3189.00,0.8934
3188.00,0.8932
3187.00,0.8929
3186.00,0.8925
3185.00,0.8920
3184.00,0.8915
3183.00,0.8911
3182.00,0.8908
3181.00,0.8904
3180.00,0.8898
3179.00,0.8891
3178.00,0.8883
3177.00,0.8875
3176.00,0.8865
3175.00,0.8854
3174.00,0.8842
3173.00,0.8830
3172.00,0.8819
3171.00,0.8808
3170.00,0.8796
3169.00,0.8783
3168.00,0.8769
3167.00,0.8753
3166.00,0.8739
3165.00,0.8726
3164.00,0.8712
3163.00,0.8697
3162.00,0.8682
3161.00,0.8666
3160.00,0.8652
3159.00,0.8638
3158.00,0.8624
3157.00,0.8610
3156.00,0.8596
3155.00,0.8583
3154.00,0.8568
3153.00,0.8553
3152.00,0.8537
3151.00,0.8522
3150.00,0.8509
3149.00,0.8496
3148.00,0.8484
3147.00,0.8471
3146.00,0.8458
3145.00,0.8446
3144.00,0.8434
3143.00,0.8422
3142.00,0.8411
3141.00,0.8401
3140.00,0.8392
3139.00,0.8383
3138.00,0.8374
3137.00,0.8367
3136.00,0.8361
3135.00,0.8355
3134.00,0.8350
3133.00,0.8345
3132.00,0.8341
3131.00,0.8336
3130.00,0.8331
3129.00,0.8328
3128.00,0.8326
3127.00,0.8325
3126.00,0.8325
3125.00,0.8324
3124.00,0.8325
3123.00,0.8325
3122.00,0.8327
3121.00,0.8331
3120.00,0.8337
3119.00,0.8344
3118.00,0.8351
3117.00,0.8360
3116.00,0.8369
3115.00,0.8378
3114.00,0.8390
3113.00,0.8403
3112.00,0.8419
3111.00,0.8436
3110.00,0.8454
3109.00,0.8474
3108.00,0.8495
3107.00,0.8516
3106.00,0.8537
3105.00,0.8557
3104.00,0.8576
3103.00,0.8594
3102.00,0.8610
3101.00,0.8626
3100.00,0.8643
3099.00,0.8662
3098.00,0.8682
3097.00,0.8705
3096.00,0.8730
3095.00,0.8758
3094.00,0.8789
3093.00,0.8824
3092.00,0.8864
3091.00,0.8907
3090.00,0.8955
3089.00,0.9008
3088.00,0.9064
3087.00,0.9123
3086.00,0.9183
3085.00,0.9243
3084.00,0.9303
3083.00,0.9362
3082.00,0.9419
3081.00,0.9476
3080.00,0.9533
3079.00,0.9592
3078.00,0.9654
3077.00,0.9722
3076.00,0.9798
3075.00,0.9880
3074.00,0.9970
3073.00,1.0064
3072.00,1.0164
3071.00,1.0267
3070.00,1.0374
3069.00,1.0485
3068.00,1.0599
3067.00,1.0715
3066.00,1.0832
3065.00,1.0947
3064.00,1.1056
3063.00,1.1158
3062.00,1.1251
3061.00,1.1335
3060.00,1.1409
3059.00,1.1474
3058.00,1.1532
3057.00,1.1585
3056.00,1.1636
3055.00,1.1683
3054.00,1.1731
3053.00,1.1782
3052.00,1.1839
3051.00,1.1900
3050.00,1.1967
3049.00,1.2037
3048.00,1.2111
3047.00,1.2190
3046.00,1.2274
3045.00,1.2362
3044.00,1.2452
3043.00,1.2543
3042.00,1.2636
3041.00,1.2732
3040.00,1.2831
3039.00,1.2936
3038.00,1.3048
3037.00,1.3168
3036.00,1.3299
3035.00,1.3439
3034.00,1.3593
3033.00,1.3764
3032.00,1.3953
3031.00,1.4157
3030.00,1.4368
3029.00,1.4578
3028.00,1.4781
3027.00,1.4974
3026.00,1.5159
3025.00,1.5334
3024.00,1.5499
3023.00,1.5655
3022.00,1.5805
3021.00,1.5957
3020.00,1.6115
3019.00,1.6280
3018.00,1.6456
3017.00,1.6643
3016.00,1.6843
3015.00,1.7061
3014.00,1.7296
3013.00,1.7547
3012.00,1.7810
3011.00,1.8087
3010.00,1.8382
3009.00,1.8691
3008.00,1.9011
3007.00,1.9341
3006.00,1.9695
3005.00,2.0083
3004.00,2.0511
3003.00,2.0969
3002.00,2.1440
3001.00,2.1913
3000.00,2.2399
2999.00,2.2924
2998.00,2.3509
2997.00,2.4147
2996.00,2.4821
2995.00,2.5543
2994.00,2.6353
2993.00,2.7262
2992.00,2.8229
2991.00,2.9213
2990.00,3.0251
2989.00,3.1420
2988.00,3.2726
2987.00,3.4051
2986.00,3.5242
2985.00,3.6295
2984.00,3.7423
2983.00,3.9116
2982.00,4.1648
2981.00,4.3108
2980.00,4.3061
2979.00,4.2981
2978.00,4.3520
2977.00,4.2702
2976.00,4.2019
2975.00,4.4023
2974.00,4.5868
2973.00,4.4293
2972.00,4.3791
2971.00,4.4219
2970.00,4.2046
2969.00,3.9578
2968.00,3.8664
2967.00,3.9861
2966.00,4.2784
2965.00,4.2085
2964.00,3.9993
2963.00,3.8543
2962.00,3.9306
2961.00,4.1291
2960.00,4.2927
2959.00,4.3774
2958.00,4.2810
2957.00,4.1027
2956.00,3.9458
2955.00,3.8487
2954.00,3.8431
2953.00,3.9323
2952.00,4.0928
2951.00,4.2298
2950.00,4.1750
2949.00,4.0246
2948.00,3.9421
2947.00,3.9690
2946.00,4.0818
2945.00,4.3221
2944.00,4.7069
2943.00,4.6235
2942.00,4.4882
2941.00,4.3245
2940.00,4.2463
2939.00,4.2205
2938.00,4.4361
2937.00,4.4638
2936.00,4.1156
2935.00,3.9250
2934.00,3.9735
2933.00,4.2410
2932.00,4.5877
2931.00,4.6536
2930.00,4.5414
2929.00,4.4441
2928.00,4.3483
2927.00,4.1425
2926.00,3.9570
2925.00,3.8795
2924.00,3.9387
2923.00,4.1960
2922.00,4.5715
2921.00,4.4650
2920.00,4.2146
2919.00,4.0795
2918.00,4.1353
2917.00,4.4155
2916.00,4.4088
2915.00,4.2599
2914.00,4.1288
2913.00,4.1135
2912.00,4.0764
2911.00,4.1093
2910.00,4.4050
2909.00,4.4343
2908.00,4.1960
2907.00,4.0601
2906.00,4.0636
2905.00,4.0901
2904.00,4.1370
2903.00,4.3660
2902.00,4.5186
2901.00,4.2380
2900.00,3.9982
2899.00,3.8870
2898.00,3.8622
2897.00,3.8606
2896.00,3.9614
2895.00,4.2039
2894.00,4.2796
2893.00,4.0943
2892.00,3.9420
2891.00,3.9363
2890.00,4.0779
2889.00,4.2637
2888.00,4.2806
2887.00,4.1453
2886.00,4.1891
2885.00,4.6082
2884.00,4.4183
2883.00,4.1651
2882.00,4.0182
2881.00,4.0661
2880.00,4.0691
2879.00,4.0428
2878.00,4.1198
2877.00,4.2748
2876.00,4.5278
2875.00,4.7492
2874.00,4.8534
2873.00,4.8894
2872.00,4.8903
2871.00,4.4160
2870.00,4.1223
2869.00,3.9727
2868.00,3.9714
2867.00,4.0108
2866.00,3.9839
2865.00,4.0221
2864.00,4.2311
2863.00,4.4467
2862.00,4.2685
2861.00,4.1908
2860.00,4.3710
2859.00,4.3772
2858.00,4.2065
2857.00,4.1437
2856.00,4.1658
2855.00,4.0416
2854.00,3.9119
2853.00,3.8826
2852.00,3.9351
2851.00,4.0636
2850.00,4.1720
2849.00,4.2249
2848.00,4.2373
2847.00,4.3831
2846.00,4.7410
2845.00,4.3529
2844.00,3.9906
2843.00,3.8037
2842.00,3.7944
2841.00,3.8861
2840.00,4.0180
2839.00,4.1932
2838.00,4.3393
2837.00,4.4227
2836.00,4.3793
2835.00,4.2672
2834.00,4.1951
2833.00,4.2048
2832.00,4.2981
2831.00,4.4424
2830.00,4.4489
2829.00,4.1634
2828.00,3.8497
2827.00,3.6274
2826.00,3.4692
2825.00,3.3233
2824.00,3.1753
2823.00,3.0415
2822.00,2.9318
2821.00,2.8397
2820.00,2.7532
2819.00,2.6669
2818.00,2.5824
2817.00,2.5028
2816.00,2.4305
2815.00,2.3655
2814.00,2.3058
2813.00,2.2486
2812.00,2.1929
2811.00,2.1394
2810.00,2.0886
2809.00,2.0400
2808.00,1.9929
2807.00,1.9470
2806.00,1.9027
2805.00,1.8599
2804.00,1.8188
2803.00,1.7799
2802.00,1.7435
2801.00,1.7095
2800.00,1.6772
2799.00,1.6461
2798.00,1.6157
2797.00,1.5862
2796.00,1.5577
2795.00,1.5302
2794.00,1.5036
2793.00,1.4780
2792.00,1.4530
2791.00,1.4285
2790.00,1.4044
2789.00,1.3806
2788.00,1.3572
2787.00,1.3343
2786.00,1.3121
2785.00,1.2904
2784.00,1.2693
2783.00,1.2487
2782.00,1.2288
2781.00,1.2097
2780.00,1.1913
2779.00,1.1737
2778.00,1.1569
2777.00,1.1410
2776.00,1.1259
2775.00,1.1116
2774.00,1.0983
2773.00,1.0857
2772.00,1.0741
2771.00,1.0633
2770.00,1.0537
2769.00,1.0450
2768.00,1.0373
2767.00,1.0303
2766.00,1.0242
2765.00,1.0188
2764.00,1.0142
2763.00,1.0101
2762.00,1.0064
2761.00,1.0032
2760.00,1.0002
2759.00,0.9975
2758.00,0.9950
2757.00,0.9927
2756.00,0.9905
2755.00,0.9886
2754.00,0.9869
2753.00,0.9855
2752.00,0.9846
2751.00,0.9841
2750.00,0.9841
2749.00,0.9845
2748.00,0.9854
2747.00,0.9866
2746.00,0.9884
2745.00,0.9909
2744.00,0.9940
2743.00,0.9979
2742.00,1.0024
2741.00,1.0078
2740.00,1.0139
2739.00,1.0209
2738.00,1.0288
2737.00,1.0377
2736.00,1.0475
2735.00,1.0579
2734.00,1.0688
2733.00,1.0798
2732.00,1.0902
2731.00,1.0993
2730.00,1.1064
2729.00,1.1112
2728.00,1.1135
2727.00,1.1139
2726.00,1.1127
2725.00,1.1100
2724.00,1.1061
2723.00,1.1012
2722.00,1.0953
2721.00,1.0887
2720.00,1.0815
2719.00,1.0735
2718.00,1.0648
2717.00,1.0554
2716.00,1.0454
2715.00,1.0350
2714.00,1.0247
2713.00,1.0146
2712.00,1.0052
2711.00,0.9966
2710.00,0.9889
2709.00,0.9821
2708.00,0.9762
2707.00,0.9714
2706.00,0.9675
2705.00,0.9643
2704.00,0.9619
2703.00,0.9600
2702.00,0.9588
2701.00,0.9582
2700.00,0.9582
2699.00,0.9588
2698.00,0.9599
2697.00,0.9616
2696.00,0.9637
2695.00,0.9661
2694.00,0.9689
2693.00,0.9718
2692.00,0.9750
2691.00,0.9782
2690.00,0.9813
2689.00,0.9843
2688.00,0.9869
2687.00,0.9892
2686.00,0.9911
2685.00,0.9927
2684.00,0.9939
2683.00,0.9947
2682.00,0.9952
2681.00,0.9955
2680.00,0.9956
2679.00,0.9956
2678.00,0.9955
2677.00,0.9955
2676.00,0.9954
2675.00,0.9951
2674.00,0.9945
2673.00,0.9936
2672.00,0.9924
2671.00,0.9908
2670.00,0.9887
2669.00,0.9860
2668.00,0.9826
2667.00,0.9787
2666.00,0.9744
2665.00,0.9696
2664.00,0.9647
2663.00,0.9596
2662.00,0.9547
2661.00,0.9498
2660.00,0.9451
2659.00,0.9404
2658.00,0.9357
2657.00,0.9311
2656.00,0.9267
2655.00,0.9226
2654.00,0.9186
2653.00,0.9150
2652.00,0.9114
2651.00,0.9081
2650.00,0.9051
2649.00,0.9024
2648.00,0.8998
2647.00,0.8973
2646.00,0.8950
2645.00,0.8927
2644.00,0.8906
2643.00,0.8885
2642.00,0.8865
2641.00,0.8846
2640.00,0.8830
2639.00,0.8815
2638.00,0.8802
2637.00,0.8791
2636.00,0.8780
2635.00,0.8769
2634.00,0.8761
2633.00,0.8754
2632.00,0.8749
2631.00,0.8744
2630.00,0.8738
2629.00,0.8731
2628.00,0.8725
2627.00,0.8720
2626.00,0.8716
2625.00,0.8711
2624.00,0.8706
2623.00,0.8701
2622.00,0.8696
2621.00,0.8692
2620.00,0.8687
2619.00,0.8684
2618.00,0.8681
2617.00,0.8677
2616.00,0.8672
2615.00,0.8666
2614.00,0.8658
2613.00,0.8651
2612.00,0.8645
2611.00,0.8638
2610.00,0.8631
2609.00,0.8623
2608.00,0.8615
2607.00,0.8605
2606.00,0.8594
2605.00,0.8582
2604.00,0.8568
2603.00,0.8551
2602.00,0.8532
2601.00,0.8512
2600.00,0.8491
2599.00,0.8470
2598.00,0.8448
2597.00,0.8424
2596.00,0.8399
2595.00,0.8371
2594.00,0.8343
2593.00,0.8314
2592.00,0.8284
2591.00,0.8252
2590.00,0.8219
2589.00,0.8185
2588.00,0.8151
2587.00,0.8116
2586.00,0.8080
2585.00,0.8043
2584.00,0.8006
2583.00,0.7968
2582.00,0.7930
2581.00,0.7892
2580.00,0.7853
2579.00,0.7815
2578.00,0.7777
2577.00,0.7740
2576.00,0.7702
2575.00,0.7665
2574.00,0.7629
2573.00,0.7594
2572.00,0.7561
2571.00,0.7528
2570.00,0.7496
2569.00,0.7464
2568.00,0.7432
2567.00,0.7401
2566.00,0.7372
2565.00,0.7344
2564.00,0.7318
2563.00,0.7293
2562.00,0.7269
2561.00,0.7245
2560.00,0.7223
2559.00,0.7201
2558.00,0.7180
2557.00,0.7160
2556.00,0.7142
2555.00,0.7125
2554.00,0.7111
2553.00,0.7097
2552.00,0.7085
2551.00,0.7075
2550.00,0.7066
2549.00,0.7059
2548.00,0.7053
2547.00,0.7048
2546.00,0.7043
2545.00,0.7038
2544.00,0.7033
2543.00,0.7030
2542.00,0.7028
2541.00,0.7030
2540.00,0.7037
2539.00,0.7050
2538.00,0.7069
2537.00,0.7095
2536.00,0.7127
2535.00,0.7163
2534.00,0.7203
2533.00,0.7247
2532.00,0.7293
2531.00,0.7340
2530.00,0.7387
2529.00,0.7435
2528.00,0.7482
2527.00,0.7528
2526.00,0.7571
2525.00,0.7612
2524.00,0.7649
2523.00,0.7684
2522.00,0.7714
2521.00,0.7741
2520.00,0.7764
2519.00,0.7783
2518.00,0.7798
2517.00,0.7809
2516.00,0.7815
2515.00,0.7817
2514.00,0.7815
2513.00,0.7808
2512.00,0.7794
2511.00,0.7773
2510.00,0.7742
2509.00,0.7700
2508.00,0.7646
2507.00,0.7581
2506.00,0.7509
2505.00,0.7429
2504.00,0.7344
2503.00,0.7254
2502.00,0.7162
2501.00,0.7069
2500.00,0.6976
2499.00,0.6882
2498.00,0.6789
2497.00,0.6696
2496.00,0.6606
2495.00,0.6518
2494.00,0.6435
2493.00,0.6357
2492.00,0.6284
2491.00,0.6215
2490.00,0.6151
2489.00,0.6092
2488.00,0.6037
2487.00,0.5986
2486.00,0.5938
2485.00,0.5893
2484.00,0.5851
2483.00,0.5811
2482.00,0.5772
2481.00,0.5736
2480.00,0.5701
2479.00,0.5667
2478.00,0.5633
2477.00,0.5601
2476.00,0.5570
2475.00,0.5541
2474.00,0.5512
2473.00,0.5485
2472.00,0.5459
2471.00,0.5434
2470.00,0.5410
2469.00,0.5388
2468.00,0.5367
2467.00,0.5346
2466.00,0.5326
2465.00,0.5307
2464.00,0.5288
2463.00,0.5271
2462.00,0.5254
2461.00,0.5238
2460.00,0.5223
2459.00,0.5207
2458.00,0.5192
2457.00,0.5178
2456.00,0.5164
2455.00,0.5149
2454.00,0.5136
2453.00,0.5123
2452.00,0.5111
2451.00,0.5100
2450.00,0.5087
2449.00,0.5075
2448.00,0.5063
2447.00,0.5051
2446.00,0.5040
2445.00,0.5030
2444.00,0.5021
2443.00,0.5012
2442.00,0.5004
2441.00,0.4996
2440.00,0.4989
2439.00,0.4981
2438.00,0.4974
2437.00,0.4967
2436.00,0.4961
2435.00,0.4955
2434.00,0.4949
2433.00,0.4944
2432.00,0.4938
2431.00,0.4933
2430.00,0.4927
2429.00,0.4923
2428.00,0.4918
2427.00,0.4913
2426.00,0.4908
2425.00,0.4904
2424.00,0.4901
2423.00,0.4897
2422.00,0.4894
2421.00,0.4891
2420.00,0.4889
2419.00,0.4887
2418.00,0.4884
2417.00,0.4881
2416.00,0.4878
2415.00,0.4876
2414.00,0.4873
2413.00,0.4871
2412.00,0.4870
2411.00,0.4868
2410.00,0.4865
2409.00,0.4863
2408.00,0.4860
2407.00,0.4857
2406.00,0.4854
2405.00,0.4851
2404.00,0.4849
2403.00,0.4846
2402.00,0.4842
2401.00,0.4839
2400.00,0.4836
2399.00,0.4831
2398.00,0.4825
2397.00,0.4819
2396.00,0.4814
2395.00,0.4808
2394.00,0.4803
2393.00,0.4798
2392.00,0.4793
2391.00,0.4788
2390.00,0.4784
2389.00,0.4780
2388.00,0.4777
2387.00,0.4776
2386.00,0.4775
2385.00,0.4777
2384.00,0.4779
2383.00,0.4781
2382.00,0.4783
2381.00,0.4786
2380.00,0.4787
2379.00,0.4788
2378.00,0.4786
2377.00,0.4785
2376.00,0.4782
2375.00,0.4779
2374.00,0.4777
2373.00,0.4775
2372.00,0.4774
2371.00,0.4772
2370.00,0.4771
2369.00,0.4773
2368.00,0.4771
2367.00,0.4778
2366.00,0.4768
2365.00,0.4787
2364.00,0.4734
2363.00,0.4576
2362.00,0.4594
2361.00,0.4578
2360.00,0.4580
2359.00,0.4574
2358.00,0.4573
2357.00,0.4575
2356.00,0.4571
2355.00,0.4582
2354.00,0.4564
2353.00,0.4619
2352.00,0.4796
2351.00,0.4763
2350.00,0.4766
2349.00,0.4758
2348.00,0.4770
2347.00,0.4776
2346.00,0.4776
2345.00,0.4767
2344.00,0.4756
2343.00,0.4746
2342.00,0.4739
2341.00,0.4734
2340.00,0.4730
2339.00,0.4728
2338.00,0.4727
2337.00,0.4725
2336.00,0.4724
2335.00,0.4721
2334.00,0.4718
2333.00,0.4714
2332.00,0.4711
2331.00,0.4707
2330.00,0.4703
2329.00,0.4699
2328.00,0.4695
2327.00,0.4692
2326.00,0.4690
2325.00,0.4689
2324.00,0.4685
2323.00,0.4680
2322.00,0.4675
2321.00,0.4669
2320.00,0.4666
2319.00,0.4663
2318.00,0.4661
2317.00,0.4659
2316.00,0.4657
2315.00,0.4654
2314.00,0.4650
2313.00,0.4645
2312.00,0.4640
2311.00,0.4634
2310.00,0.4627
2309.00,0.4621
2308.00,0.4616
2307.00,0.4611
2306.00,0.4607
2305.00,0.4602
2304.00,0.4597
2303.00,0.4592
2302.00,0.4588
2301.00,0.4584
2300.00,0.4580
2299.00,0.4575
2298.00,0.4570
2297.00,0.4565
2296.00,0.4560
2295.00,0.4555
2294.00,0.4549
2293.00,0.4543
2292.00,0.4537
2291.00,0.4531
2290.00,0.4525
2289.00,0.4520
2288.00,0.4515
2287.00,0.4511
2286.00,0.4507
2285.00,0.4503
2284.00,0.4499
2283.00,0.4495
2282.00,0.4489
2281.00,0.4483
2280.00,0.4477
2279.00,0.4471
2278.00,0.4464
2277.00,0.4458
2276.00,0.4453
2275.00,0.4448
2274.00,0.4443
2273.00,0.4438
2272.00,0.4434
2271.00,0.4431
2270.00,0.4427
2269.00,0.4424
2268.00,0.4420
2267.00,0.4416
2266.00,0.4412
2265.00,0.4409
2264.00,0.4405
2263.00,0.4402
2262.00,0.4398
2261.00,0.4394
2260.00,0.4391
2259.00,0.4387
2258.00,0.4384
2257.00,0.4381
2256.00,0.4378
2255.00,0.4374
2254.00,0.4371
2253.00,0.4366
2252.00,0.4363
2251.00,0.4359
2250.00,0.4355
2249.00,0.4352
2248.00,0.4348
2247.00,0.4345
2246.00,0.4342
2245.00,0.4339
2244.00,0.4336
2243.00,0.4333
2242.00,0.4329
2241.00,0.4326
2240.00,0.4323
2239.00,0.4319
2238.00,0.4316
2237.00,0.4314
2236.00,0.4311
2235.00,0.4309
2234.00,0.4306
2233.00,0.4304
2232.00,0.4302
2231.00,0.4300
2230.00,0.4298
2229.00,0.4296
2228.00,0.4294
2227.00,0.4291
2226.00,0.4289
2225.00,0.4287
2224.00,0.4285
2223.00,0.4284
2222.00,0.4283
2221.00,0.4281
2220.00,0.4280
2219.00,0.4278
2218.00,0.4276
2217.00,0.4275
2216.00,0.4274
2215.00,0.4273
2214.00,0.4272
2213.00,0.4271
2212.00,0.4270
2211.00,0.4269
2210.00,0.4268
2209.00,0.4268
2208.00,0.4268
2207.00,0.4268
2206.00,0.4267
2205.00,0.4267
2204.00,0.4268
2203.00,0.4268
2202.00,0.4268
2201.00,0.4268
2200.00,0.4268
2199.00,0.4269
2198.00,0.4269
2197.00,0.4270
2196.00,0.4272
2195.00,0.4273
2194.00,0.4274
2193.00,0.4276
2192.00,0.4277
2191.00,0.4279
2190.00,0.4280
2189.00,0.4281
2188.00,0.4282
2187.00,0.4283
2186.00,0.4284
2185.00,0.4284
2184.00,0.4284
2183.00,0.4283
2182.00,0.4282
2181.00,0.4280
2180.00,0.4278
2179.00,0.4276
2178.00,0.4274
2177.00,0.4271
2176.00,0.4270
2175.00,0.4268
2174.00,0.4265
2173.00,0.4263
2172.00,0.4261
2171.00,0.4259
2170.00,0.4257
2169.00,0.4255
2168.00,0.4254
2167.00,0.4253
2166.00,0.4251
2165.00,0.4250
2164.00,0.4249
2163.00,0.4247
2162.00,0.4244
2161.00,0.4243
2160.00,0.4242
2159.00,0.4241
2158.00,0.4239
2157.00,0.4238
2156.00,0.4238
2155.00,0.4236
2154.00,0.4235
2153.00,0.4234
2152.00,0.4231
2151.00,0.4228
2150.00,0.4224
2149.00,0.4220
2148.00,0.4215
2147.00,0.4209
2146.00,0.4201
2145.00,0.4192
2144.00,0.4183
2143.00,0.4173
2142.00,0.4163
2141.00,0.4153
2140.00,0.4143
2139.00,0.4134
2138.00,0.4124
2137.00,0.4116
2136.00,0.4108
2135.00,0.4099
2134.00,0.4091
2133.00,0.4084
2132.00,0.4078
2131.00,0.4071
2130.00,0.4064
2129.00,0.4057
2128.00,0.4051
2127.00,0.4045
2126.00,0.4039
2125.00,0.4033
2124.00,0.4027
2123.00,0.4021
2122.00,0.4016
2121.00,0.4011
2120.00,0.4006
2119.00,0.4002
2118.00,0.3998
2117.00,0.3995
2116.00,0.3991
2115.00,0.3988
2114.00,0.3984
2113.00,0.3981
2112.00,0.3979
2111.00,0.3976
2110.00,0.3972
2109.00,0.3969
2108.00,0.3967
2107.00,0.3965
2106.00,0.3964
2105.00,0.3963
2104.00,0.3962
2103.00,0.3960
2102.00,0.3958
2101.00,0.3956
2100.00,0.3954
2099.00,0.3953
2098.00,0.3951
2097.00,0.3949
2096.00,0.3947
2095.00,0.3946
2094.00,0.3945
2093.00,0.3945
2092.00,0.3945
2091.00,0.3944
2090.00,0.3942
2089.00,0.3941
2088.00,0.3940
2087.00,0.3939
2086.00,0.3938
2085.00,0.3938
2084.00,0.3939
2083.00,0.3939
2082.00,0.3939
2081.00,0.3940
2080.00,0.3941
2079.00,0.3942
2078.00,0.3942
2077.00,0.3942
2076.00,0.3943
2075.00,0.3943
2074.00,0.3944
2073.00,0.3945
2072.00,0.3947
2071.00,0.3949
2070.00,0.3951
2069.00,0.3954
2068.00,0.3957
2067.00,0.3959
2066.00,0.3961
2065.00,0.3962
2064.00,0.3963
2063.00,0.3966
2062.00,0.3969
2061.00,0.3973
2060.00,0.3977
2059.00,0.3981
2058.00,0.3984
2057.00,0.3988
2056.00,0.3993
2055.00,0.3997
2054.00,0.4002
2053.00,0.4007
2052.00,0.4012
2051.00,0.4017
2050.00,0.4022
2049.00,0.4028
2048.00,0.4034
2047.00,0.4040
2046.00,0.4047
2045.00,0.4053
2044.00,0.4060
2043.00,0.4065
2042.00,0.4069
2041.00,0.4072
2040.00,0.4076
2039.00,0.4080
2038.00,0.4084
2037.00,0.4088
2036.00,0.4091
2035.00,0.4092
2034.00,0.4093
2033.00,0.4093
2032.00,0.4093
2031.00,0.4094
2030.00,0.4093
2029.00,0.4092
2028.00,0.4091
2027.00,0.4088
2026.00,0.4085
2025.00,0.4080
2024.00,0.4075
2023.00,0.4068
2022.00,0.4061
2021.00,0.4053
2020.00,0.4044
2019.00,0.4032
2018.00,0.4016
2017.00,0.3999
2016.00,0.3981
2015.00,0.3965
2014.00,0.3951
2013.00,0.3938
2012.00,0.3925
2011.00,0.3912
2010.00,0.3900
2009.00,0.3889
2008.00,0.3880
2007.00,0.3871
2006.00,0.3863
2005.00,0.3857
2004.00,0.3851
2003.00,0.3846
2002.00,0.3842
2001.00,0.3838
2000.00,0.3835
1999.00,0.3831
1998.00,0.3828
1997.00,0.3826
1996.00,0.3828
1995.00,0.3829
1994.00,0.3829
1993.00,0.3826
1992.00,0.3821
1991.00,0.3817
1990.00,0.3814
1989.00,0.3814
1988.00,0.3814
1987.00,0.3814
1986.00,0.3814
1985.00,0.3815
1984.00,0.3816
1983.00,0.3817
1982.00,0.3817
1981.00,0.3817
1980.00,0.3819
1979.00,0.3820
1978.00,0.3821
1977.00,0.3822
1976.00,0.3824
1975.00,0.3826
1974.00,0.3828
1973.00,0.3831
1972.00,0.3835
1971.00,0.3841
1970.00,0.3846
1969.00,0.3851
1968.00,0.3854
1967.00,0.3856
1966.00,0.3858
1965.00,0.3865
1964.00,0.3873
1963.00,0.3881
1962.00,0.3887
1961.00,0.3892
1960.00,0.3895
1959.00,0.3898
1958.00,0.3900
1957.00,0.3903
1956.00,0.3906
1955.00,0.3908
1954.00,0.3911
1953.00,0.3915
1952.00,0.3919
1951.00,0.3924
1950.00,0.3928
1949.00,0.3932
1948.00,0.3938
1947.00,0.3946
1946.00,0.3956
1945.00,0.3967
1944.00,0.3976
1943.00,0.3980
1942.00,0.3983
1941.00,0.3990
1940.00,0.4000
1939.00,0.4010
1938.00,0.4017
1937.00,0.4023
1936.00,0.4026
1935.00,0.4028
1934.00,0.4029
1933.00,0.4032
1932.00,0.4037
1931.00,0.4044
1930.00,0.4051
1929.00,0.4060
1928.00,0.4070
1927.00,0.4082
1926.00,0.4096
1925.00,0.4109
1924.00,0.4118
1923.00,0.4126
1922.00,0.4135
1921.00,0.4148
1920.00,0.4162
1919.00,0.4172
1918.00,0.4177
1917.00,0.4180
1916.00,0.4185
1915.00,0.4190
1914.00,0.4195
1913.00,0.4199
1912.00,0.4200
1911.00,0.4198
1910.00,0.4193
1909.00,0.4187
1908.00,0.4183
1907.00,0.4179
1906.00,0.4177
1905.00,0.4175
1904.00,0.4175
1903.00,0.4174
1902.00,0.4172
1901.00,0.4171
1900.00,0.4172
1899.00,0.4173
1898.00,0.4176
1897.00,0.4178
1896.00,0.4180
1895.00,0.4180
1894.00,0.4182
1893.00,0.4188
1892.00,0.4195
1891.00,0.4198
1890.00,0.4197
1889.00,0.4195
1888.00,0.4196
1887.00,0.4200
1886.00,0.4205
1885.00,0.4210
1884.00,0.4215
1883.00,0.4218
1882.00,0.4221
1881.00,0.4223
1880.00,0.4225
1879.00,0.4225
1878.00,0.4224
1877.00,0.4224
1876.00,0.4225
1875.00,0.4225
1874.00,0.4227
1873.00,0.4230
1872.00,0.4234
1871.00,0.4234
1870.00,0.4228
1869.00,0.4220
1868.00,0.4213
1867.00,0.4212
1866.00,0.4216
1865.00,0.4223
1864.00,0.4229
1863.00,0.4233
1862.00,0.4234
1861.00,0.4233
1860.00,0.4233
1859.00,0.4231
1858.00,0.4230
1857.00,0.4229
1856.00,0.4231
1855.00,0.4232
1854.00,0.4234
1853.00,0.4237
1852.00,0.4244
1851.00,0.4252
1850.00,0.4257
1849.00,0.4259
1848.00,0.4261
1847.00,0.4263
1846.00,0.4266
1845.00,0.4269
1844.00,0.4271
1843.00,0.4277
1842.00,0.4288
1841.00,0.4306
1840.00,0.4326
1839.00,0.4343
1838.00,0.4357
1837.00,0.4370
1836.00,0.4384
1835.00,0.4397
1834.00,0.4410
1833.00,0.4426
1832.00,0.4441
1831.00,0.4453
1830.00,0.4467
1829.00,0.4488
1828.00,0.4517
1827.00,0.4547
1826.00,0.4572
1825.00,0.4593
1824.00,0.4616
1823.00,0.4643
1822.00,0.4674
1821.00,0.4711
1820.00,0.4749
1819.00,0.4785
1818.00,0.4820
1817.00,0.4856
1816.00,0.4898
1815.00,0.4943
1814.00,0.4991
1813.00,0.5044
1812.00,0.5104
1811.00,0.5172
1810.00,0.5251
1809.00,0.5343
1808.00,0.5451
1807.00,0.5579
1806.00,0.5734
1805.00,0.5921
1804.00,0.6138
1803.00,0.6385
1802.00,0.6660
1801.00,0.6954
1800.00,0.7235
1799.00,0.7466
1798.00,0.7629
1797.00,0.7725
1796.00,0.7770
1795.00,0.7781
1794.00,0.7750
1793.00,0.7643
1792.00,0.7439
1791.00,0.7179
1790.00,0.6922
1789.00,0.6695
1788.00,0.6497
1787.00,0.6324
1786.00,0.6168
1785.00,0.6030
1784.00,0.5918
1783.00,0.5834
1782.00,0.5768
1781.00,0.5710
1780.00,0.5659
1779.00,0.5617
1778.00,0.5584
1777.00,0.5551
1776.00,0.5517
1775.00,0.5486
1774.00,0.5462
1773.00,0.5449
1772.00,0.5448
1771.00,0.5455
1770.00,0.5467
1769.00,0.5474
1768.00,0.5474
1767.00,0.5470
1766.00,0.5472
1765.00,0.5480
1764.00,0.5486
1763.00,0.5485
1762.00,0.5478
1761.00,0.5475
1760.00,0.5478
1759.00,0.5485
1758.00,0.5487
1757.00,0.5482
1756.00,0.5477
1755.00,0.5478
1754.00,0.5486
1753.00,0.5496
1752.00,0.5497
1751.00,0.5491
1750.00,0.5483
1749.00,0.5483
1748.00,0.5492
1747.00,0.5507
1746.00,0.5524
1745.00,0.5538
1744.00,0.5546
1743.00,0.5551
1742.00,0.5559
1741.00,0.5571
1740.00,0.5584
1739.00,0.5592
1738.00,0.5596
1737.00,0.5603
1736.00,0.5609
1735.00,0.5608
1734.00,0.5603
1733.00,0.5608
1732.00,0.5626
1731.00,0.5644
1730.00,0.5656
1729.00,0.5665
1728.00,0.5678
1727.00,0.5695
1726.00,0.5714
1725.00,0.5734
1724.00,0.5753
1723.00,0.5768
1722.00,0.5781
1721.00,0.5791
1720.00,0.5798
1719.00,0.5807
1718.00,0.5828
1717.00,0.5863
1716.00,0.5906
1715.00,0.5951
1714.00,0.5992
1713.00,0.6031
1712.00,0.6068
1711.00,0.6100
1710.00,0.6127
1709.00,0.6152
1708.00,0.6177
1707.00,0.6201
1706.00,0.6223
1705.00,0.6241
1704.00,0.6257
1703.00,0.6272
1702.00,0.6283
1701.00,0.6292
1700.00,0.6306
1699.00,0.6328
1698.00,0.6363
1697.00,0.6416
1696.00,0.6479
1695.00,0.6545
1694.00,0.6606
1693.00,0.6662
1692.00,0.6715
1691.00,0.6761
1690.00,0.6795
1689.00,0.6812
1688.00,0.6821
1687.00,0.6832
1686.00,0.6860
1685.00,0.6917
1684.00,0.6995
1683.00,0.7071
1682.00,0.7137
1681.00,0.7197
1680.00,0.7251
1679.00,0.7299
1678.00,0.7344
1677.00,0.7389
1676.00,0.7440
1675.00,0.7494
1674.00,0.7546
1673.00,0.7598
1672.00,0.7650
1671.00,0.7706
1670.00,0.7770
1669.00,0.7841
1668.00,0.7911
1667.00,0.7973
1666.00,0.8022
1665.00,0.8076
1664.00,0.8124
1663.00,0.8205
1662.00,0.8277
1661.00,0.8321
1660.00,0.8378
1659.00,0.8433
1658.00,0.8478
1657.00,0.8539
1656.00,0.8571
1655.00,0.8674
1654.00,0.8581
1653.00,0.8550
1652.00,0.8706
1651.00,0.8776
1650.00,0.8852
1649.00,0.8895
1648.00,0.8957
1647.00,0.9029
1646.00,0.9113
1645.00,0.9204
1644.00,0.9295
1643.00,0.9374
1642.00,0.9444
1641.00,0.9509
1640.00,0.9567
1639.00,0.9611
1638.00,0.9652
1637.00,0.9722
1636.00,0.9840
1635.00,0.9979
1634.00,1.0107
1633.00,1.0220
1632.00,1.0322
1631.00,1.0417
1630.00,1.0512
1629.00,1.0621
1628.00,1.0744
1627.00,1.0866
1626.00,1.0984
1625.00,1.1116
1624.00,1.1283
1623.00,1.1477
1622.00,1.1671
1621.00,1.1849
1620.00,1.2010
1619.00,1.2174
1618.00,1.2390
1617.00,1.2711
1616.00,1.3111
1615.00,1.3493
1614.00,1.3823
1613.00,1.4148
1612.00,1.4509
1611.00,1.4900
1610.00,1.5304
1609.00,1.5732
1608.00,1.6188
1607.00,1.6638
1606.00,1.7055
1605.00,1.7477
1604.00,1.7941
1603.00,1.8410
1602.00,1.8841
1601.00,1.9247
1600.00,1.9631
1599.00,1.9930
1598.00,2.0127
1597.00,2.0327
1596.00,2.0618
1595.00,2.0970
1594.00,2.1352
1593.00,2.1820
1592.00,2.2400
1591.00,2.2989
1590.00,2.3528
1589.00,2.4153
1588.00,2.4976
1587.00,2.5853
1586.00,2.6627
1585.00,2.7516
1584.00,2.8803
1583.00,3.0210
1582.00,3.1062
1581.00,3.1535
1580.00,3.2151
1579.00,3.2597
1578.00,3.2522
1577.00,3.2770
1576.00,3.3731
1575.00,3.3736
1574.00,3.2703
1573.00,3.2371
1572.00,3.2915
1571.00,3.3372
1570.00,3.3197
1569.00,3.3757
1568.00,3.6163
1567.00,3.9456
1566.00,3.9406
1565.00,3.8670
1564.00,3.8462
1563.00,3.8885
1562.00,3.9022
1561.00,4.0711
1560.00,3.8843
1559.00,3.5706
1558.00,3.8191
1557.00,4.3718
1556.00,4.1180
1555.00,4.0707
1554.00,3.8497
1553.00,3.8872
1552.00,4.3498
1551.00,4.5513
1550.00,4.4327
1549.00,4.2393
1548.00,3.8960
1547.00,3.6644
1546.00,3.5696
1545.00,3.5583
1544.00,3.5693
1543.00,3.6452
1542.00,3.7454
1541.00,3.8125
1540.00,3.7111
1539.00,3.6311
1538.00,3.8371
1537.00,4.2024
1536.00,4.1209
1535.00,3.8463
1534.00,3.8004
1533.00,3.8391
1532.00,3.7712
1531.00,3.7903
1530.00,3.9777
1529.00,4.1899
1528.00,4.1517
1527.00,4.1039
1526.00,4.1125
1525.00,4.1078
1524.00,4.3948
1523.00,4.7232
1522.00,4.0052
1521.00,3.8176
1520.00,3.7204
1519.00,3.5903
1518.00,3.5607
1517.00,3.6190
1516.00,3.7662
1515.00,4.0118
1514.00,4.2356
1513.00,4.1525
1512.00,4.0262
1511.00,3.9203
1510.00,3.7396
1509.00,3.7278
1508.00,4.1060
1507.00,4.0993
1506.00,3.8021
1505.00,3.7729
1504.00,3.7398
1503.00,3.8979
1502.00,4.2785
1501.00,4.5076
1500.00,4.3907
1499.00,3.9375
1498.00,3.8251
1497.00,3.7824
1496.00,3.6708
1495.00,3.6428
1494.00,3.6793
1493.00,3.6481
1492.00,3.5603
1491.00,3.5835
1490.00,3.8719
1489.00,4.3386
1488.00,4.0526
1487.00,3.9757
1486.00,4.0939
1485.00,4.3510
1484.00,4.9626
1483.00,4.6411
1482.00,4.1154
1481.00,4.1837
1480.00,4.7196
1479.00,4.1942
1478.00,4.0690
1477.00,3.9457
1476.00,3.7457
1475.00,3.7032
1474.00,3.9370
1473.00,4.4184
1472.00,4.4865
1471.00,4.6237
1470.00,4.1372
1469.00,4.0776
1468.00,4.3906
1467.00,4.1551
1466.00,3.9992
1465.00,4.1693
1464.00,4.5410
1463.00,4.4132
1462.00,4.0048
1461.00,4.0415
1460.00,4.2746
1459.00,4.0204
1458.00,4.0290
1457.00,3.9654
1456.00,3.8280
1455.00,3.8069
1454.00,3.8214
1453.00,3.9136
1452.00,4.1022
1451.00,4.4911
1450.00,4.6190
1449.00,4.6052
1448.00,4.1358
1447.00,3.8242
1446.00,3.8726
1445.00,4.0499
1444.00,4.1499
1443.00,4.1709
1442.00,4.1007
1441.00,4.1438
1440.00,4.1976
1439.00,4.1441
1438.00,3.9145
1437.00,4.0003
1436.00,4.4619
1435.00,3.9973
1434.00,3.9340
1433.00,4.0048
1432.00,3.9751
1431.00,4.0009
1430.00,4.0353
1429.00,4.1226
1428.00,4.2954
1427.00,4.5322
1426.00,4.7457
1425.00,4.7897
1424.00,4.1277
1423.00,3.8997
1422.00,3.9584
1421.00,4.0292
1420.00,3.8578
1419.00,3.7135
1418.00,3.7198
1417.00,3.8037
1416.00,3.8516
1415.00,4.0214
1414.00,4.4559
1413.00,4.1322
1412.00,3.9009
1411.00,3.8125
1410.00,3.7616
1409.00,3.8262
1408.00,3.9912
1407.00,4.2143
1406.00,4.4054
1405.00,4.3500
1404.00,4.2599
1403.00,4.2546
1402.00,4.0944
1401.00,3.9222
1400.00,3.8900
1399.00,3.9222
1398.00,3.9108
1397.00,4.0565
1396.00,4.6036
1395.00,4.2297
1394.00,3.9359
1393.00,3.8057
1392.00,3.7374
1391.00,3.7968
1390.00,3.9928
1389.00,4.0471
1388.00,3.8433
1387.00,3.8262
1386.00,4.0303
1385.00,4.3445
1384.00,4.3671
1383.00,4.1113
1382.00,3.9774
1381.00,4.0195
1380.00,4.1039
1379.00,4.1345
1378.00,4.2121
1377.00,4.1428
1376.00,4.1029
1375.00,4.1198
1374.00,4.3658
1373.00,4.8078
1372.00,4.1662
1371.00,3.9964
1370.00,4.0154
1369.00,4.0659
1368.00,4.2278
1367.00,4.6034
1366.00,4.4589
1365.00,4.1554
1364.00,4.2670
1363.00,4.6851
1362.00,4.0173
1361.00,3.7892
1360.00,3.7963
1359.00,3.7993
1358.00,3.7127
1357.00,3.6612
1356.00,3.6837
1355.00,3.6485
1354.00,3.5165
1353.00,3.3895
1352.00,3.3166
1351.00,3.2806
1350.00,3.2620
1349.00,3.2493
1348.00,3.2165
1347.00,3.1403
1346.00,3.0480
1345.00,2.9829
1344.00,2.9505
1343.00,2.9245
1342.00,2.8831
1341.00,2.8284
1340.00,2.7700
1339.00,2.7135
1338.00,2.6648
1337.00,2.6263
1336.00,2.5902
1335.00,2.5467
1334.00,2.4982
1333.00,2.4530
1332.00,2.4116
1331.00,2.3696
1330.00,2.3278
1329.00,2.2918
1328.00,2.2634
1327.00,2.2401
1326.00,2.2210
1325.00,2.2078
1324.00,2.1997
1323.00,2.1931
1322.00,2.1872
1321.00,2.1846
1320.00,2.1854
1319.00,2.1856
1318.00,2.1827
1317.00,2.1787
1316.00,2.1750
1315.00,2.1699
1314.00,2.1632
1313.00,2.1568
1312.00,2.1505
1311.00,2.1411
1310.00,2.1281
1309.00,2.1155
1308.00,2.1059
1307.00,2.0974
1306.00,2.0880
1305.00,2.0775
1304.00,2.0657
1303.00,2.0505
1302.00,2.0315
1301.00,2.0112
1300.00,1.9906
1299.00,1.9681
1298.00,1.9424
1297.00,1.9149
1296.00,1.8873
1295.00,1.8605
1294.00,1.8350
1293.00,1.8119
1292.00,1.7908
1291.00,1.7706
1290.00,1.7506
1289.00,1.7314
1288.00,1.7139
1287.00,1.6981
1286.00,1.6840
1285.00,1.6714
1284.00,1.6596
1283.00,1.6477
1282.00,1.6357
1281.00,1.6246
1280.00,1.6145
1279.00,1.6048
1278.00,1.5946
1277.00,1.5845
1276.00,1.5749
1275.00,1.5660
1274.00,1.5580
1273.00,1.5515
1272.00,1.5469
1271.00,1.5434
1270.00,1.5402
1269.00,1.5373
1268.00,1.5345
1267.00,1.5310
1266.00,1.5260
1265.00,1.5194
1264.00,1.5120
1263.00,1.5045
1262.00,1.4973
1261.00,1.4915
1260.00,1.4878
1259.00,1.4864
1258.00,1.4873
1257.00,1.4897
1256.00,1.4931
1255.00,1.4969
1254.00,1.5012
1253.00,1.5069
1252.00,1.5146
1251.00,1.5240
1250.00,1.5348
1249.00,1.5472
1248.00,1.5617
1247.00,1.5778
1246.00,1.5944
1245.00,1.6109
1244.00,1.6272
1243.00,1.6430
1242.00,1.6589
1241.00,1.6759
1240.00,1.6941
1239.00,1.7123
1238.00,1.7305
1237.00,1.7510
1236.00,1.7760
1235.00,1.8050
1234.00,1.8357
1233.00,1.8673
1232.00,1.8998
1231.00,1.9327
1230.00,1.9657
1229.00,1.9998
1228.00,2.0358
1227.00,2.0731
1226.00,2.1106
1225.00,2.1486
1224.00,2.1860
1223.00,2.2210
1222.00,2.2545
1221.00,2.2913
1220.00,2.3330
1219.00,2.3760
1218.00,2.4180
1217.00,2.4615
1216.00,2.5052
1215.00,2.5405
1214.00,2.5647
1213.00,2.5888
1212.00,2.6239
1211.00,2.6698
1210.00,2.7236
1209.00,2.7884
1208.00,2.8573
1207.00,2.9028
1206.00,2.9123
1205.00,2.9130
1204.00,2.9182
1203.00,2.9103
1202.00,2.8912
1201.00,2.8870
1200.00,2.9091
1199.00,2.9407
1198.00,2.9631
1197.00,2.9816
1196.00,3.0002
1195.00,3.0033
1194.00,2.9909
1193.00,2.9876
1192.00,3.0013
1191.00,3.0071
1190.00,2.9835
1189.00,2.9455
1188.00,2.9138
1187.00,2.8888
1186.00,2.8638
1185.00,2.8389
1184.00,2.8134
1183.00,2.7784
1182.00,2.7321
1181.00,2.6845
1180.00,2.6396
1179.00,2.5909
1178.00,2.5366
1177.00,2.4835
1176.00,2.4363
1175.00,2.3947
1174.00,2.3578
1173.00,2.3257
1172.00,2.2956
1171.00,2.2630
1170.00,2.2268
1169.00,2.1899
1168.00,2.1534
1167.00,2.1157
1166.00,2.0769
1165.00,2.0398
1164.00,2.0056
1163.00,1.9735
1162.00,1.9427
1161.00,1.9139
1160.00,1.8865
1159.00,1.8596
1158.00,1.8338
1157.00,1.8102
1156.00,1.7874
1155.00,1.7626
1154.00,1.7351
1153.00,1.7080
1152.00,1.6852
1151.00,1.6680
1150.00,1.6553
1149.00,1.6462
1148.00,1.6405
1147.00,1.6394
1146.00,1.6437
1145.00,1.6533
1144.00,1.6659
1143.00,1.6788
1142.00,1.6908
1141.00,1.7023
1140.00,1.7133
1139.00,1.7230
1138.00,1.7308
1137.00,1.7375
1136.00,1.7418
1135.00,1.7399
1134.00,1.7279
1133.00,1.7046
1132.00,1.6708
1131.00,1.6280
1130.00,1.5787
1129.00,1.5258
1128.00,1.4724
1127.00,1.4214
1126.00,1.3750
1125.00,1.3342
1124.00,1.2988
1123.00,1.2682
1122.00,1.2420
1121.00,1.2204
1120.00,1.2031
1119.00,1.1891
1118.00,1.1778
1117.00,1.1688
1116.00,1.1620
1115.00,1.1569
1114.00,1.1530
1113.00,1.1496
1112.00,1.1463
1111.00,1.1425
1110.00,1.1381
1109.00,1.1331
1108.00,1.1282
1107.00,1.1241
1106.00,1.1213
1105.00,1.1200
1104.00,1.1204
1103.00,1.1228
1102.00,1.1277
1101.00,1.1352
1100.00,1.1456
1099.00,1.1587
1098.00,1.1743
1097.00,1.1925
1096.00,1.2134
1095.00,1.2370
1094.00,1.2630
1093.00,1.2912
1092.00,1.3214
1091.00,1.3524
1090.00,1.3824
1089.00,1.4097
1088.00,1.4329
1087.00,1.4507
1086.00,1.4623
1085.00,1.4673
1084.00,1.4661
1083.00,1.4596
1082.00,1.4493
1081.00,1.4369
1080.00,1.4230
1079.00,1.4077
1078.00,1.3910
1077.00,1.3738
1076.00,1.3562
1075.00,1.3382
1074.00,1.3202
1073.00,1.3033
1072.00,1.2893
1071.00,1.2794
1070.00,1.2747
1069.00,1.2767
1068.00,1.2865
1067.00,1.3042
1066.00,1.3282
1065.00,1.3555
1064.00,1.3809
1063.00,1.3994
1062.00,1.4074
1061.00,1.4056
1060.00,1.3975
1059.00,1.3871
1058.00,1.3776
1057.00,1.3710
1056.00,1.3683
1055.00,1.3685
1054.00,1.3705
1053.00,1.3732
1052.00,1.3764
1051.00,1.3799
1050.00,1.3831
1049.00,1.3851
1048.00,1.3852
1047.00,1.3825
1046.00,1.3760
1045.00,1.3653
1044.00,1.3507
1043.00,1.3337
1042.00,1.3158
1041.00,1.2989
1040.00,1.2838
1039.00,1.2707
1038.00,1.2594
1037.00,1.2501
1036.00,1.2430
1035.00,1.2385
1034.00,1.2368
1033.00,1.2380
1032.00,1.2414
1031.00,1.2458
1030.00,1.2493
1029.00,1.2508
1028.00,1.2497
1027.00,1.2460
1026.00,1.2397
1025.00,1.2312
1024.00,1.2207
1023.00,1.2093
1022.00,1.1978
1021.00,1.1880
1020.00,1.1819
1019.00,1.1818
1018.00,1.1889
1017.00,1.2028
1016.00,1.2204
1015.00,1.2357
1014.00,1.2414
1013.00,1.2317
1012.00,1.2051
1011.00,1.1640
1010.00,1.1140
1009.00,1.0612
1008.00,1.0108
1007.00,0.9660
1006.00,0.9286
1005.00,0.8984
1004.00,0.8748
1003.00,0.8564
1002.00,0.8421
1001.00,0.8307
1000.00,0.8217
999.00,0.8145
998.00,0.8085
997.00,0.8032
996.00,0.7979
995.00,0.7927
994.00,0.7876
993.00,0.7827
992.00,0.7785
991.00,0.7753
990.00,0.7733
989.00,0.7721
988.00,0.7719
987.00,0.7725
986.00,0.7741
985.00,0.7766
984.00,0.7799
983.00,0.7840
982.00,0.7885
981.00,0.7933
980.00,0.7982
979.00,0.8033
978.00,0.8084
977.00,0.8133
976.00,0.8175
975.00,0.8211
974.00,0.8242
973.00,0.8268
972.00,0.8292
971.00,0.8315
970.00,0.8336
969.00,0.8356
968.00,0.8372
967.00,0.8383
966.00,0.8387
965.00,0.8381
964.00,0.8369
963.00,0.8352
962.00,0.8328
961.00,0.8301
960.00,0.8272
959.00,0.8248
958.00,0.8231
957.00,0.8218
956.00,0.8208
955.00,0.8199
954.00,0.8189
953.00,0.8178
952.00,0.8165
951.00,0.8150
950.00,0.8138
949.00,0.8130
948.00,0.8124
947.00,0.8120
946.00,0.8117
945.00,0.8118
944.00,0.8125
943.00,0.8138
942.00,0.8153
941.00,0.8170
940.00,0.8187
939.00,0.8203
938.00,0.8215
937.00,0.8221
936.00,0.8218
935.00,0.8208
934.00,0.8191
933.00,0.8163
932.00,0.8127
931.00,0.8084
930.00,0.8038
929.00,0.7993
928.00,0.7951
927.00,0.7919
926.00,0.7900
925.00,0.7898
924.00,0.7911
923.00,0.7940
922.00,0.7979
921.00,0.8019
920.00,0.8045
919.00,0.8046
918.00,0.8016
917.00,0.7959
916.00,0.7887
915.00,0.7815
914.00,0.7755
913.00,0.7711
912.00,0.7686
911.00,0.7674
910.00,0.7672
909.00,0.7676
908.00,0.7681
907.00,0.7686
906.00,0.7691
905.00,0.7697
904.00,0.7710
903.00,0.7733
902.00,0.7771
901.00,0.7825
900.00,0.7894
899.00,0.7979
898.00,0.8080
897.00,0.8197
896.00,0.8330
895.00,0.8479
894.00,0.8647
893.00,0.8845
892.00,0.9087
891.00,0.9405
890.00,0.9868
889.00,1.0604
888.00,1.1778
887.00,1.3568
886.00,1.6136
885.00,1.9559
884.00,2.3566
883.00,2.7032
882.00,2.8930
881.00,3.0072
880.00,3.1073
879.00,3.2064
878.00,3.3358
877.00,3.4161
876.00,3.3912
875.00,3.4742
874.00,3.7415
873.00,3.3901
872.00,2.9400
871.00,2.6087
870.00,2.3651
869.00,2.1904
868.00,2.0744
867.00,2.0105
866.00,1.9869
865.00,1.9846
864.00,1.9827
863.00,1.9682
862.00,1.9373
861.00,1.8917
860.00,1.8368
859.00,1.7803
858.00,1.7272
857.00,1.6755
856.00,1.6188
855.00,1.5512
854.00,1.4718
853.00,1.3870
852.00,1.3077
851.00,1.2430
850.00,1.1933
849.00,1.1511
848.00,1.1076
847.00,1.0613
846.00,1.0182
845.00,0.9847
844.00,0.9637
843.00,0.9542
842.00,0.9541
841.00,0.9617
840.00,0.9748
839.00,0.9911
838.00,1.0085
837.00,1.0254
836.00,1.0407
835.00,1.0535
834.00,1.0628
833.00,1.0678
832.00,1.0679
831.00,1.0627
830.00,1.0524
829.00,1.0382
828.00,1.0220
827.00,1.0059
826.00,0.9919
825.00,0.9809
824.00,0.9731
823.00,0.9678
822.00,0.9638
821.00,0.9601
820.00,0.9561
819.00,0.9512
818.00,0.9453
817.00,0.9383
816.00,0.9305
815.00,0.9226
814.00,0.9149
813.00,0.9076
812.00,0.9004
811.00,0.8932
810.00,0.8861
809.00,0.8794
808.00,0.8733
807.00,0.8679
806.00,0.8626
805.00,0.8570
804.00,0.8507
803.00,0.8440
802.00,0.8376
801.00,0.8322
800.00,0.8282
799.00,0.8260
798.00,0.8254
797.00,0.8259
796.00,0.8271
795.00,0.8289
794.00,0.8317
793.00,0.8354
792.00,0.8397
791.00,0.8444
790.00,0.8494
789.00,0.8549
788.00,0.8610
787.00,0.8679
786.00,0.8758
785.00,0.8847
784.00,0.8942
783.00,0.9041
782.00,0.9139
781.00,0.9237
780.00,0.9335
779.00,0.9438
778.00,0.9547
777.00,0.9662
776.00,0.9780
775.00,0.9901
774.00,1.0029
773.00,1.0162
772.00,1.0295
771.00,1.0419
770.00,1.0527
769.00,1.0614
768.00,1.0682
767.00,1.0736
766.00,1.0785
765.00,1.0838
764.00,1.0899
763.00,1.0971
762.00,1.1058
761.00,1.1159
760.00,1.1267
759.00,1.1376
758.00,1.1488
757.00,1.1605
756.00,1.1732
755.00,1.1866
754.00,1.2008
753.00,1.2160
752.00,1.2324
751.00,1.2498
750.00,1.2679
749.00,1.2859
748.00,1.3034
747.00,1.3204
746.00,1.3372
745.00,1.3542
744.00,1.3714
743.00,1.3891
742.00,1.4080
741.00,1.4285
740.00,1.4499
739.00,1.4708
738.00,1.4914
737.00,1.5135
736.00,1.5388
735.00,1.5676
734.00,1.5987
733.00,1.6307
732.00,1.6629
731.00,1.6959
730.00,1.7329
729.00,1.7775
728.00,1.8311
727.00,1.8925
726.00,1.9604
725.00,2.0360
724.00,2.1202
723.00,2.2039
722.00,2.2617
721.00,2.2669
720.00,2.2257
719.00,2.1718
718.00,2.1328
717.00,2.1204
716.00,2.1359
715.00,2.1720
714.00,2.2053
713.00,2.1935
712.00,2.1068
711.00,1.9712
710.00,1.8349
709.00,1.7230
708.00,1.6398
707.00,1.5821
706.00,1.5455
705.00,1.5266
704.00,1.5234
703.00,1.5334
702.00,1.5525
701.00,1.5741
700.00,1.5895
699.00,1.5892
698.00,1.5670
697.00,1.5240
696.00,1.4695
695.00,1.4149
694.00,1.3680
693.00,1.3310
692.00,1.3029
691.00,1.2812
690.00,1.2625
689.00,1.2437
688.00,1.2234
687.00,1.2025
686.00,1.1826
685.00,1.1645
684.00,1.1484
683.00,1.1345
682.00,1.1234
681.00,1.1162
680.00,1.1132
679.00,1.1142
678.00,1.1179
677.00,1.1227
676.00,1.1272
675.00,1.1307
674.00,1.1328
673.00,1.1333
672.00,1.1314
671.00,1.1272
670.00,1.1209
669.00,1.1114
668.00,1.0990
667.00,1.0893
666.00,1.0847
665.00,1.0826
664.00,1.0810
663.00,1.0795
662.00,1.0778
661.00,1.0763
660.00,1.0751
659.00,1.0749
658.00,1.0757
657.00,1.0773
656.00,1.0795
655.00,1.0819
654.00,1.0836
653.00,1.0842
652.00,1.0839
651.00,1.0837
650.00,1.0844
649.00,1.0861
648.00,1.0882
647.00,1.0905
646.00,1.0935
645.00,1.0976
644.00,1.1037
643.00,1.1119
642.00,1.1220
641.00,1.1333
640.00,1.1455
639.00,1.1599
638.00,1.1779
637.00,1.1999
636.00,1.2239
635.00,1.2470
634.00,1.2686
633.00,1.2902
632.00,1.3117
631.00,1.3300
630.00,1.3414
629.00,1.3457
628.00,1.3452
627.00,1.3428
626.00,1.3410
625.00,1.3423
624.00,1.3468
623.00,1.3519
622.00,1.3551
621.00,1.3567
620.00,1.3582
619.00,1.3605
618.00,1.3631
617.00,1.3663
616.00,1.3700
615.00,1.3733
614.00,1.3746
613.00,1.3728
612.00,1.3683
611.00,1.3621
610.00,1.3553
609.00,1.3480
608.00,1.3391
607.00,1.3273
606.00,1.3140
605.00,1.3029
604.00,1.2962
603.00,1.2937
602.00,1.2932
601.00,1.2938
600.00,1.2951
599.00,1.2973
598.00,1.3007
597.00,1.3063
596.00,1.3148
595.00,1.3259
594.00,1.3399
593.00,1.3586
592.00,1.3836
591.00,1.4136
590.00,1.4439
589.00,1.4710
588.00,1.4944
587.00,1.5144
586.00,1.5308
585.00,1.5428
584.00,1.5496
583.00,1.5503
582.00,1.5435
581.00,1.5296
580.00,1.5103
579.00,1.4890
578.00,1.4697
577.00,1.4554
576.00,1.4462
575.00,1.4405
574.00,1.4378
573.00,1.4390
572.00,1.4437
571.00,1.4495
570.00,1.4535
569.00,1.4557
568.00,1.4572
567.00,1.4579
566.00,1.4570
565.00,1.4538
564.00,1.4484
563.00,1.4414
562.00,1.4334
561.00,1.4256
560.00,1.4182
559.00,1.4109
558.00,1.4042
557.00,1.3998
556.00,1.3980
555.00,1.3972
554.00,1.3959
553.00,1.3944
552.00,1.3935
551.00,1.3932
550.00,1.3940
