Created as New Dataset,
cm-1,A
4000.00,0.3644
3999.00,0.3641
3998.00,0.3638
3997.00,0.3635
3996.00,0.3632
3995.00,0.3629
3994.00,0.3626
3993.00,0.3623
3992.00,0.3619
3991.00,0.3616
3990.00,0.3613
3989.00,0.3611
3988.00,0.3608
3987.00,0.3605
3986.00,0.3603
3985.00,0.3599
3984.00,0.3596
3983.00,0.3593
3982.00,0.3589
3981.00,0.3586
3980.00,0.3582
3979.00,0.3578
3978.00,0.3574
3977.00,0.3571
3976.00,0.3568
3975.00,0.3565
3974.00,0.3562
3973.00,0.3558
3972.00,0.3555
3971.00,0.3553
3970.00,0.3550
3969.00,0.3548
3968.00,0.3545
3967.00,0.3542
3966.00,0.3538
3965.00,0.3535
3964.00,0.3533
3963.00,0.3531
3962.00,0.3529
3961.00,0.3527
3960.00,0.3524
3959.00,0.3521
3958.00,0.3519
3957.00,0.3517
3956.00,0.3517
3955.00,0.3516
3954.00,0.3515
3953.00,0.3514
3952.00,0.3513
3951.00,0.3512
3950.00,0.3511
3949.00,0.3509
3948.00,0.3508
3947.00,0.3506
3946.00,0.3504
3945.00,0.3503
3944.00,0.3502
3943.00,0.3502
3942.00,0.3501
3941.00,0.3500
3940.00,0.3499
3939.00,0.3498
3938.00,0.3497
3937.00,0.3496
3936.00,0.3495
3935.00,0.3494
3934.00,0.3494
3933.00,0.3494
3932.00,0.3494
3931.00,0.3494
3930.00,0.3493
3929.00,0.3492
3928.00,0.3492
3927.00,0.3492
3926.00,0.3492
3925.00,0.3491
3924.00,0.3490
3923.00,0.3490
3922.00,0.3490
3921.00,0.3490
3920.00,0.3491
3919.00,0.3492
3918.00,0.3492
3917.00,0.3491
3916.00,0.3491
3915.00,0.3490
3914.00,0.3490
3913.00,0.3489
3912.00,0.3490
3911.00,0.3490
3910.00,0.3489
3909.00,0.3489
3908.00,0.3488
3907.00,0.3488
3906.00,0.3488
3905.00,0.3489
3904.00,0.3489
3903.00,0.3488
3902.00,0.3488
3901.00,0.3489
3900.00,0.3491
3899.00,0.3492
3898.00,0.3491
3897.00,0.3490
3896.00,0.3488
3895.00,0.3486
3894.00,0.3483
3893.00,0.3481
3892.00,0.3480
3891.00,0.3478
3890.00,0.3475
3889.00,0.3473
3888.00,0.3472
3887.00,0.3473
3886.00,0.3473
3885.00,0.3473
3884.00,0.3471
3883.00,0.3471
3882.00,0.3472
3881.00,0.3473
3880.00,0.3472
3879.00,0.3470
3878.00,0.3468
3877.00,0.3467
3876.00,0.3467
3875.00,0.3467
3874.00,0.3465
3873.00,0.3462
3872.00,0.3461
3871.00,0.3463
3870.00,0.3464
3869.00,0.3464
3868.00,0.3463
3867.00,0.3462
3866.00,0.3461
3865.00,0.3461
3864.00,0.3460
3863.00,0.3457
3862.00,0.3455
3861.00,0.3453
3860.00,0.3451
3859.00,0.3448
3858.00,0.3445
3857.00,0.3441
3856.00,0.3438
3855.00,0.3437
3854.00,0.3437
3853.00,0.3438
3852.00,0.3437
3851.00,0.3438
3850.00,0.3441
3849.00,0.3444
3848.00,0.3445
3847.00,0.3444
3846.00,0.3443
3845.00,0.3441
3844.00,0.3440
3843.00,0.3438
3842.00,0.3436
3841.00,0.3435
3840.00,0.3434
3839.00,0.3435
3838.00,0.3436
3837.00,0.3436
3836.00,0.3436
3835.00,0.3436
3834.00,0.3438
3833.00,0.3438
3832.00,0.3438
3831.00,0.3436
3830.00,0.3434
3829.00,0.3432
3828.00,0.3431
3827.00,0.3430
3826.00,0.3428
3825.00,0.3426
3824.00,0.3425
3823.00,0.3426
3822.00,0.3427
3821.00,0.3426
3820.00,0.3421
3819.00,0.3417
3818.00,0.3415
3817.00,0.3415
3816.00,0.3415
3815.00,0.3412
3814.00,0.3408
3813.00,0.3405
3812.00,0.3402
3811.00,0.3400
3810.00,0.3397
3809.00,0.3395
3808.00,0.3394
3807.00,0.3393
3806.00,0.3390
3805.00,0.3388
3804.00,0.3386
3803.00,0.3387
3802.00,0.3387
3801.00,0.3385
3800.00,0.3382
3799.00,0.3380
3798.00,0.3380
3797.00,0.3380
3796.00,0.3379
3795.00,0.3376
3794.00,0.3372
3793.00,0.3370
3792.00,0.3368
3791.00,0.3366
3790.00,0.3364
3789.00,0.3363
3788.00,0.3362
3787.00,0.3360
3786.00,0.3359
3785.00,0.3357
3784.00,0.3355
3783.00,0.3354
3782.00,0.3353
3781.00,0.3352
3780.00,0.3351
3779.00,0.3349
3778.00,0.3345
3777.00,0.3342
3776.00,0.3340
3775.00,0.3338
3774.00,0.3336
3773.00,0.3334
3772.00,0.3332
3771.00,0.3331
3770.00,0.3329
3769.00,0.3328
3768.00,0.3327
3767.00,0.3327
3766.00,0.3327
3765.00,0.3326
3764.00,0.3324
3763.00,0.3322
3762.00,0.3321
3761.00,0.3321
3760.00,0.3320
3759.00,0.3319
3758.00,0.3317
3757.00,0.3314
3756.00,0.3311
3755.00,0.3307
3754.00,0.3304
3753.00,0.3302
3752.00,0.3302
3751.00,0.3302
3750.00,0.3301
3749.00,0.3300
3748.00,0.3299
3747.00,0.3297
3746.00,0.3297
3745.00,0.3297
3744.00,0.3296
3743.00,0.3294
3742.00,0.3292
3741.00,0.3291
3740.00,0.3290
3739.00,0.3289
3738.00,0.3287
3737.00,0.3285
3736.00,0.3284
3735.00,0.3282
3734.00,0.3280
3733.00,0.3279
3732.00,0.3279
3731.00,0.3277
3730.00,0.3275
3729.00,0.3274
3728.00,0.3274
3727.00,0.3274
3726.00,0.3273
3725.00,0.3271
3724.00,0.3269
3723.00,0.3267
3722.00,0.3266
3721.00,0.3265
3720.00,0.3264
3719.00,0.3264
3718.00,0.3263
3717.00,0.3262
3716.00,0.3260
3715.00,0.3259
3714.00,0.3259
3713.00,0.3259
3712.00,0.3260
3711.00,0.3261
3710.00,0.3260
3709.00,0.3260
3708.00,0.3259
3707.00,0.3258
3706.00,0.3256
3705.00,0.3255
3704.00,0.3254
3703.00,0.3254
3702.00,0.3253
3701.00,0.3251
3700.00,0.3249
3699.00,0.3248
3698.00,0.3248
3697.00,0.3249
3696.00,0.3248
3695.00,0.3248
3694.00,0.3247
3693.00,0.3247
3692.00,0.3248
3691.00,0.3248
3690.00,0.3248
3689.00,0.3249
3688.00,0.3250
3687.00,0.3251
3686.00,0.3253
3685.00,0.3255
3684.00,0.3256
3683.00,0.3256
3682.00,0.3255
3681.00,0.3254
3680.00,0.3253
3679.00,0.3250
3678.00,0.3249
3677.00,0.3249
3676.00,0.3250
3675.00,0.3250
3674.00,0.3247
3673.00,0.3246
3672.00,0.3246
3671.00,0.3247
3670.00,0.3248
3669.00,0.3247
3668.00,0.3245
3667.00,0.3244
3666.00,0.3244
3665.00,0.3244
3664.00,0.3244
3663.00,0.3243
3662.00,0.3243
3661.00,0.3243
3660.00,0.3243
3659.00,0.3244
3658.00,0.3246
3657.00,0.3248
3656.00,0.3250
3655.00,0.3251
3654.00,0.3252
3653.00,0.3255
3652.00,0.3258
3651.00,0.3262
3650.00,0.3265
3649.00,0.3269
3648.00,0.3273
3647.00,0.3276
3646.00,0.3280
3645.00,0.3284
3644.00,0.3289
3643.00,0.3293
3642.00,0.3298
3641.00,0.3303
3640.00,0.3309
3639.00,0.3317
3638.00,0.3325
3637.00,0.3333
3636.00,0.3342
3635.00,0.3351
3634.00,0.3360
3633.00,0.3369
3632.00,0.3380
3631.00,0.3397
3630.00,0.3423
3629.00,0.3457
3628.00,0.3493
3627.00,0.3525
3626.00,0.3552
3625.00,0.3571
3624.00,0.3580
3623.00,0.3576
3622.00,0.3561
3621.00,0.3535
3620.00,0.3503
3619.00,0.3467
3618.00,0.3432
3617.00,0.3403
3616.00,0.3380
3615.00,0.3363
3614.00,0.3350
3613.00,0.3340
3612.00,0.3332
3611.00,0.3328
3610.00,0.3326
3609.00,0.3327
3608.00,0.3328
3607.00,0.3328
3606.00,0.3328
3605.00,0.3328
3604.00,0.3327
3603.00,0.3326
3602.00,0.3325
3601.00,0.3322
3600.00,0.3318
3599.00,0.3314
3598.00,0.3308
3597.00,0.3303
3596.00,0.3297
3595.00,0.3290
3594.00,0.3283
3593.00,0.3276
3592.00,0.3271
3591.00,0.3266
3590.00,0.3261
3589.00,0.3258
3588.00,0.3255
3587.00,0.3251
3586.00,0.3248
3585.00,0.3243
3584.00,0.3239
3583.00,0.3235
3582.00,0.3229
3581.00,0.3224
3580.00,0.3218
3579.00,0.3211
3578.00,0.3205
3577.00,0.3199
3576.00,0.3195
3575.00,0.3193
3574.00,0.3191
3573.00,0.3190
3572.00,0.3188
3571.00,0.3186
3570.00,0.3185
3569.00,0.3185
3568.00,0.3185
3567.00,0.3186
3566.00,0.3187
3565.00,0.3188
3564.00,0.3189
3563.00,0.3191
3562.00,0.3192
3561.00,0.3193
3560.00,0.3194
3559.00,0.3195
3558.00,0.3196
3557.00,0.3197
3556.00,0.3198
3555.00,0.3200
3554.00,0.3203
3553.00,0.3206
3552.00,0.3210
3551.00,0.3213
3550.00,0.3216
3549.00,0.3220
3548.00,0.3224
3547.00,0.3229
3546.00,0.3234
3545.00,0.3239
3544.00,0.3244
3543.00,0.3248
3542.00,0.3252
3541.00,0.3257
3540.00,0.3262
3539.00,0.3266
3538.00,0.3271
3537.00,0.3275
3536.00,0.3280
3535.00,0.3285
3534.00,0.3289
3533.00,0.3294
3532.00,0.3300
3531.00,0.3306
3530.00,0.3312
3529.00,0.3318
3528.00,0.3324
3527.00,0.3330
3526.00,0.3336
3525.00,0.3343
3524.00,0.3350
3523.00,0.3357
3522.00,0.3363
3521.00,0.3369
3520.00,0.3376
3519.00,0.3383
3518.00,0.3390
3517.00,0.3398
3516.00,0.3406
3515.00,0.3414
3514.00,0.3421
3513.00,0.3429
3512.00,0.3436
3511.00,0.3444
3510.00,0.3452
3509.00,0.3461
3508.00,0.3469
3507.00,0.3478
3506.00,0.3486
3505.00,0.3496
3504.00,0.3505
3503.00,0.3514
3502.00,0.3524
3501.00,0.3534
3500.00,0.3543
3499.00,0.3553
3498.00,0.3564
3497.00,0.3574
3496.00,0.3585
3495.00,0.3595
3494.00,0.3605
3493.00,0.3616
3492.00,0.3627
3491.00,0.3639
3490.00,0.3650
3489.00,0.3662
3488.00,0.3674
3487.00,0.3685
3486.00,0.3697
3485.00,0.3710
3484.00,0.3722
3483.00,0.3735
3482.00,0.3747
3481.00,0.3759
3480.00,0.3772
3479.00,0.3785
3478.00,0.3798
3477.00,0.3811
3476.00,0.3824
3475.00,0.3836
3474.00,0.3849
3473.00,0.3861
3472.00,0.3874
3471.00,0.3887
3470.00,0.3901
3469.00,0.3915
3468.00,0.3930
3467.00,0.3944
3466.00,0.3959
3465.00,0.3974
3464.00,0.3988
3463.00,0.4003
3462.00,0.4018
3461.00,0.4034
3460.00,0.4050
3459.00,0.4067
3458.00,0.4084
3457.00,0.4100
3456.00,0.4117
3455.00,0.4135
3454.00,0.4153
3453.00,0.4171
3452.00,0.4191
3451.00,0.4210
3450.00,0.4230
3449.00,0.4251
3448.00,0.4272
3447.00,0.4294
3446.00,0.4315
3445.00,0.4337
3444.00,0.4360
3443.00,0.4382
3442.00,0.4405
3441.00,0.4427
3440.00,0.4449
3439.00,0.4470
3438.00,0.4491
3437.00,0.4512
3436.00,0.4534
3435.00,0.4554
3434.00,0.4575
3433.00,0.4596
3432.00,0.4618
3431.00,0.4639
3430.00,0.4660
3429.00,0.4681
3428.00,0.4702
3427.00,0.4722
3426.00,0.4742
3425.00,0.4763
3424.00,0.4784
3423.00,0.4806
3422.00,0.4829
3421.00,0.4851
3420.00,0.4873
3419.00,0.4896
3418.00,0.4918
3417.00,0.4940
3416.00,0.4962
3415.00,0.4985
3414.00,0.5007
3413.00,0.5030
3412.00,0.5053
3411.00,0.5076
3410.00,0.5099
3409.00,0.5121
3408.00,0.5143
3407.00,0.5164
3406.00,0.5185
3405.00,0.5206
3404.00,0.5227
3403.00,0.5248
3402.00,0.5268
3401.00,0.5288
3400.00,0.5307
3399.00,0.5326
3398.00,0.5344
3397.00,0.5362
3396.00,0.5380
3395.00,0.5398
3394.00,0.5416
3393.00,0.5434
3392.00,0.5452
3391.00,0.5469
3390.00,0.5486
3389.00,0.5501
3388.00,0.5517
3387.00,0.5532
3386.00,0.5547
3385.00,0.5562
3384.00,0.5577
3383.00,0.5591
3382.00,0.5605
3381.00,0.5620
3380.00,0.5636
3379.00,0.5652
3378.00,0.5667
3377.00,0.5683
3376.00,0.5698
3375.00,0.5715
3374.00,0.5731
3373.00,0.5748
3372.00,0.5764
3371.00,0.5781
3370.00,0.5797
3369.00,0.5814
3368.00,0.5832
3367.00,0.5849
3366.00,0.5867
3365.00,0.5884
3364.00,0.5902
3363.00,0.5921
3362.00,0.5940
3361.00,0.5960
3360.00,0.5979
3359.00,0.5999
3358.00,0.6020
3357.00,0.6040
3356.00,0.6060
3355.00,0.6080
3354.00,0.6099
3353.00,0.6118
3352.00,0.6137
3351.00,0.6155
3350.00,0.6173
3349.00,0.6192
3348.00,0.6210
3347.00,0.6228
3346.00,0.6245
3345.00,0.6261
3344.00,0.6277
3343.00,0.6293
3342.00,0.6309
3341.00,0.6324
3340.00,0.6339
3339.00,0.6351
3338.00,0.6363
3337.00,0.6374
3336.00,0.6384
3335.00,0.6394
3334.00,0.6402
3333.00,0.6410
3332.00,0.6416
3331.00,0.6422
3330.00,0.6427
3329.00,0.6430
3328.00,0.6432
3327.00,0.6433
3326.00,0.6432
3325.00,0.6430
3324.00,0.6428
3323.00,0.6425
3322.00,0.6421
3321.00,0.6415
3320.00,0.6408
3319.00,0.6398
3318.00,0.6387
3317.00,0.6377
3316.00,0.6366
3315.00,0.6356
3314.00,0.6344
3313.00,0.6332
3312.00,0.6319
3311.00,0.6306
3310.00,0.6294
3309.00,0.6282
3308.00,0.6271
3307.00,0.6258
3306.00,0.6245
3305.00,0.6232
3304.00,0.6221
3303.00,0.6210
3302.00,0.6199
3301.00,0.6189
3300.00,0.6179
3299.00,0.6171
3298.00,0.6163
3297.00,0.6156
3296.00,0.6149
3295.00,0.6143
3294.00,0.6136
3293.00,0.6129
3292.00,0.6122
3291.00,0.6115
3290.00,0.6110
3289.00,0.6105
3288.00,0.6100
3287.00,0.6095
3286.00,0.6091
3285.00,0.6088
3284.00,0.6086
3283.00,0.6085
3282.00,0.6085
3281.00,0.6086
3280.00,0.6088
3279.00,0.6091
3278.00,0.6094
3277.00,0.6095
3276.00,0.6096
3275.00,0.6094
3274.00,0.6093
3273.00,0.6091
3272.00,0.6090
3271.00,0.6088
3270.00,0.6087
3269.00,0.6086
3268.00,0.6086
3267.00,0.6086
3266.00,0.6086
3265.00,0.6087
3264.00,0.6088
3263.00,0.6089
3262.00,0.6090
3261.00,0.6091
3260.00,0.6092
3259.00,0.6092
3258.00,0.6092
3257.00,0.6091
3256.00,0.6091
3255.00,0.6089
3254.00,0.6087
3253.00,0.6085
3252.00,0.6082
3251.00,0.6078
3250.00,0.6074
3249.00,0.6070
3248.00,0.6065
3247.00,0.6059
3246.00,0.6054
3245.00,0.6047
3244.00,0.6040
3243.00,0.6031
3242.00,0.6023
3241.00,0.6014
3240.00,0.6005
3239.00,0.5995
3238.00,0.5986
3237.00,0.5977
3236.00,0.5967
3235.00,0.5956
3234.00,0.5944
3233.00,0.5932
3232.00,0.5920
3231.00,0.5907
3230.00,0.5894
3229.00,0.5881
3228.00,0.5867
3227.00,0.5853
3226.00,0.5839
3225.00,0.5826
3224.00,0.5812
3223.00,0.5798
3222.00,0.5784
3221.00,0.5769
3220.00,0.5753
3219.00,0.5738
3218.00,0.5724
3217.00,0.5710
3216.00,0.5694
3215.00,0.5677
3214.00,0.5661
3213.00,0.5645
3212.00,0.5631
3211.00,0.5616
3210.00,0.5600
3209.00,0.5584
3208.00,0.5569
3207.00,0.5553
3206.00,0.5538
3205.00,0.5524
3204.00,0.5509
3203.00,0.5494
3202.00,0.5479
3201.00,0.5464
3200.00,0.5449
3199.00,0.5434
3198.00,0.5420
3197.00,0.5406
3196.00,0.5392
3195.00,0.5377
3194.00,0.5362
3193.00,0.5347
3192.00,0.5332
3191.00,0.5318
3190.00,0.5303
3189.00,0.5288
3188.00,0.5273
3187.00,0.5259
3186.00,0.5245
3185.00,0.5231
3184.00,0.5218
3183.00,0.5203
3182.00,0.5188
3181.00,0.5172
3180.00,0.5157
3179.00,0.5141
3178.00,0.5126
3177.00,0.5111
3176.00,0.5096
3175.00,0.5081
3174.00,0.5066
3173.00,0.5050
3172.00,0.5034
3171.00,0.5017
3170.00,0.5002
3169.00,0.4986
3168.00,0.4972
3167.00,0.4958
3166.00,0.4944
3165.00,0.4929
3164.00,0.4914
3163.00,0.4900
3162.00,0.4885
3161.00,0.4871
3160.00,0.4858
3159.00,0.4845
3158.00,0.4832
3157.00,0.4820
3156.00,0.4807
3155.00,0.4795
3154.00,0.4783
3153.00,0.4771
3152.00,0.4759
3151.00,0.4747
3150.00,0.4736
3149.00,0.4724
3148.00,0.4712
3147.00,0.4700
3146.00,0.4688
3145.00,0.4676
3144.00,0.4666
3143.00,0.4656
3142.00,0.4646
3141.00,0.4636
3140.00,0.4626
3139.00,0.4616
3138.00,0.4607
3137.00,0.4598
3136.00,0.4589
3135.00,0.4581
3134.00,0.4573
3133.00,0.4566
3132.00,0.4559
3131.00,0.4552
3130.00,0.4546
3129.00,0.4540
3128.00,0.4534
3127.00,0.4529
3126.00,0.4524
3125.00,0.4520
3124.00,0.4517
3123.00,0.4515
3122.00,0.4513
3121.00,0.4511
3120.00,0.4510
3119.00,0.4509
3118.00,0.4508
3117.00,0.4507
3116.00,0.4507
3115.00,0.4506
3114.00,0.4506
3113.00,0.4507
3112.00,0.4509
3111.00,0.4511
3110.00,0.4514
3109.00,0.4517
3108.00,0.4521
3107.00,0.4526
3106.00,0.4532
3105.00,0.4538
3104.00,0.4544
3103.00,0.4550
3102.00,0.4558
3101.00,0.4566
3100.00,0.4574
3099.00,0.4584
3098.00,0.4594
3097.00,0.4604
3096.00,0.4614
3095.00,0.4626
3094.00,0.4638
3093.00,0.4651
3092.00,0.4665
3091.00,0.4679
3090.00,0.4695
3089.00,0.4711
3088.00,0.4728
3087.00,0.4746
3086.00,0.4766
3085.00,0.4786
3084.00,0.4807
3083.00,0.4830
3082.00,0.4853
3081.00,0.4879
3080.00,0.4906
3079.00,0.4936
3078.00,0.4968
3077.00,0.5001
3076.00,0.5036
3075.00,0.5071
3074.00,0.5107
3073.00,0.5145
3072.00,0.5183
3071.00,0.5223
3070.00,0.5263
3069.00,0.5302
3068.00,0.5342
3067.00,0.5381
3066.00,0.5420
3065.00,0.5458
3064.00,0.5494
3063.00,0.5529
3062.00,0.5562
3061.00,0.5593
3060.00,0.5622
3059.00,0.5649
3058.00,0.5676
3057.00,0.5703
3056.00,0.5730
3055.00,0.5757
3054.00,0.5784
3053.00,0.5812
3052.00,0.5840
3051.00,0.5868
3050.00,0.5897
3049.00,0.5927
3048.00,0.5959
3047.00,0.5992
3046.00,0.6026
3045.00,0.6062
3044.00,0.6098
3043.00,0.6136
3042.00,0.6174
3041.00,0.6213
3040.00,0.6252
3039.00,0.6293
3038.00,0.6335
3037.00,0.6379
3036.00,0.6425
3035.00,0.6474
3034.00,0.6527
3033.00,0.6581
3032.00,0.6639
3031.00,0.6698
3030.00,0.6761
3029.00,0.6828
3028.00,0.6898
3027.00,0.6971
3026.00,0.7048
3025.00,0.7130
3024.00,0.7217
3023.00,0.7308
3022.00,0.7404
3021.00,0.7503
3020.00,0.7606
3019.00,0.7712
3018.00,0.7822
3017.00,0.7936
3016.00,0.8052
3015.00,0.8171
3014.00,0.8295
3013.00,0.8422
3012.00,0.8555
3011.00,0.8691
3010.00,0.8834
3009.00,0.8982
3008.00,0.9137
3007.00,0.9300
3006.00,0.9471
3005.00,0.9652
3004.00,0.9840
3003.00,1.0035
3002.00,1.0237
3001.00,1.0450
3000.00,1.0674
2999.00,1.0912
2998.00,1.1168
2997.00,1.1443
2996.00,1.1740
2995.00,1.2062
2994.00,1.2411
2993.00,1.2791
2992.00,1.3206
2991.00,1.3662
2990.00,1.4167
2989.00,1.4730
2988.00,1.5358
2987.00,1.6054
2986.00,1.6823
2985.00,1.7666
2984.00,1.8587
2983.00,1.9598
2982.00,2.0722
2981.00,2.1990
2980.00,2.3418
2979.00,2.4982
2978.00,2.6616
2977.00,2.8225
2976.00,2.9774
2975.00,3.1365
2974.00,3.3154
2973.00,3.5290
2972.00,3.7873
2971.00,4.1771
2970.00,4.6847
2969.00,4.5099
2968.00,4.3063
2967.00,4.2081
2966.00,4.1449
2965.00,3.9754
2964.00,3.8607
2963.00,3.8507
2962.00,3.8810
2961.00,3.9378
2960.00,4.0037
2959.00,4.1386
2958.00,4.2635
2957.00,4.1531
2956.00,3.9451
2955.00,3.7981
2954.00,3.7547
2953.00,3.7986
2952.00,3.9747
2951.00,4.1563
2950.00,4.1031
2949.00,4.0067
2948.00,4.1089
2947.00,4.4225
2946.00,4.1515
2945.00,3.8321
2944.00,3.6616
2943.00,3.6252
2942.00,3.6766
2941.00,3.8081
2940.00,4.1136
2939.00,4.6149
2938.00,4.7927
2937.00,4.3924
2936.00,4.0418
2935.00,3.8521
2934.00,3.7913
2933.00,3.8755
2932.00,4.0829
2931.00,4.1329
2930.00,4.0666
2929.00,4.0339
2928.00,3.9735
2927.00,3.8826
2926.00,3.9029
2925.00,4.1793
2924.00,4.6164
2923.00,4.4036
2922.00,4.0778
2921.00,3.9826
2920.00,4.0341
2919.00,4.1462
2918.00,4.2159
2917.00,4.2325
2916.00,4.3258
2915.00,4.4002
2914.00,4.3009
2913.00,4.1460
2912.00,4.0111
2911.00,3.8829
2910.00,3.7883
2909.00,3.7633
2908.00,3.8332
2907.00,3.9864
2906.00,4.2960
2905.00,4.6425
2904.00,4.2915
2903.00,4.0797
2902.00,4.0396
2901.00,4.2139
2900.00,4.3790
2899.00,4.2115
2898.00,4.0616
2897.00,3.9931
2896.00,4.0586
2895.00,4.1503
2894.00,4.1995
2893.00,4.2991
2892.00,4.4077
2891.00,4.3271
2890.00,4.2239
2889.00,4.2377
2888.00,4.5091
2887.00,5.0465
2886.00,4.5211
2885.00,4.1133
2884.00,3.9077
2883.00,3.8691
2882.00,3.9223
2881.00,4.0330
2880.00,4.1536
2879.00,4.1419
2878.00,4.1100
2877.00,4.1460
2876.00,4.1400
2875.00,4.0191
2874.00,3.9112
2873.00,3.8635
2872.00,3.8153
2871.00,3.7845
2870.00,3.8344
2869.00,4.0190
2868.00,4.2091
2867.00,4.0652
2866.00,3.9190
2865.00,3.9370
2864.00,4.0756
2863.00,4.0822
2862.00,4.0159
2861.00,4.0584
2860.00,4.1881
2859.00,4.3057
2858.00,4.3040
2857.00,4.2061
2856.00,4.0470
2855.00,3.8906
2854.00,3.8099
2853.00,3.8431
2852.00,3.9527
2851.00,4.0707
2850.00,4.2120
2849.00,4.3980
2848.00,4.3900
2847.00,4.1229
2846.00,3.9276
2845.00,3.8661
2844.00,3.9276
2843.00,4.0883
2842.00,4.1710
2841.00,4.1304
2840.00,4.1404
2839.00,4.0365
2838.00,3.7003
2837.00,3.3630
2836.00,3.0945
2835.00,2.8648
2834.00,2.6562
2833.00,2.4700
2832.00,2.3078
2831.00,2.1686
2830.00,2.0481
2829.00,1.9409
2828.00,1.8441
2827.00,1.7567
2826.00,1.6784
2825.00,1.6085
2824.00,1.5455
2823.00,1.4879
2822.00,1.4346
2821.00,1.3852
2820.00,1.3397
2819.00,1.2980
2818.00,1.2598
2817.00,1.2242
2816.00,1.1906
2815.00,1.1590
2814.00,1.1294
2813.00,1.1017
2812.00,1.0756
2811.00,1.0507
2810.00,1.0271
2809.00,1.0045
2808.00,0.9830
2807.00,0.9626
2806.00,0.9430
2805.00,0.9243
2804.00,0.9064
2803.00,0.8894
2802.00,0.8732
2801.00,0.8578
2800.00,0.8430
2799.00,0.8289
2798.00,0.8155
2797.00,0.8026
2796.00,0.7902
2795.00,0.7783
2794.00,0.7670
2793.00,0.7562
2792.00,0.7456
2791.00,0.7352
2790.00,0.7249
2789.00,0.7149
2788.00,0.7052
2787.00,0.6957
2786.00,0.6865
2785.00,0.6774
2784.00,0.6685
2783.00,0.6599
2782.00,0.6516
2781.00,0.6436
2780.00,0.6359
2779.00,0.6285
2778.00,0.6214
2777.00,0.6148
2776.00,0.6085
2775.00,0.6026
2774.00,0.5970
2773.00,0.5918
2772.00,0.5870
2771.00,0.5825
2770.00,0.5784
2769.00,0.5746
2768.00,0.5711
2767.00,0.5680
2766.00,0.5652
2765.00,0.5627
2764.00,0.5605
2763.00,0.5585
2762.00,0.5567
2761.00,0.5551
2760.00,0.5537
2759.00,0.5523
2758.00,0.5509
2757.00,0.5495
2756.00,0.5483
2755.00,0.5473
2754.00,0.5464
2753.00,0.5457
2752.00,0.5452
2751.00,0.5450
2750.00,0.5449
2749.00,0.5452
2748.00,0.5455
2747.00,0.5460
2746.00,0.5467
2745.00,0.5476
2744.00,0.5489
2743.00,0.5504
2742.00,0.5522
2741.00,0.5543
2740.00,0.5567
2739.00,0.5595
2738.00,0.5628
2737.00,0.5666
2736.00,0.5707
2735.00,0.5752
2734.00,0.5798
2733.00,0.5843
2732.00,0.5884
2731.00,0.5917
2730.00,0.5940
2729.00,0.5953
2728.00,0.5956
2727.00,0.5951
2726.00,0.5940
2725.00,0.5925
2724.00,0.5907
2723.00,0.5886
2722.00,0.5863
2721.00,0.5837
2720.00,0.5807
2719.00,0.5774
2718.00,0.5737
2717.00,0.5697
2716.00,0.5655
2715.00,0.5612
2714.00,0.5569
2713.00,0.5527
2712.00,0.5487
2711.00,0.5451
2710.00,0.5418
2709.00,0.5389
2708.00,0.5364
2707.00,0.5342
2706.00,0.5323
2705.00,0.5308
2704.00,0.5296
2703.00,0.5286
2702.00,0.5279
2701.00,0.5273
2700.00,0.5269
2699.00,0.5267
2698.00,0.5267
2697.00,0.5269
2696.00,0.5274
2695.00,0.5279
2694.00,0.5286
2693.00,0.5293
2692.00,0.5302
2691.00,0.5311
2690.00,0.5321
2689.00,0.5330
2688.00,0.5338
2687.00,0.5345
2686.00,0.5350
2685.00,0.5355
2684.00,0.5360
2683.00,0.5363
2682.00,0.5365
2681.00,0.5367
2680.00,0.5369
2679.00,0.5371
2678.00,0.5373
2677.00,0.5376
2676.00,0.5379
2675.00,0.5382
2674.00,0.5384
2673.00,0.5385
2672.00,0.5385
2671.00,0.5382
2670.00,0.5378
2669.00,0.5371
2668.00,0.5361
2667.00,0.5348
2666.00,0.5332
2665.00,0.5316
2664.00,0.5298
2663.00,0.5279
2662.00,0.5259
2661.00,0.5238
2660.00,0.5218
2659.00,0.5198
2658.00,0.5179
2657.00,0.5161
2656.00,0.5143
2655.00,0.5125
2654.00,0.5107
2653.00,0.5090
2652.00,0.5074
2651.00,0.5058
2650.00,0.5042
2649.00,0.5027
2648.00,0.5012
2647.00,0.4999
2646.00,0.4985
2645.00,0.4973
2644.00,0.4960
2643.00,0.4948
2642.00,0.4936
2641.00,0.4925
2640.00,0.4915
2639.00,0.4905
2638.00,0.4896
2637.00,0.4886
2636.00,0.4876
2635.00,0.4866
2634.00,0.4856
2633.00,0.4847
2632.00,0.4837
2631.00,0.4827
2630.00,0.4818
2629.00,0.4808
2628.00,0.4799
2627.00,0.4789
2626.00,0.4778
2625.00,0.4767
2624.00,0.4756
2623.00,0.4745
2622.00,0.4735
2621.00,0.4725
2620.00,0.4715
2619.00,0.4706
2618.00,0.4697
2617.00,0.4687
2616.00,0.4677
2615.00,0.4667
2614.00,0.4658
2613.00,0.4648
2612.00,0.4638
2611.00,0.4628
2610.00,0.4617
2609.00,0.4606
2608.00,0.4595
2607.00,0.4585
2606.00,0.4576
2605.00,0.4567
2604.00,0.4559
2603.00,0.4549
2602.00,0.4539
2601.00,0.4527
2600.00,0.4515
2599.00,0.4503
2598.00,0.4490
2597.00,0.4476
2596.00,0.4461
2595.00,0.4445
2594.00,0.4429
2593.00,0.4412
2592.00,0.4396
2591.00,0.4379
2590.00,0.4362
2589.00,0.4345
2588.00,0.4329
2587.00,0.4313
2586.00,0.4297
2585.00,0.4281
2584.00,0.4264
2583.00,0.4247
2582.00,0.4230
2581.00,0.4213
2580.00,0.4195
2579.00,0.4178
2578.00,0.4160
2577.00,0.4144
2576.00,0.4128
2575.00,0.4114
2574.00,0.4100
2573.00,0.4086
2572.00,0.4072
2571.00,0.4058
2570.00,0.4044
2569.00,0.4031
2568.00,0.4017
2567.00,0.4003
2566.00,0.3989
2565.00,0.3975
2564.00,0.3961
2563.00,0.3946
2562.00,0.3932
2561.00,0.3918
2560.00,0.3904
2559.00,0.3891
2558.00,0.3878
2557.00,0.3866
2556.00,0.3854
2555.00,0.3842
2554.00,0.3831
2553.00,0.3820
2552.00,0.3809
2551.00,0.3798
2550.00,0.3788
2549.00,0.3777
2548.00,0.3768
2547.00,0.3760
2546.00,0.3752
2545.00,0.3744
2544.00,0.3737
2543.00,0.3730
2542.00,0.3723
2541.00,0.3716
2540.00,0.3708
2539.00,0.3702
2538.00,0.3697
2537.00,0.3692
2536.00,0.3688
2535.00,0.3682
2534.00,0.3675
2533.00,0.3668
2532.00,0.3662
2531.00,0.3654
2530.00,0.3646
2529.00,0.3637
2528.00,0.3626
2527.00,0.3615
2526.00,0.3603
2525.00,0.3592
2524.00,0.3580
2523.00,0.3568
2522.00,0.3557
2521.00,0.3546
2520.00,0.3536
2519.00,0.3526
2518.00,0.3516
2517.00,0.3507
2516.00,0.3498
2515.00,0.3490
2514.00,0.3482
2513.00,0.3474
2512.00,0.3468
2511.00,0.3462
2510.00,0.3457
2509.00,0.3452
2508.00,0.3446
2507.00,0.3442
2506.00,0.3437
2505.00,0.3433
2504.00,0.3430
2503.00,0.3427
2502.00,0.3424
2501.00,0.3422
2500.00,0.3419
2499.00,0.3416
2498.00,0.3414
2497.00,0.3411
2496.00,0.3408
2495.00,0.3404
2494.00,0.3399
2493.00,0.3394
2492.00,0.3389
2491.00,0.3384
2490.00,0.3378
2489.00,0.3372
2488.00,0.3366
2487.00,0.3361
2486.00,0.3356
2485.00,0.3351
2484.00,0.3346
2483.00,0.3340
2482.00,0.3335
2481.00,0.3330
2480.00,0.3326
2479.00,0.3322
2478.00,0.3318
2477.00,0.3313
2476.00,0.3309
2475.00,0.3305
2474.00,0.3302
2473.00,0.3300
2472.00,0.3297
2471.00,0.3295
2470.00,0.3292
2469.00,0.3289
2468.00,0.3285
2467.00,0.3282
2466.00,0.3279
2465.00,0.3277
2464.00,0.3275
2463.00,0.3273
2462.00,0.3271
2461.00,0.3268
2460.00,0.3264
2459.00,0.3261
2458.00,0.3258
2457.00,0.3255
2456.00,0.3253
2455.00,0.3250
2454.00,0.3248
2453.00,0.3246
2452.00,0.3244
2451.00,0.3243
2450.00,0.3241
2449.00,0.3240
2448.00,0.3239
2447.00,0.3239
2446.00,0.3239
2445.00,0.3239
2444.00,0.3239
2443.00,0.3240
2442.00,0.3241
2441.00,0.3242
2440.00,0.3243
2439.00,0.3244
2438.00,0.3246
2437.00,0.3248
2436.00,0.3250
2435.00,0.3252
2434.00,0.3254
2433.00,0.3255
2432.00,0.3257
2431.00,0.3259
2430.00,0.3260
2429.00,0.3262
2428.00,0.3263
2427.00,0.3264
2426.00,0.3265
2425.00,0.3267
2424.00,0.3268
2423.00,0.3268
2422.00,0.3268
2421.00,0.3268
2420.00,0.3268
2419.00,0.3268
2418.00,0.3269
2417.00,0.3269
2416.00,0.3269
2415.00,0.3268
2414.00,0.3268
2413.00,0.3267
2412.00,0.3267
2411.00,0.3267
2410.00,0.3266
2409.00,0.3266
2408.00,0.3266
2407.00,0.3266
2406.00,0.3267
2405.00,0.3267
2404.00,0.3267
2403.00,0.3267
2402.00,0.3267
2401.00,0.3267
2400.00,0.3267
2399.00,0.3267
2398.00,0.3267
2397.00,0.3268
2396.00,0.3268
2395.00,0.3268
2394.00,0.3268
2393.00,0.3268
2392.00,0.3269
2391.00,0.3269
2390.00,0.3270
2389.00,0.3271
2388.00,0.3271
2387.00,0.3272
2386.00,0.3273
2385.00,0.3274
2384.00,0.3275
2383.00,0.3275
2382.00,0.3275
2381.00,0.3274
2380.00,0.3274
2379.00,0.3273
2378.00,0.3273
2377.00,0.3274
2376.00,0.3274
2375.00,0.3275
2374.00,0.3275
2373.00,0.3276
2372.00,0.3275
2371.00,0.3274
2370.00,0.3273
2369.00,0.3271
2368.00,0.3271
2367.00,0.3270
2366.00,0.3270
2365.00,0.3269
2364.00,0.3268
2363.00,0.3268
2362.00,0.3269
2361.00,0.3270
2360.00,0.3271
2359.00,0.3271
2358.00,0.3269
2357.00,0.3268
2356.00,0.3268
2355.00,0.3267
2354.00,0.3267
2353.00,0.3266
2352.00,0.3265
2351.00,0.3264
2350.00,0.3263
2349.00,0.3263
2348.00,0.3262
2347.00,0.3260
2346.00,0.3258
2345.00,0.3256
2344.00,0.3256
2343.00,0.3258
2342.00,0.3260
2341.00,0.3260
2340.00,0.3259
2339.00,0.3258
2338.00,0.3257
2337.00,0.3255
2336.00,0.3254
2335.00,0.3252
2334.00,0.3250
2333.00,0.3247
2332.00,0.3243
2331.00,0.3239
2330.00,0.3235
2329.00,0.3232
2328.00,0.3230
2327.00,0.3228
2326.00,0.3225
2325.00,0.3222
2324.00,0.3218
2323.00,0.3215
2322.00,0.3212
2321.00,0.3210
2320.00,0.3208
2319.00,0.3206
2318.00,0.3204
2317.00,0.3203
2316.00,0.3202
2315.00,0.3200
2314.00,0.3197
2313.00,0.3193
2312.00,0.3190
2311.00,0.3186
2310.00,0.3182
2309.00,0.3178
2308.00,0.3174
2307.00,0.3170
2306.00,0.3167
2305.00,0.3164
2304.00,0.3162
2303.00,0.3159
2302.00,0.3156
2301.00,0.3153
2300.00,0.3150
2299.00,0.3147
2298.00,0.3144
2297.00,0.3141
2296.00,0.3139
2295.00,0.3136
2294.00,0.3132
2293.00,0.3129
2292.00,0.3125
2291.00,0.3121
2290.00,0.3117
2289.00,0.3114
2288.00,0.3111
2287.00,0.3108
2286.00,0.3106
2285.00,0.3104
2284.00,0.3101
2283.00,0.3099
2282.00,0.3096
2281.00,0.3093
2280.00,0.3090
2279.00,0.3087
2278.00,0.3084
2277.00,0.3082
2276.00,0.3080
2275.00,0.3078
2274.00,0.3076
2273.00,0.3074
2272.00,0.3073
2271.00,0.3071
2270.00,0.3070
2269.00,0.3069
2268.00,0.3067
2267.00,0.3066
2266.00,0.3064
2265.00,0.3063
2264.00,0.3061
2263.00,0.3059
2262.00,0.3056
2261.00,0.3053
2260.00,0.3050
2259.00,0.3046
2258.00,0.3042
2257.00,0.3038
2256.00,0.3034
2255.00,0.3031
2254.00,0.3027
2253.00,0.3023
2252.00,0.3019
2251.00,0.3015
2250.00,0.3011
2249.00,0.3009
2248.00,0.3006
2247.00,0.3003
2246.00,0.3001
2245.00,0.2998
2244.00,0.2997
2243.00,0.2995
2242.00,0.2994
2241.00,0.2993
2240.00,0.2992
2239.00,0.2992
2238.00,0.2992
2237.00,0.2992
2236.00,0.2991
2235.00,0.2991
2234.00,0.2991
2233.00,0.2991
2232.00,0.2991
2231.00,0.2990
2230.00,0.2990
2229.00,0.2989
2228.00,0.2989
2227.00,0.2987
2226.00,0.2985
2225.00,0.2983
2224.00,0.2981
2223.00,0.2978
2222.00,0.2976
2221.00,0.2974
2220.00,0.2972
2219.00,0.2970
2218.00,0.2968
2217.00,0.2966
2216.00,0.2964
2215.00,0.2962
2214.00,0.2960
2213.00,0.2959
2212.00,0.2958
2211.00,0.2957
2210.00,0.2957
2209.00,0.2957
2208.00,0.2957
2207.00,0.2957
2206.00,0.2957
2205.00,0.2957
2204.00,0.2958
2203.00,0.2959
2202.00,0.2960
2201.00,0.2962
2200.00,0.2963
2199.00,0.2964
2198.00,0.2966
2197.00,0.2968
2196.00,0.2969
2195.00,0.2971
2194.00,0.2972
2193.00,0.2973
2192.00,0.2974
2191.00,0.2974
2190.00,0.2974
2189.00,0.2974
2188.00,0.2974
2187.00,0.2974
2186.00,0.2974
2185.00,0.2973
2184.00,0.2972
2183.00,0.2970
2182.00,0.2968
2181.00,0.2966
2180.00,0.2964
2179.00,0.2962
2178.00,0.2959
2177.00,0.2957
2176.00,0.2956
2175.00,0.2954
2174.00,0.2952
2173.00,0.2951
2172.00,0.2950
2171.00,0.2950
2170.00,0.2950
2169.00,0.2951
2168.00,0.2951
2167.00,0.2951
2166.00,0.2951
2165.00,0.2951
2164.00,0.2951
2163.00,0.2951
2162.00,0.2952
2161.00,0.2952
2160.00,0.2953
2159.00,0.2952
2158.00,0.2952
2157.00,0.2951
2156.00,0.2950
2155.00,0.2949
2154.00,0.2948
2153.00,0.2947
2152.00,0.2946
2151.00,0.2945
2150.00,0.2942
2149.00,0.2940
2148.00,0.2936
2147.00,0.2932
2146.00,0.2926
2145.00,0.2921
2144.00,0.2915
2143.00,0.2907
2142.00,0.2900
2141.00,0.2893
2140.00,0.2887
2139.00,0.2882
2138.00,0.2877
2137.00,0.2874
2136.00,0.2870
2135.00,0.2867
2134.00,0.2864
2133.00,0.2862
2132.00,0.2860
2131.00,0.2859
2130.00,0.2858
2129.00,0.2858
2128.00,0.2858
2127.00,0.2858
2126.00,0.2858
2125.00,0.2858
2124.00,0.2858
2123.00,0.2858
2122.00,0.2858
2121.00,0.2858
2120.00,0.2858
2119.00,0.2858
2118.00,0.2858
2117.00,0.2858
2116.00,0.2858
2115.00,0.2857
2114.00,0.2856
2113.00,0.2854
2112.00,0.2852
2111.00,0.2850
2110.00,0.2848
2109.00,0.2846
2108.00,0.2844
2107.00,0.2842
2106.00,0.2840
2105.00,0.2838
2104.00,0.2836
2103.00,0.2835
2102.00,0.2834
2101.00,0.2834
2100.00,0.2832
2099.00,0.2831
2098.00,0.2830
2097.00,0.2829
2096.00,0.2829
2095.00,0.2829
2094.00,0.2829
2093.00,0.2829
2092.00,0.2829
2091.00,0.2829
2090.00,0.2828
2089.00,0.2828
2088.00,0.2829
2087.00,0.2830
2086.00,0.2831
2085.00,0.2831
2084.00,0.2832
2083.00,0.2834
2082.00,0.2835
2081.00,0.2836
2080.00,0.2837
2079.00,0.2837
2078.00,0.2837
2077.00,0.2837
2076.00,0.2838
2075.00,0.2838
2074.00,0.2837
2073.00,0.2837
2072.00,0.2837
2071.00,0.2836
2070.00,0.2836
2069.00,0.2835
2068.00,0.2835
2067.00,0.2835
2066.00,0.2836
2065.00,0.2836
2064.00,0.2837
2063.00,0.2838
2062.00,0.2838
2061.00,0.2839
2060.00,0.2840
2059.00,0.2841
2058.00,0.2842
2057.00,0.2843
2056.00,0.2845
2055.00,0.2847
2054.00,0.2849
2053.00,0.2852
2052.00,0.2855
2051.00,0.2857
2050.00,0.2860
2049.00,0.2863
2048.00,0.2866
2047.00,0.2869
2046.00,0.2872
2045.00,0.2875
2044.00,0.2878
2043.00,0.2880
2042.00,0.2882
2041.00,0.2884
2040.00,0.2885
2039.00,0.2887
2038.00,0.2888
2037.00,0.2889
2036.00,0.2890
2035.00,0.2891
2034.00,0.2892
2033.00,0.2892
2032.00,0.2892
2031.00,0.2892
2030.00,0.2892
2029.00,0.2892
2028.00,0.2892
2027.00,0.2891
2026.00,0.2890
2025.00,0.2888
2024.00,0.2886
2023.00,0.2884
2022.00,0.2881
2021.00,0.2878
2020.00,0.2874
2019.00,0.2868
2018.00,0.2861
2017.00,0.2854
2016.00,0.2846
2015.00,0.2839
2014.00,0.2833
2013.00,0.2828
2012.00,0.2823
2011.00,0.2819
2010.00,0.2814
2009.00,0.2810
2008.00,0.2806
2007.00,0.2803
2006.00,0.2801
2005.00,0.2799
2004.00,0.2797
2003.00,0.2795
2002.00,0.2794
2001.00,0.2793
2000.00,0.2793
1999.00,0.2792
1998.00,0.2791
1997.00,0.2790
1996.00,0.2789
1995.00,0.2788
1994.00,0.2785
1993.00,0.2783
1992.00,0.2780
1991.00,0.2778
1990.00,0.2776
1989.00,0.2775
1988.00,0.2773
1987.00,0.2772
1986.00,0.2770
1985.00,0.2769
1984.00,0.2768
1983.00,0.2767
1982.00,0.2766
1981.00,0.2765
1980.00,0.2764
1979.00,0.2762
1978.00,0.2761
1977.00,0.2761
1976.00,0.2761
1975.00,0.2761
1974.00,0.2761
1973.00,0.2762
1972.00,0.2763
1971.00,0.2763
1970.00,0.2764
1969.00,0.2764
1968.00,0.2765
1967.00,0.2765
1966.00,0.2766
1965.00,0.2767
1964.00,0.2769
1963.00,0.2771
1962.00,0.2772
1961.00,0.2773
1960.00,0.2775
1959.00,0.2776
1958.00,0.2778
1957.00,0.2780
1956.00,0.2781
1955.00,0.2782
1954.00,0.2784
1953.00,0.2785
1952.00,0.2786
1951.00,0.2786
1950.00,0.2787
1949.00,0.2787
1948.00,0.2787
1947.00,0.2787
1946.00,0.2788
1945.00,0.2788
1944.00,0.2790
1943.00,0.2791
1942.00,0.2793
1941.00,0.2795
1940.00,0.2797
1939.00,0.2799
1938.00,0.2800
1937.00,0.2801
1936.00,0.2801
1935.00,0.2800
1934.00,0.2800
1933.00,0.2799
1932.00,0.2800
1931.00,0.2800
1930.00,0.2802
1929.00,0.2803
1928.00,0.2805
1927.00,0.2807
1926.00,0.2809
1925.00,0.2811
1924.00,0.2814
1923.00,0.2816
1922.00,0.2819
1921.00,0.2823
1920.00,0.2828
1919.00,0.2832
1918.00,0.2835
1917.00,0.2839
1916.00,0.2843
1915.00,0.2846
1914.00,0.2848
1913.00,0.2848
1912.00,0.2849
1911.00,0.2848
1910.00,0.2848
1909.00,0.2847
1908.00,0.2846
1907.00,0.2845
1906.00,0.2843
1905.00,0.2842
1904.00,0.2840
1903.00,0.2838
1902.00,0.2836
1901.00,0.2835
1900.00,0.2835
1899.00,0.2835
1898.00,0.2835
1897.00,0.2835
1896.00,0.2836
1895.00,0.2836
1894.00,0.2837
1893.00,0.2838
1892.00,0.2840
1891.00,0.2841
1890.00,0.2841
1889.00,0.2841
1888.00,0.2841
1887.00,0.2843
1886.00,0.2845
1885.00,0.2847
1884.00,0.2849
1883.00,0.2849
1882.00,0.2850
1881.00,0.2850
1880.00,0.2850
1879.00,0.2850
1878.00,0.2849
1877.00,0.2848
1876.00,0.2847
1875.00,0.2845
1874.00,0.2843
1873.00,0.2842
1872.00,0.2840
1871.00,0.2837
1870.00,0.2832
1869.00,0.2828
1868.00,0.2824
1867.00,0.2820
1866.00,0.2817
1865.00,0.2816
1864.00,0.2814
1863.00,0.2813
1862.00,0.2811
1861.00,0.2809
1860.00,0.2807
1859.00,0.2804
1858.00,0.2801
1857.00,0.2799
1856.00,0.2798
1855.00,0.2796
1854.00,0.2793
1853.00,0.2792
1852.00,0.2790
1851.00,0.2790
1850.00,0.2789
1849.00,0.2789
1848.00,0.2788
1847.00,0.2787
1846.00,0.2784
1845.00,0.2783
1844.00,0.2783
1843.00,0.2784
1842.00,0.2786
1841.00,0.2789
1840.00,0.2790
1839.00,0.2791
1838.00,0.2791
1837.00,0.2792
1836.00,0.2792
1835.00,0.2791
1834.00,0.2791
1833.00,0.2790
1832.00,0.2788
1831.00,0.2786
1830.00,0.2783
1829.00,0.2780
1828.00,0.2779
1827.00,0.2777
1826.00,0.2775
1825.00,0.2774
1824.00,0.2774
1823.00,0.2774
1822.00,0.2774
1821.00,0.2776
1820.00,0.2777
1819.00,0.2778
1818.00,0.2778
1817.00,0.2779
1816.00,0.2779
1815.00,0.2780
1814.00,0.2781
1813.00,0.2781
1812.00,0.2782
1811.00,0.2781
1810.00,0.2781
1809.00,0.2783
1808.00,0.2785
1807.00,0.2788
1806.00,0.2791
1805.00,0.2794
1804.00,0.2797
1803.00,0.2799
1802.00,0.2800
1801.00,0.2802
1800.00,0.2804
1799.00,0.2807
1798.00,0.2811
1797.00,0.2815
1796.00,0.2817
1795.00,0.2818
1794.00,0.2819
1793.00,0.2821
1792.00,0.2824
1791.00,0.2826
1790.00,0.2828
1789.00,0.2831
1788.00,0.2834
1787.00,0.2838
1786.00,0.2840
1785.00,0.2843
1784.00,0.2845
1783.00,0.2848
1782.00,0.2851
1781.00,0.2854
1780.00,0.2857
1779.00,0.2859
1778.00,0.2862
1777.00,0.2866
1776.00,0.2870
1775.00,0.2872
1774.00,0.2873
1773.00,0.2876
1772.00,0.2880
1771.00,0.2884
1770.00,0.2886
1769.00,0.2889
1768.00,0.2892
1767.00,0.2897
1766.00,0.2903
1765.00,0.2909
1764.00,0.2914
1763.00,0.2919
1762.00,0.2924
1761.00,0.2930
1760.00,0.2937
1759.00,0.2943
1758.00,0.2949
1757.00,0.2957
1756.00,0.2965
1755.00,0.2975
1754.00,0.2983
1753.00,0.2993
1752.00,0.3002
1751.00,0.3011
1750.00,0.3018
1749.00,0.3024
1748.00,0.3027
1747.00,0.3031
1746.00,0.3035
1745.00,0.3039
1744.00,0.3043
1743.00,0.3043
1742.00,0.3042
1741.00,0.3042
1740.00,0.3041
1739.00,0.3041
1738.00,0.3040
1737.00,0.3037
1736.00,0.3034
1735.00,0.3031
1734.00,0.3031
1733.00,0.3034
1732.00,0.3037
1731.00,0.3037
1730.00,0.3035
1729.00,0.3034
1728.00,0.3037
1727.00,0.3042
1726.00,0.3047
1725.00,0.3053
1724.00,0.3059
1723.00,0.3064
1722.00,0.3069
1721.00,0.3075
1720.00,0.3080
1719.00,0.3085
1718.00,0.3093
1717.00,0.3103
1716.00,0.3116
1715.00,0.3127
1714.00,0.3138
1713.00,0.3151
1712.00,0.3168
1711.00,0.3186
1710.00,0.3207
1709.00,0.3231
1708.00,0.3257
1707.00,0.3283
1706.00,0.3307
1705.00,0.3328
1704.00,0.3341
1703.00,0.3344
1702.00,0.3337
1701.00,0.3322
1700.00,0.3302
1699.00,0.3283
1698.00,0.3267
1697.00,0.3254
1696.00,0.3242
1695.00,0.3237
1694.00,0.3237
1693.00,0.3240
1692.00,0.3241
1691.00,0.3242
1690.00,0.3247
1689.00,0.3255
1688.00,0.3262
1687.00,0.3267
1686.00,0.3274
1685.00,0.3287
1684.00,0.3301
1683.00,0.3310
1682.00,0.3317
1681.00,0.3323
1680.00,0.3330
1679.00,0.3336
1678.00,0.3343
1677.00,0.3349
1676.00,0.3355
1675.00,0.3361
1674.00,0.3367
1673.00,0.3374
1672.00,0.3381
1671.00,0.3387
1670.00,0.3395
1669.00,0.3407
1668.00,0.3422
1667.00,0.3439
1666.00,0.3455
1665.00,0.3472
1664.00,0.3490
1663.00,0.3507
1662.00,0.3525
1661.00,0.3544
1660.00,0.3564
1659.00,0.3586
1658.00,0.3609
1657.00,0.3635
1656.00,0.3662
1655.00,0.3694
1654.00,0.3748
1653.00,0.3826
1652.00,0.3908
1651.00,0.3970
1650.00,0.4007
1649.00,0.4022
1648.00,0.4021
1647.00,0.4001
1646.00,0.3965
1645.00,0.3926
1644.00,0.3892
1643.00,0.3860
1642.00,0.3831
1641.00,0.3808
1640.00,0.3793
1639.00,0.3784
1638.00,0.3778
1637.00,0.3778
1636.00,0.3787
1635.00,0.3800
1634.00,0.3817
1633.00,0.3837
1632.00,0.3857
1631.00,0.3877
1630.00,0.3901
1629.00,0.3932
1628.00,0.3966
1627.00,0.4000
1626.00,0.4033
1625.00,0.4071
1624.00,0.4116
1623.00,0.4167
1622.00,0.4223
1621.00,0.4286
1620.00,0.4354
1619.00,0.4429
1618.00,0.4521
1617.00,0.4639
1616.00,0.4768
1615.00,0.4887
1614.00,0.4987
1613.00,0.5078
1612.00,0.5169
1611.00,0.5260
1610.00,0.5348
1609.00,0.5436
1608.00,0.5522
1607.00,0.5603
1606.00,0.5680
1605.00,0.5760
1604.00,0.5849
1603.00,0.5951
1602.00,0.6069
1601.00,0.6216
1600.00,0.6400
1599.00,0.6619
1598.00,0.6876
1597.00,0.7179
1596.00,0.7536
1595.00,0.7945
1594.00,0.8411
1593.00,0.8957
1592.00,0.9613
1591.00,1.0400
1590.00,1.1348
1589.00,1.2520
1588.00,1.3993
1587.00,1.5806
1586.00,1.7969
1585.00,2.0580
1584.00,2.3915
1583.00,2.8057
1582.00,3.1556
1581.00,3.4021
1580.00,3.8624
1579.00,3.9140
1578.00,3.4428
1577.00,2.9688
1576.00,2.6046
1575.00,2.2653
1574.00,1.9910
1573.00,1.7868
1572.00,1.6258
1571.00,1.4899
1570.00,1.3814
1569.00,1.3122
1568.00,1.2855
1567.00,1.2962
1566.00,1.3425
1565.00,1.4290
1564.00,1.5578
1563.00,1.7171
1562.00,1.8853
1561.00,2.0477
1560.00,2.1527
1559.00,2.0543
1558.00,1.8262
1557.00,1.6215
1556.00,1.4453
1555.00,1.2799
1554.00,1.1338
1553.00,1.0183
1552.00,0.9300
1551.00,0.8584
1550.00,0.7978
1549.00,0.7491
1548.00,0.7119
1547.00,0.6829
1546.00,0.6583
1545.00,0.6372
1544.00,0.6196
1543.00,0.6045
1542.00,0.5911
1541.00,0.5791
1540.00,0.5684
1539.00,0.5594
1538.00,0.5529
1537.00,0.5487
1536.00,0.5456
1535.00,0.5434
1534.00,0.5427
1533.00,0.5447
1532.00,0.5495
1531.00,0.5562
1530.00,0.5642
1529.00,0.5733
1528.00,0.5823
1527.00,0.5901
1526.00,0.5961
1525.00,0.6012
1524.00,0.6064
1523.00,0.6129
1522.00,0.6220
1521.00,0.6347
1520.00,0.6492
1519.00,0.6637
1518.00,0.6780
1517.00,0.6922
1516.00,0.7042
1515.00,0.7103
1514.00,0.7091
1513.00,0.7015
1512.00,0.6893
1511.00,0.6750
1510.00,0.6612
1509.00,0.6490
1508.00,0.6381
1507.00,0.6279
1506.00,0.6197
1505.00,0.6161
1504.00,0.6162
1503.00,0.6176
1502.00,0.6196
1501.00,0.6230
1500.00,0.6281
1499.00,0.6344
1498.00,0.6424
1497.00,0.6533
1496.00,0.6671
1495.00,0.6826
1494.00,0.6990
1493.00,0.7171
1492.00,0.7386
1491.00,0.7644
1490.00,0.7952
1489.00,0.8311
1488.00,0.8715
1487.00,0.9158
1486.00,0.9633
1485.00,1.0130
1484.00,1.0633
1483.00,1.1130
1482.00,1.1629
1481.00,1.2142
1480.00,1.2668
1479.00,1.3216
1478.00,1.3832
1477.00,1.4576
1476.00,1.5479
1475.00,1.6558
1474.00,1.7914
1473.00,1.9743
1472.00,2.2186
1471.00,2.5176
1470.00,2.8589
1469.00,3.2760
1468.00,3.8350
1467.00,4.0145
1466.00,3.8416
1465.00,3.8277
1464.00,3.7672
1463.00,3.5845
1462.00,3.4992
1461.00,3.5880
1460.00,3.8287
1459.00,3.9504
1458.00,3.9707
1457.00,4.2793
1456.00,4.6669
1455.00,4.5517
1454.00,4.1530
1453.00,3.7967
1452.00,3.6340
1451.00,3.6483
1450.00,3.6331
1449.00,3.6184
1448.00,3.6278
1447.00,3.5227
1446.00,3.3914
1445.00,3.2583
1444.00,3.0645
1443.00,2.8502
1442.00,2.6712
1441.00,2.5230
1440.00,2.3808
1439.00,2.2356
1438.00,2.0911
1437.00,1.9499
1436.00,1.8167
1435.00,1.6973
1434.00,1.5908
1433.00,1.4917
1432.00,1.3972
1431.00,1.3097
1430.00,1.2330
1429.00,1.1693
1428.00,1.1191
1427.00,1.0813
1426.00,1.0535
1425.00,1.0338
1424.00,1.0219
1423.00,1.0176
1422.00,1.0198
1421.00,1.0279
1420.00,1.0424
1419.00,1.0630
1418.00,1.0866
1417.00,1.1102
1416.00,1.1325
1415.00,1.1522
1414.00,1.1677
1413.00,1.1774
1412.00,1.1810
1411.00,1.1780
1410.00,1.1684
1409.00,1.1518
1408.00,1.1282
1407.00,1.0976
1406.00,1.0607
1405.00,1.0199
1404.00,0.9783
1403.00,0.9391
1402.00,0.9036
1401.00,0.8710
1400.00,0.8411
1399.00,0.8151
1398.00,0.7943
1397.00,0.7784
1396.00,0.7663
1395.00,0.7572
1394.00,0.7514
1393.00,0.7507
1392.00,0.7573
1391.00,0.7733
1390.00,0.8009
1389.00,0.8427
1388.00,0.9022
1387.00,0.9800
1386.00,1.0719
1385.00,1.1717
1384.00,1.2778
1383.00,1.3932
1382.00,1.5218
1381.00,1.6672
1380.00,1.8304
1379.00,1.9984
1378.00,2.1298
1377.00,2.1726
1376.00,2.1153
1375.00,1.9891
1374.00,1.8376
1373.00,1.6964
1372.00,1.5820
1371.00,1.4957
1370.00,1.4347
1369.00,1.3966
1368.00,1.3761
1367.00,1.3613
1366.00,1.3360
1365.00,1.2886
1364.00,1.2203
1363.00,1.1433
1362.00,1.0715
1361.00,1.0132
1360.00,0.9694
1359.00,0.9374
1358.00,0.9148
1357.00,0.8997
1356.00,0.8913
1355.00,0.8882
1354.00,0.8887
1353.00,0.8912
1352.00,0.8939
1351.00,0.8956
1350.00,0.8956
1349.00,0.8941
1348.00,0.8919
1347.00,0.8899
1346.00,0.8885
1345.00,0.8876
1344.00,0.8867
1343.00,0.8851
1342.00,0.8816
1341.00,0.8753
1340.00,0.8656
1339.00,0.8521
1338.00,0.8348
1337.00,0.8146
1336.00,0.7928
1335.00,0.7708
1334.00,0.7500
1333.00,0.7315
1332.00,0.7161
1331.00,0.7042
1330.00,0.6956
1329.00,0.6902
1328.00,0.6873
1327.00,0.6863
1326.00,0.6867
1325.00,0.6876
1324.00,0.6886
1323.00,0.6893
1322.00,0.6896
1321.00,0.6896
1320.00,0.6900
1319.00,0.6914
1318.00,0.6944
1317.00,0.6994
1316.00,0.7062
1315.00,0.7147
1314.00,0.7245
1313.00,0.7353
1312.00,0.7464
1311.00,0.7568
1310.00,0.7651
1309.00,0.7704
1308.00,0.7726
1307.00,0.7721
1306.00,0.7697
1305.00,0.7655
1304.00,0.7600
1303.00,0.7536
1302.00,0.7472
1301.00,0.7416
1300.00,0.7371
1299.00,0.7341
1298.00,0.7319
1297.00,0.7305
1296.00,0.7299
1295.00,0.7301
1294.00,0.7311
1293.00,0.7323
1292.00,0.7331
1291.00,0.7329
1290.00,0.7314
1289.00,0.7285
1288.00,0.7240
1287.00,0.7175
1286.00,0.7084
1285.00,0.6967
1284.00,0.6830
1283.00,0.6690
1282.00,0.6559
1281.00,0.6448
1280.00,0.6359
1279.00,0.6289
1278.00,0.6233
1277.00,0.6187
1276.00,0.6150
1275.00,0.6123
1274.00,0.6110
1273.00,0.6111
1272.00,0.6128
1271.00,0.6156
1270.00,0.6190
1269.00,0.6218
1268.00,0.6226
1267.00,0.6205
1266.00,0.6160
1265.00,0.6105
1264.00,0.6057
1263.00,0.6028
1262.00,0.6017
1261.00,0.6024
1260.00,0.6043
1259.00,0.6074
1258.00,0.6111
1257.00,0.6150
1256.00,0.6186
1255.00,0.6219
1254.00,0.6244
1253.00,0.6256
1252.00,0.6252
1251.00,0.6226
1250.00,0.6176
1249.00,0.6107
1248.00,0.6027
1247.00,0.5943
1246.00,0.5858
1245.00,0.5773
1244.00,0.5686
1243.00,0.5598
1242.00,0.5510
1241.00,0.5428
1240.00,0.5356
1239.00,0.5301
1238.00,0.5263
1237.00,0.5242
1236.00,0.5238
1235.00,0.5253
1234.00,0.5287
1233.00,0.5342
1232.00,0.5417
1231.00,0.5510
1230.00,0.5617
1229.00,0.5730
1228.00,0.5845
1227.00,0.5959
1226.00,0.6063
1225.00,0.6150
1224.00,0.6208
1223.00,0.6230
1222.00,0.6213
1221.00,0.6162
1220.00,0.6090
1219.00,0.6011
1218.00,0.5938
1217.00,0.5877
1216.00,0.5831
1215.00,0.5796
1214.00,0.5761
1213.00,0.5713
1212.00,0.5643
1211.00,0.5553
1210.00,0.5449
1209.00,0.5339
1208.00,0.5231
1207.00,0.5130
1206.00,0.5042
1205.00,0.4966
1204.00,0.4905
1203.00,0.4860
1202.00,0.4832
1201.00,0.4821
1200.00,0.4826
1199.00,0.4847
1198.00,0.4879
1197.00,0.4919
1196.00,0.4965
1195.00,0.5020
1194.00,0.5083
1193.00,0.5153
1192.00,0.5223
1191.00,0.5284
1190.00,0.5328
1189.00,0.5351
1188.00,0.5356
1187.00,0.5348
1186.00,0.5331
1185.00,0.5311
1184.00,0.5290
1183.00,0.5270
1182.00,0.5249
1181.00,0.5222
1180.00,0.5188
1179.00,0.5149
1178.00,0.5107
1177.00,0.5064
1176.00,0.5024
1175.00,0.4994
1174.00,0.4977
1173.00,0.4972
1172.00,0.4975
1171.00,0.4979
1170.00,0.4972
1169.00,0.4950
1168.00,0.4913
1167.00,0.4870
1166.00,0.4831
1165.00,0.4801
1164.00,0.4782
1163.00,0.4775
1162.00,0.4780
1161.00,0.4793
1160.00,0.4814
1159.00,0.4842
1158.00,0.4876
1157.00,0.4914
1156.00,0.4955
1155.00,0.4998
1154.00,0.5044
1153.00,0.5094
1152.00,0.5147
1151.00,0.5202
1150.00,0.5256
1149.00,0.5305
1148.00,0.5350
1147.00,0.5392
1146.00,0.5436
1145.00,0.5483
1144.00,0.5536
1143.00,0.5595
1142.00,0.5661
1141.00,0.5735
1140.00,0.5819
1139.00,0.5916
1138.00,0.6026
1137.00,0.6148
1136.00,0.6276
1135.00,0.6392
1134.00,0.6468
1133.00,0.6476
1132.00,0.6401
1131.00,0.6257
1130.00,0.6071
1129.00,0.5880
1128.00,0.5708
1127.00,0.5571
1126.00,0.5470
1125.00,0.5401
1124.00,0.5356
1123.00,0.5329
1122.00,0.5314
1121.00,0.5312
1120.00,0.5327
1119.00,0.5372
1118.00,0.5454
1117.00,0.5574
1116.00,0.5721
1115.00,0.5866
1114.00,0.5964
1113.00,0.5976
1112.00,0.5889
1111.00,0.5729
1110.00,0.5536
1109.00,0.5347
1108.00,0.5186
1107.00,0.5063
1106.00,0.4979
1105.00,0.4929
1104.00,0.4908
1103.00,0.4907
1102.00,0.4921
1101.00,0.4944
1100.00,0.4971
1099.00,0.5000
1098.00,0.5024
1097.00,0.5038
1096.00,0.5041
1095.00,0.5033
1094.00,0.5019
1093.00,0.5002
1092.00,0.4989
1091.00,0.4984
1090.00,0.4991
1089.00,0.5011
1088.00,0.5045
1087.00,0.5097
1086.00,0.5167
1085.00,0.5255
1084.00,0.5359
1083.00,0.5477
1082.00,0.5603
1081.00,0.5730
1080.00,0.5848
1079.00,0.5944
1078.00,0.6004
1077.00,0.6015
1076.00,0.5977
1075.00,0.5895
1074.00,0.5783
1073.00,0.5659
1072.00,0.5538
1071.00,0.5433
1070.00,0.5346
1069.00,0.5276
1068.00,0.5220
1067.00,0.5174
1066.00,0.5135
1065.00,0.5101
1064.00,0.5073
1063.00,0.5053
1062.00,0.5041
1061.00,0.5033
1060.00,0.5024
1059.00,0.5012
1058.00,0.4993
1057.00,0.4966
1056.00,0.4930
1055.00,0.4888
1054.00,0.4843
1053.00,0.4800
1052.00,0.4764
1051.00,0.4740
1050.00,0.4730
1049.00,0.4729
1048.00,0.4733
1047.00,0.4739
1046.00,0.4743
1045.00,0.4740
1044.00,0.4730
1043.00,0.4718
1042.00,0.4709
1041.00,0.4706
1040.00,0.4708
1039.00,0.4712
1038.00,0.4715
1037.00,0.4718
1036.00,0.4726
1035.00,0.4745
1034.00,0.4780
1033.00,0.4833
1032.00,0.4904
1031.00,0.4987
1030.00,0.5072
1029.00,0.5146
1028.00,0.5194
1027.00,0.5208
1026.00,0.5184
1025.00,0.5129
1024.00,0.5057
1023.00,0.4985
1022.00,0.4925
1021.00,0.4881
1020.00,0.4850
1019.00,0.4830
1018.00,0.4816
1017.00,0.4803
1016.00,0.4787
1015.00,0.4767
1014.00,0.4746
1013.00,0.4729
1012.00,0.4720
1011.00,0.4719
1010.00,0.4726
1009.00,0.4741
1008.00,0.4763
1007.00,0.4794
1006.00,0.4831
1005.00,0.4873
1004.00,0.4916
1003.00,0.4960
1002.00,0.5000
1001.00,0.5032
1000.00,0.5054
999.00,0.5062
998.00,0.5055
997.00,0.5032
996.00,0.4998
995.00,0.4960
994.00,0.4924
993.00,0.4891
992.00,0.4861
991.00,0.4834
990.00,0.4814
989.00,0.4802
988.00,0.4801
987.00,0.4809
986.00,0.4821
985.00,0.4832
984.00,0.4839
983.00,0.4840
982.00,0.4835
981.00,0.4826
980.00,0.4812
979.00,0.4794
978.00,0.4774
977.00,0.4750
976.00,0.4724
975.00,0.4696
974.00,0.4665
973.00,0.4635
972.00,0.4607
971.00,0.4583
970.00,0.4563
969.00,0.4549
968.00,0.4539
967.00,0.4533
966.00,0.4529
965.00,0.4522
964.00,0.4511
963.00,0.4498
962.00,0.4483
961.00,0.4468
960.00,0.4455
959.00,0.4449
958.00,0.4450
957.00,0.4458
956.00,0.4469
955.00,0.4479
954.00,0.4486
953.00,0.4491
952.00,0.4497
951.00,0.4510
950.00,0.4531
949.00,0.4561
948.00,0.4600
947.00,0.4645
946.00,0.4692
945.00,0.4739
944.00,0.4780
943.00,0.4812
942.00,0.4834
941.00,0.4843
940.00,0.4840
939.00,0.4828
938.00,0.4806
937.00,0.4776
936.00,0.4740
935.00,0.4703
934.00,0.4668
933.00,0.4637
932.00,0.4611
931.00,0.4591
930.00,0.4575
929.00,0.4561
928.00,0.4549
927.00,0.4544
926.00,0.4558
925.00,0.4597
924.00,0.4666
923.00,0.4758
922.00,0.4855
921.00,0.4930
920.00,0.4956
919.00,0.4918
918.00,0.4822
917.00,0.4687
916.00,0.4536
915.00,0.4389
914.00,0.4256
913.00,0.4145
912.00,0.4057
911.00,0.3991
910.00,0.3943
909.00,0.3907
908.00,0.3878
907.00,0.3853
906.00,0.3832
905.00,0.3812
904.00,0.3796
903.00,0.3786
902.00,0.3784
901.00,0.3791
900.00,0.3806
899.00,0.3828
898.00,0.3856
897.00,0.3889
896.00,0.3930
895.00,0.3977
894.00,0.4028
893.00,0.4081
892.00,0.4132
891.00,0.4180
890.00,0.4219
889.00,0.4244
888.00,0.4248
887.00,0.4229
886.00,0.4189
885.00,0.4135
884.00,0.4079
883.00,0.4034
882.00,0.4004
881.00,0.3990
880.00,0.3987
879.00,0.3989
878.00,0.3992
877.00,0.3995
876.00,0.3998
875.00,0.4006
874.00,0.4019
873.00,0.4036
872.00,0.4056
871.00,0.4079
870.00,0.4107
869.00,0.4141
868.00,0.4187
867.00,0.4250
866.00,0.4333
865.00,0.4432
864.00,0.4539
863.00,0.4636
862.00,0.4702
861.00,0.4716
860.00,0.4669
859.00,0.4575
858.00,0.4454
857.00,0.4331
856.00,0.4221
855.00,0.4132
854.00,0.4066
853.00,0.4018
852.00,0.3984
851.00,0.3963
850.00,0.3949
849.00,0.3938
848.00,0.3930
847.00,0.3924
846.00,0.3923
845.00,0.3928
844.00,0.3939
843.00,0.3961
842.00,0.4002
841.00,0.4070
840.00,0.4177
839.00,0.4327
838.00,0.4509
837.00,0.4691
836.00,0.4824
835.00,0.4868
834.00,0.4811
833.00,0.4679
832.00,0.4521
831.00,0.4379
830.00,0.4276
829.00,0.4215
828.00,0.4189
827.00,0.4188
826.00,0.4207
825.00,0.4239
824.00,0.4277
823.00,0.4312
822.00,0.4339
821.00,0.4354
820.00,0.4358
819.00,0.4358
818.00,0.4356
817.00,0.4356
816.00,0.4357
815.00,0.4355
814.00,0.4346
813.00,0.4326
812.00,0.4296
811.00,0.4261
810.00,0.4223
809.00,0.4186
808.00,0.4155
807.00,0.4131
806.00,0.4111
805.00,0.4089
804.00,0.4065
803.00,0.4043
802.00,0.4033
801.00,0.4041
800.00,0.4071
799.00,0.4118
798.00,0.4173
797.00,0.4227
796.00,0.4275
795.00,0.4323
794.00,0.4379
793.00,0.4446
792.00,0.4517
791.00,0.4580
790.00,0.4617
789.00,0.4616
788.00,0.4578
787.00,0.4515
786.00,0.4444
785.00,0.4381
784.00,0.4340
783.00,0.4329
782.00,0.4351
781.00,0.4405
780.00,0.4485
779.00,0.4582
778.00,0.4680
777.00,0.4763
776.00,0.4817
775.00,0.4837
774.00,0.4830
773.00,0.4802
772.00,0.4762
771.00,0.4716
770.00,0.4672
769.00,0.4639
768.00,0.4623
767.00,0.4625
766.00,0.4642
765.00,0.4672
764.00,0.4711
763.00,0.4759
762.00,0.4816
761.00,0.4879
760.00,0.4942
759.00,0.4994
758.00,0.5025
757.00,0.5030
756.00,0.5018
755.00,0.5002
754.00,0.4997
753.00,0.5010
752.00,0.5041
751.00,0.5084
750.00,0.5134
749.00,0.5191
748.00,0.5252
747.00,0.5319
746.00,0.5395
745.00,0.5479
744.00,0.5573
743.00,0.5675
742.00,0.5782
741.00,0.5891
740.00,0.5999
739.00,0.6103
738.00,0.6204
737.00,0.6302
736.00,0.6399
735.00,0.6494
734.00,0.6584
733.00,0.6669
732.00,0.6759
731.00,0.6870
730.00,0.7018
729.00,0.7215
728.00,0.7475
727.00,0.7817
726.00,0.8248
725.00,0.8748
724.00,0.9247
723.00,0.9626
722.00,0.9746
721.00,0.9533
720.00,0.9046
719.00,0.8435
718.00,0.7830
717.00,0.7301
716.00,0.6872
715.00,0.6539
714.00,0.6284
713.00,0.6081
712.00,0.5910
711.00,0.5763
710.00,0.5635
709.00,0.5522
708.00,0.5420
707.00,0.5328
706.00,0.5242
705.00,0.5159
704.00,0.5077
703.00,0.5001
702.00,0.4934
701.00,0.4873
700.00,0.4808
699.00,0.4733
698.00,0.4642
697.00,0.4537
696.00,0.4428
695.00,0.4329
694.00,0.4246
693.00,0.4180
692.00,0.4126
691.00,0.4081
690.00,0.4043
689.00,0.4008
688.00,0.3976
687.00,0.3950
686.00,0.3930
685.00,0.3911
684.00,0.3894
683.00,0.3881
682.00,0.3874
681.00,0.3871
680.00,0.3867
679.00,0.3861
678.00,0.3853
677.00,0.3845
676.00,0.3836
675.00,0.3829
674.00,0.3823
673.00,0.3818
672.00,0.3813
671.00,0.3811
670.00,0.3811
669.00,0.3813
668.00,0.3814
667.00,0.3815
666.00,0.3818
665.00,0.3822
664.00,0.3829
663.00,0.3839
662.00,0.3850
661.00,0.3860
660.00,0.3868
659.00,0.3874
658.00,0.3880
657.00,0.3887
656.00,0.3896
655.00,0.3906
654.00,0.3913
653.00,0.3916
652.00,0.3916
651.00,0.3916
650.00,0.3921
649.00,0.3930
648.00,0.3942
647.00,0.3953
646.00,0.3963
645.00,0.3974
644.00,0.3985
643.00,0.3999
642.00,0.4014
641.00,0.4029
640.00,0.4042
639.00,0.4054
638.00,0.4063
637.00,0.4070
636.00,0.4075
635.00,0.4077
634.00,0.4076
633.00,0.4073
632.00,0.4072
631.00,0.4076
630.00,0.4086
629.00,0.4101
628.00,0.4120
627.00,0.4144
626.00,0.4176
625.00,0.4211
624.00,0.4246
623.00,0.4277
622.00,0.4302
621.00,0.4323
620.00,0.4342
619.00,0.4360
618.00,0.4374
617.00,0.4381
616.00,0.4381
615.00,0.4377
614.00,0.4372
613.00,0.4367
612.00,0.4359
611.00,0.4346
610.00,0.4328
609.00,0.4307
608.00,0.4285
607.00,0.4266
606.00,0.4248
605.00,0.4231
604.00,0.4214
603.00,0.4200
602.00,0.4193
601.00,0.4193
600.00,0.4199
599.00,0.4207
598.00,0.4216
597.00,0.4228
596.00,0.4242
595.00,0.4261
594.00,0.4283
593.00,0.4307
592.00,0.4331
591.00,0.4358
590.00,0.4389
589.00,0.4426
588.00,0.4467
587.00,0.4509
586.00,0.4548
585.00,0.4583
584.00,0.4611
583.00,0.4633
582.00,0.4650
581.00,0.4666
580.00,0.4686
579.00,0.4710
578.00,0.4740
577.00,0.4771
576.00,0.4805
575.00,0.4840
574.00,0.4877
573.00,0.4916
572.00,0.4960
571.00,0.5009
570.00,0.5063
569.00,0.5118
568.00,0.5171
567.00,0.5221
566.00,0.5267
565.00,0.5309
564.00,0.5347
563.00,0.5378
562.00,0.5405
561.00,0.5430
560.00,0.5451
559.00,0.5464
558.00,0.5468
557.00,0.5468
556.00,0.5469
555.00,0.5475
554.00,0.5491
553.00,0.5514
552.00,0.5543
551.00,0.5569
550.00,0.5588
