Created as New Dataset,
cm-1,A
4000.00,0.3859
3999.00,0.3860
3998.00,0.3860
3997.00,0.3860
3996.00,0.3859
3995.00,0.3858
3994.00,0.3856
3993.00,0.3854
3992.00,0.3851
3991.00,0.3848
3990.00,0.3844
3989.00,0.3839
3988.00,0.3834
3987.00,0.3829
3986.00,0.3824
3985.00,0.3819
3984.00,0.3815
3983.00,0.3810
3982.00,0.3806
3981.00,0.3802
3980.00,0.3797
3979.00,0.3792
3978.00,0.3788
3977.00,0.3783
3976.00,0.3780
3975.00,0.3777
3974.00,0.3774
3973.00,0.3771
3972.00,0.3768
3971.00,0.3765
3970.00,0.3761
3969.00,0.3757
3968.00,0.3754
3967.00,0.3750
3966.00,0.3745
3965.00,0.3741
3964.00,0.3736
3963.00,0.3732
3962.00,0.3727
3961.00,0.3722
3960.00,0.3718
3959.00,0.3713
3958.00,0.3708
3957.00,0.3704
3956.00,0.3701
3955.00,0.3697
3954.00,0.3694
3953.00,0.3691
3952.00,0.3688
3951.00,0.3686
3950.00,0.3683
3949.00,0.3680
3948.00,0.3677
3947.00,0.3674
3946.00,0.3671
3945.00,0.3668
3944.00,0.3665
3943.00,0.3662
3942.00,0.3660
3941.00,0.3658
3940.00,0.3657
3939.00,0.3655
3938.00,0.3654
3937.00,0.3652
3936.00,0.3651
3935.00,0.3650
3934.00,0.3649
3933.00,0.3648
3932.00,0.3648
3931.00,0.3647
3930.00,0.3647
3929.00,0.3647
3928.00,0.3647
3927.00,0.3647
3926.00,0.3646
3925.00,0.3645
3924.00,0.3644
3923.00,0.3644
3922.00,0.3643
3921.00,0.3643
3920.00,0.3643
3919.00,0.3643
3918.00,0.3643
3917.00,0.3643
3916.00,0.3643
3915.00,0.3642
3914.00,0.3641
3913.00,0.3639
3912.00,0.3638
3911.00,0.3637
3910.00,0.3636
3909.00,0.3635
3908.00,0.3634
3907.00,0.3634
3906.00,0.3633
3905.00,0.3633
3904.00,0.3633
3903.00,0.3633
3902.00,0.3633
3901.00,0.3632
3900.00,0.3631
3899.00,0.3630
3898.00,0.3628
3897.00,0.3626
3896.00,0.3624
3895.00,0.3622
3894.00,0.3620
3893.00,0.3618
3892.00,0.3616
3891.00,0.3614
3890.00,0.3613
3889.00,0.3611
3888.00,0.3610
3887.00,0.3609
3886.00,0.3608
3885.00,0.3607
3884.00,0.3606
3883.00,0.3605
3882.00,0.3604
3881.00,0.3604
3880.00,0.3604
3879.00,0.3604
3878.00,0.3603
3877.00,0.3603
3876.00,0.3603
3875.00,0.3603
3874.00,0.3603
3873.00,0.3604
3872.00,0.3604
3871.00,0.3603
3870.00,0.3603
3869.00,0.3602
3868.00,0.3601
3867.00,0.3600
3866.00,0.3598
3865.00,0.3596
3864.00,0.3594
3863.00,0.3592
3862.00,0.3589
3861.00,0.3588
3860.00,0.3587
3859.00,0.3587
3858.00,0.3588
3857.00,0.3587
3856.00,0.3586
3855.00,0.3585
3854.00,0.3584
3853.00,0.3584
3852.00,0.3584
3851.00,0.3583
3850.00,0.3582
3849.00,0.3580
3848.00,0.3579
3847.00,0.3578
3846.00,0.3578
3845.00,0.3577
3844.00,0.3576
3843.00,0.3575
3842.00,0.3575
3841.00,0.3576
3840.00,0.3576
3839.00,0.3577
3838.00,0.3577
3837.00,0.3577
3836.00,0.3577
3835.00,0.3576
3834.00,0.3574
3833.00,0.3572
3832.00,0.3570
3831.00,0.3568
3830.00,0.3565
3829.00,0.3563
3828.00,0.3562
3827.00,0.3560
3826.00,0.3558
3825.00,0.3557
3824.00,0.3556
3823.00,0.3555
3822.00,0.3555
3821.00,0.3554
3820.00,0.3552
3819.00,0.3549
3818.00,0.3546
3817.00,0.3543
3816.00,0.3540
3815.00,0.3538
3814.00,0.3535
3813.00,0.3531
3812.00,0.3528
3811.00,0.3526
3810.00,0.3525
3809.00,0.3523
3808.00,0.3522
3807.00,0.3521
3806.00,0.3520
3805.00,0.3520
3804.00,0.3520
3803.00,0.3520
3802.00,0.3519
3801.00,0.3519
3800.00,0.3517
3799.00,0.3515
3798.00,0.3513
3797.00,0.3511
3796.00,0.3509
3795.00,0.3507
3794.00,0.3505
3793.00,0.3503
3792.00,0.3500
3791.00,0.3498
3790.00,0.3496
3789.00,0.3494
3788.00,0.3492
3787.00,0.3491
3786.00,0.3490
3785.00,0.3490
3784.00,0.3490
3783.00,0.3490
3782.00,0.3490
3781.00,0.3491
3780.00,0.3491
3779.00,0.3490
3778.00,0.3489
3777.00,0.3489
3776.00,0.3488
3775.00,0.3489
3774.00,0.3489
3773.00,0.3490
3772.00,0.3490
3771.00,0.3490
3770.00,0.3490
3769.00,0.3490
3768.00,0.3490
3767.00,0.3489
3766.00,0.3488
3765.00,0.3488
3764.00,0.3488
3763.00,0.3487
3762.00,0.3486
3761.00,0.3486
3760.00,0.3486
3759.00,0.3485
3758.00,0.3484
3757.00,0.3482
3756.00,0.3481
3755.00,0.3479
3754.00,0.3479
3753.00,0.3478
3752.00,0.3478
3751.00,0.3477
3750.00,0.3478
3749.00,0.3478
3748.00,0.3478
3747.00,0.3477
3746.00,0.3475
3745.00,0.3474
3744.00,0.3473
3743.00,0.3471
3742.00,0.3469
3741.00,0.3468
3740.00,0.3467
3739.00,0.3467
3738.00,0.3466
3737.00,0.3465
3736.00,0.3464
3735.00,0.3463
3734.00,0.3463
3733.00,0.3463
3732.00,0.3462
3731.00,0.3461
3730.00,0.3459
3729.00,0.3457
3728.00,0.3455
3727.00,0.3453
3726.00,0.3451
3725.00,0.3449
3724.00,0.3447
3723.00,0.3445
3722.00,0.3444
3721.00,0.3443
3720.00,0.3442
3719.00,0.3442
3718.00,0.3442
3717.00,0.3442
3716.00,0.3442
3715.00,0.3443
3714.00,0.3443
3713.00,0.3444
3712.00,0.3446
3711.00,0.3447
3710.00,0.3448
3709.00,0.3448
3708.00,0.3448
3707.00,0.3448
3706.00,0.3448
3705.00,0.3448
3704.00,0.3448
3703.00,0.3448
3702.00,0.3448
3701.00,0.3449
3700.00,0.3450
3699.00,0.3451
3698.00,0.3451
3697.00,0.3453
3696.00,0.3454
3695.00,0.3456
3694.00,0.3458
3693.00,0.3459
3692.00,0.3461
3691.00,0.3462
3690.00,0.3463
3689.00,0.3464
3688.00,0.3465
3687.00,0.3465
3686.00,0.3465
3685.00,0.3465
3684.00,0.3464
3683.00,0.3464
3682.00,0.3463
3681.00,0.3463
3680.00,0.3462
3679.00,0.3462
3678.00,0.3462
3677.00,0.3462
3676.00,0.3462
3675.00,0.3463
3674.00,0.3464
3673.00,0.3464
3672.00,0.3465
3671.00,0.3466
3670.00,0.3466
3669.00,0.3466
3668.00,0.3465
3667.00,0.3464
3666.00,0.3463
3665.00,0.3463
3664.00,0.3464
3663.00,0.3464
3662.00,0.3465
3661.00,0.3468
3660.00,0.3470
3659.00,0.3474
3658.00,0.3477
3657.00,0.3480
3656.00,0.3484
3655.00,0.3487
3654.00,0.3491
3653.00,0.3495
3652.00,0.3499
3651.00,0.3504
3650.00,0.3508
3649.00,0.3511
3648.00,0.3513
3647.00,0.3516
3646.00,0.3518
3645.00,0.3520
3644.00,0.3522
3643.00,0.3524
3642.00,0.3527
3641.00,0.3531
3640.00,0.3535
3639.00,0.3540
3638.00,0.3546
3637.00,0.3552
3636.00,0.3557
3635.00,0.3563
3634.00,0.3569
3633.00,0.3576
3632.00,0.3583
3631.00,0.3592
3630.00,0.3604
3629.00,0.3620
3628.00,0.3637
3627.00,0.3652
3626.00,0.3663
3625.00,0.3670
3624.00,0.3673
3623.00,0.3670
3622.00,0.3663
3621.00,0.3651
3620.00,0.3636
3619.00,0.3620
3618.00,0.3606
3617.00,0.3595
3616.00,0.3586
3615.00,0.3581
3614.00,0.3577
3613.00,0.3575
3612.00,0.3574
3611.00,0.3574
3610.00,0.3576
3609.00,0.3578
3608.00,0.3580
3607.00,0.3581
3606.00,0.3581
3605.00,0.3580
3604.00,0.3577
3603.00,0.3572
3602.00,0.3565
3601.00,0.3557
3600.00,0.3547
3599.00,0.3536
3598.00,0.3526
3597.00,0.3516
3596.00,0.3506
3595.00,0.3496
3594.00,0.3486
3593.00,0.3478
3592.00,0.3471
3591.00,0.3465
3590.00,0.3461
3589.00,0.3457
3588.00,0.3452
3587.00,0.3448
3586.00,0.3443
3585.00,0.3439
3584.00,0.3436
3583.00,0.3433
3582.00,0.3430
3581.00,0.3427
3580.00,0.3424
3579.00,0.3421
3578.00,0.3419
3577.00,0.3417
3576.00,0.3416
3575.00,0.3414
3574.00,0.3414
3573.00,0.3414
3572.00,0.3414
3571.00,0.3415
3570.00,0.3416
3569.00,0.3417
3568.00,0.3419
3567.00,0.3420
3566.00,0.3421
3565.00,0.3421
3564.00,0.3422
3563.00,0.3423
3562.00,0.3424
3561.00,0.3426
3560.00,0.3428
3559.00,0.3429
3558.00,0.3431
3557.00,0.3433
3556.00,0.3435
3555.00,0.3439
3554.00,0.3442
3553.00,0.3447
3552.00,0.3451
3551.00,0.3454
3550.00,0.3459
3549.00,0.3463
3548.00,0.3468
3547.00,0.3473
3546.00,0.3478
3545.00,0.3483
3544.00,0.3489
3543.00,0.3495
3542.00,0.3500
3541.00,0.3504
3540.00,0.3509
3539.00,0.3514
3538.00,0.3519
3537.00,0.3524
3536.00,0.3530
3535.00,0.3535
3534.00,0.3540
3533.00,0.3546
3532.00,0.3552
3531.00,0.3558
3530.00,0.3565
3529.00,0.3572
3528.00,0.3578
3527.00,0.3585
3526.00,0.3592
3525.00,0.3599
3524.00,0.3606
3523.00,0.3613
3522.00,0.3621
3521.00,0.3628
3520.00,0.3636
3519.00,0.3644
3518.00,0.3652
3517.00,0.3659
3516.00,0.3667
3515.00,0.3675
3514.00,0.3683
3513.00,0.3692
3512.00,0.3700
3511.00,0.3708
3510.00,0.3717
3509.00,0.3726
3508.00,0.3735
3507.00,0.3744
3506.00,0.3753
3505.00,0.3762
3504.00,0.3770
3503.00,0.3779
3502.00,0.3788
3501.00,0.3797
3500.00,0.3806
3499.00,0.3816
3498.00,0.3825
3497.00,0.3834
3496.00,0.3844
3495.00,0.3854
3494.00,0.3864
3493.00,0.3873
3492.00,0.3883
3491.00,0.3894
3490.00,0.3905
3489.00,0.3916
3488.00,0.3928
3487.00,0.3941
3486.00,0.3953
3485.00,0.3965
3484.00,0.3978
3483.00,0.3990
3482.00,0.4003
3481.00,0.4017
3480.00,0.4030
3479.00,0.4042
3478.00,0.4055
3477.00,0.4068
3476.00,0.4081
3475.00,0.4095
3474.00,0.4108
3473.00,0.4122
3472.00,0.4136
3471.00,0.4150
3470.00,0.4165
3469.00,0.4180
3468.00,0.4196
3467.00,0.4210
3466.00,0.4225
3465.00,0.4240
3464.00,0.4256
3463.00,0.4272
3462.00,0.4288
3461.00,0.4305
3460.00,0.4322
3459.00,0.4339
3458.00,0.4357
3457.00,0.4376
3456.00,0.4395
3455.00,0.4415
3454.00,0.4434
3453.00,0.4454
3452.00,0.4475
3451.00,0.4497
3450.00,0.4521
3449.00,0.4546
3448.00,0.4572
3447.00,0.4599
3446.00,0.4627
3445.00,0.4657
3444.00,0.4688
3443.00,0.4719
3442.00,0.4751
3441.00,0.4781
3440.00,0.4810
3439.00,0.4837
3438.00,0.4864
3437.00,0.4890
3436.00,0.4915
3435.00,0.4939
3434.00,0.4961
3433.00,0.4981
3432.00,0.5000
3431.00,0.5019
3430.00,0.5036
3429.00,0.5053
3428.00,0.5071
3427.00,0.5089
3426.00,0.5107
3425.00,0.5124
3424.00,0.5143
3423.00,0.5161
3422.00,0.5180
3421.00,0.5199
3420.00,0.5218
3419.00,0.5237
3418.00,0.5258
3417.00,0.5279
3416.00,0.5301
3415.00,0.5323
3414.00,0.5346
3413.00,0.5369
3412.00,0.5393
3411.00,0.5417
3410.00,0.5441
3409.00,0.5466
3408.00,0.5491
3407.00,0.5516
3406.00,0.5542
3405.00,0.5568
3404.00,0.5594
3403.00,0.5620
3402.00,0.5646
3401.00,0.5673
3400.00,0.5700
3399.00,0.5727
3398.00,0.5754
3397.00,0.5781
3396.00,0.5808
3395.00,0.5836
3394.00,0.5864
3393.00,0.5892
3392.00,0.5920
3391.00,0.5948
3390.00,0.5977
3389.00,0.6007
3388.00,0.6038
3387.00,0.6069
3386.00,0.6100
3385.00,0.6131
3384.00,0.6161
3383.00,0.6191
3382.00,0.6221
3381.00,0.6253
3380.00,0.6285
3379.00,0.6318
3378.00,0.6350
3377.00,0.6384
3376.00,0.6417
3375.00,0.6451
3374.00,0.6485
3373.00,0.6519
3372.00,0.6553
3371.00,0.6587
3370.00,0.6621
3369.00,0.6654
3368.00,0.6688
3367.00,0.6721
3366.00,0.6754
3365.00,0.6786
3364.00,0.6819
3363.00,0.6850
3362.00,0.6882
3361.00,0.6912
3360.00,0.6942
3359.00,0.6971
3358.00,0.6999
3357.00,0.7027
3356.00,0.7054
3355.00,0.7081
3354.00,0.7106
3353.00,0.7130
3352.00,0.7153
3351.00,0.7176
3350.00,0.7198
3349.00,0.7217
3348.00,0.7233
3347.00,0.7247
3346.00,0.7260
3345.00,0.7272
3344.00,0.7285
3343.00,0.7297
3342.00,0.7307
3341.00,0.7314
3340.00,0.7319
3339.00,0.7322
3338.00,0.7323
3337.00,0.7324
3336.00,0.7322
3335.00,0.7318
3334.00,0.7313
3333.00,0.7306
3332.00,0.7299
3331.00,0.7291
3330.00,0.7282
3329.00,0.7272
3328.00,0.7261
3327.00,0.7249
3326.00,0.7235
3325.00,0.7221
3324.00,0.7205
3323.00,0.7189
3322.00,0.7173
3321.00,0.7157
3320.00,0.7141
3319.00,0.7125
3318.00,0.7108
3317.00,0.7092
3316.00,0.7077
3315.00,0.7063
3314.00,0.7049
3313.00,0.7035
3312.00,0.7020
3311.00,0.7007
3310.00,0.6994
3309.00,0.6983
3308.00,0.6972
3307.00,0.6961
3306.00,0.6951
3305.00,0.6942
3304.00,0.6934
3303.00,0.6926
3302.00,0.6919
3301.00,0.6912
3300.00,0.6907
3299.00,0.6902
3298.00,0.6898
3297.00,0.6895
3296.00,0.6893
3295.00,0.6891
3294.00,0.6888
3293.00,0.6887
3292.00,0.6886
3291.00,0.6887
3290.00,0.6889
3289.00,0.6890
3288.00,0.6891
3287.00,0.6892
3286.00,0.6894
3285.00,0.6897
3284.00,0.6901
3283.00,0.6904
3282.00,0.6907
3281.00,0.6911
3280.00,0.6917
3279.00,0.6923
3278.00,0.6929
3277.00,0.6933
3276.00,0.6937
3275.00,0.6940
3274.00,0.6944
3273.00,0.6948
3272.00,0.6952
3271.00,0.6956
3270.00,0.6961
3269.00,0.6965
3268.00,0.6967
3267.00,0.6967
3266.00,0.6967
3265.00,0.6968
3264.00,0.6969
3263.00,0.6969
3262.00,0.6969
3261.00,0.6968
3260.00,0.6965
3259.00,0.6962
3258.00,0.6958
3257.00,0.6952
3256.00,0.6946
3255.00,0.6940
3254.00,0.6933
3253.00,0.6925
3252.00,0.6917
3251.00,0.6907
3250.00,0.6894
3249.00,0.6881
3248.00,0.6867
3247.00,0.6854
3246.00,0.6840
3245.00,0.6825
3244.00,0.6810
3243.00,0.6794
3242.00,0.6777
3241.00,0.6761
3240.00,0.6744
3239.00,0.6726
3238.00,0.6706
3237.00,0.6686
3236.00,0.6664
3235.00,0.6643
3234.00,0.6623
3233.00,0.6602
3232.00,0.6580
3231.00,0.6558
3230.00,0.6536
3229.00,0.6514
3228.00,0.6492
3227.00,0.6468
3226.00,0.6444
3225.00,0.6420
3224.00,0.6396
3223.00,0.6373
3222.00,0.6350
3221.00,0.6327
3220.00,0.6303
3219.00,0.6279
3218.00,0.6256
3217.00,0.6233
3216.00,0.6211
3215.00,0.6188
3214.00,0.6166
3213.00,0.6143
3212.00,0.6120
3211.00,0.6096
3210.00,0.6072
3209.00,0.6049
3208.00,0.6027
3207.00,0.6006
3206.00,0.5985
3205.00,0.5965
3204.00,0.5944
3203.00,0.5922
3202.00,0.5902
3201.00,0.5882
3200.00,0.5863
3199.00,0.5844
3198.00,0.5824
3197.00,0.5804
3196.00,0.5784
3195.00,0.5764
3194.00,0.5745
3193.00,0.5726
3192.00,0.5706
3191.00,0.5687
3190.00,0.5667
3189.00,0.5646
3188.00,0.5624
3187.00,0.5603
3186.00,0.5582
3185.00,0.5562
3184.00,0.5542
3183.00,0.5522
3182.00,0.5502
3181.00,0.5482
3180.00,0.5462
3179.00,0.5443
3178.00,0.5423
3177.00,0.5403
3176.00,0.5383
3175.00,0.5363
3174.00,0.5344
3173.00,0.5326
3172.00,0.5309
3171.00,0.5291
3170.00,0.5273
3169.00,0.5255
3168.00,0.5238
3167.00,0.5220
3166.00,0.5203
3165.00,0.5187
3164.00,0.5170
3163.00,0.5154
3162.00,0.5139
3161.00,0.5125
3160.00,0.5111
3159.00,0.5096
3158.00,0.5082
3157.00,0.5069
3156.00,0.5055
3155.00,0.5042
3154.00,0.5029
3153.00,0.5016
3152.00,0.5004
3151.00,0.4991
3150.00,0.4979
3149.00,0.4968
3148.00,0.4955
3147.00,0.4943
3146.00,0.4931
3145.00,0.4919
3144.00,0.4907
3143.00,0.4896
3142.00,0.4885
3141.00,0.4874
3140.00,0.4864
3139.00,0.4855
3138.00,0.4845
3137.00,0.4837
3136.00,0.4828
3135.00,0.4820
3134.00,0.4812
3133.00,0.4804
3132.00,0.4796
3131.00,0.4788
3130.00,0.4781
3129.00,0.4774
3128.00,0.4768
3127.00,0.4763
3126.00,0.4758
3125.00,0.4753
3124.00,0.4748
3123.00,0.4744
3122.00,0.4739
3121.00,0.4735
3120.00,0.4731
3119.00,0.4729
3118.00,0.4728
3117.00,0.4726
3116.00,0.4726
3115.00,0.4725
3114.00,0.4724
3113.00,0.4725
3112.00,0.4727
3111.00,0.4729
3110.00,0.4733
3109.00,0.4737
3108.00,0.4742
3107.00,0.4746
3106.00,0.4751
3105.00,0.4757
3104.00,0.4764
3103.00,0.4771
3102.00,0.4778
3101.00,0.4785
3100.00,0.4792
3099.00,0.4799
3098.00,0.4807
3097.00,0.4814
3096.00,0.4821
3095.00,0.4829
3094.00,0.4836
3093.00,0.4844
3092.00,0.4852
3091.00,0.4860
3090.00,0.4869
3089.00,0.4879
3088.00,0.4889
3087.00,0.4899
3086.00,0.4910
3085.00,0.4922
3084.00,0.4934
3083.00,0.4947
3082.00,0.4961
3081.00,0.4976
3080.00,0.4992
3079.00,0.5009
3078.00,0.5028
3077.00,0.5047
3076.00,0.5068
3075.00,0.5090
3074.00,0.5114
3073.00,0.5139
3072.00,0.5165
3071.00,0.5193
3070.00,0.5221
3069.00,0.5252
3068.00,0.5284
3067.00,0.5317
3066.00,0.5351
3065.00,0.5386
3064.00,0.5421
3063.00,0.5456
3062.00,0.5492
3061.00,0.5529
3060.00,0.5566
3059.00,0.5601
3058.00,0.5635
3057.00,0.5669
3056.00,0.5702
3055.00,0.5735
3054.00,0.5766
3053.00,0.5797
3052.00,0.5826
3051.00,0.5854
3050.00,0.5882
3049.00,0.5909
3048.00,0.5937
3047.00,0.5965
3046.00,0.5996
3045.00,0.6029
3044.00,0.6064
3043.00,0.6102
3042.00,0.6141
3041.00,0.6181
3040.00,0.6222
3039.00,0.6265
3038.00,0.6311
3037.00,0.6361
3036.00,0.6414
3035.00,0.6469
3034.00,0.6526
3033.00,0.6584
3032.00,0.6642
3031.00,0.6702
3030.00,0.6762
3029.00,0.6821
3028.00,0.6880
3027.00,0.6939
3026.00,0.6999
3025.00,0.7061
3024.00,0.7124
3023.00,0.7189
3022.00,0.7255
3021.00,0.7323
3020.00,0.7394
3019.00,0.7468
3018.00,0.7546
3017.00,0.7627
3016.00,0.7713
3015.00,0.7802
3014.00,0.7897
3013.00,0.7998
3012.00,0.8105
3011.00,0.8218
3010.00,0.8337
3009.00,0.8461
3008.00,0.8591
3007.00,0.8729
3006.00,0.8875
3005.00,0.9029
3004.00,0.9192
3003.00,0.9365
3002.00,0.9547
3001.00,0.9739
3000.00,0.9942
2999.00,1.0159
2998.00,1.0389
2997.00,1.0634
2996.00,1.0894
2995.00,1.1173
2994.00,1.1473
2993.00,1.1796
2992.00,1.2142
2991.00,1.2514
2990.00,1.2915
2989.00,1.3350
2988.00,1.3825
2987.00,1.4346
2986.00,1.4921
2985.00,1.5553
2984.00,1.6245
2983.00,1.7009
2982.00,1.7856
2981.00,1.8801
2980.00,1.9853
2979.00,2.1023
2978.00,2.2321
2977.00,2.3739
2976.00,2.5252
2975.00,2.6853
2974.00,2.8572
2973.00,3.0447
2972.00,3.2453
2971.00,3.4516
2970.00,3.6622
2969.00,3.8954
2968.00,4.1882
2967.00,4.5315
2966.00,4.6071
2965.00,4.3718
2964.00,4.1684
2963.00,4.0452
2962.00,3.9956
2961.00,4.0035
2960.00,4.1013
2959.00,4.2763
2958.00,4.3057
2957.00,4.1108
2956.00,3.9566
2955.00,3.9219
2954.00,4.0614
2953.00,4.4005
2952.00,4.4669
2951.00,4.3005
2950.00,4.2260
2949.00,4.2646
2948.00,4.1965
2947.00,4.0987
2946.00,4.1387
2945.00,4.1956
2944.00,4.2837
2943.00,4.5650
2942.00,4.5682
2941.00,4.1044
2940.00,3.8442
2939.00,3.7938
2938.00,3.8764
2937.00,3.9613
2936.00,3.9552
2935.00,3.8925
2934.00,3.8629
2933.00,3.8853
2932.00,3.9714
2931.00,4.0838
2930.00,4.0752
2929.00,3.9805
2928.00,3.9081
2927.00,3.8759
2926.00,3.8405
2925.00,3.7942
2924.00,3.8134
2923.00,3.9025
2922.00,4.1303
2921.00,4.5913
2920.00,4.7039
2919.00,4.4690
2918.00,4.2404
2917.00,4.1399
2916.00,4.1104
2915.00,4.0520
2914.00,4.1555
2913.00,4.4579
2912.00,4.2998
2911.00,4.0588
2910.00,3.9151
2909.00,3.9836
2908.00,4.0390
2907.00,3.9375
2906.00,3.8839
2905.00,3.8708
2904.00,3.9318
2903.00,4.0995
2902.00,4.4804
2901.00,4.5993
2900.00,4.2124
2899.00,3.9194
2898.00,3.8245
2897.00,3.8062
2896.00,3.9140
2895.00,4.2874
2894.00,4.3102
2893.00,4.0966
2892.00,3.9602
2891.00,4.0700
2890.00,4.1838
2889.00,4.2569
2888.00,4.6156
2887.00,4.5369
2886.00,4.3027
2885.00,4.1408
2884.00,4.1462
2883.00,4.2008
2882.00,4.4076
2881.00,4.8639
2880.00,4.5249
2879.00,4.1928
2878.00,4.0520
2877.00,4.0235
2876.00,4.0241
2875.00,4.1209
2874.00,4.1583
2873.00,3.9864
2872.00,3.8576
2871.00,3.8897
2870.00,4.0837
2869.00,4.1505
2868.00,4.0215
2867.00,3.9296
2866.00,3.9661
2865.00,4.1078
2864.00,4.1939
2863.00,4.1673
2862.00,4.0891
2861.00,4.0387
2860.00,4.0838
2859.00,4.1863
2858.00,4.2228
2857.00,4.2524
2856.00,4.3340
2855.00,4.2347
2854.00,4.1235
2853.00,4.2667
2852.00,4.3466
2851.00,4.0322
2850.00,3.8251
2849.00,3.8840
2848.00,4.1289
2847.00,4.2999
2846.00,4.3364
2845.00,4.3352
2844.00,4.3913
2843.00,4.3551
2842.00,4.1106
2841.00,3.8511
2840.00,3.6405
2839.00,3.4462
2838.00,3.2342
2837.00,3.0017
2836.00,2.7787
2835.00,2.5839
2834.00,2.4160
2833.00,2.2683
2832.00,2.1369
2831.00,2.0206
2830.00,1.9179
2829.00,1.8267
2828.00,1.7451
2827.00,1.6717
2826.00,1.6056
2825.00,1.5456
2824.00,1.4911
2823.00,1.4414
2822.00,1.3957
2821.00,1.3535
2820.00,1.3144
2819.00,1.2783
2818.00,1.2449
2817.00,1.2139
2816.00,1.1849
2815.00,1.1578
2814.00,1.1321
2813.00,1.1079
2812.00,1.0850
2811.00,1.0631
2810.00,1.0420
2809.00,1.0216
2808.00,1.0018
2807.00,0.9827
2806.00,0.9639
2805.00,0.9456
2804.00,0.9278
2803.00,0.9107
2802.00,0.8942
2801.00,0.8783
2800.00,0.8630
2799.00,0.8483
2798.00,0.8342
2797.00,0.8207
2796.00,0.8076
2795.00,0.7952
2794.00,0.7834
2793.00,0.7722
2792.00,0.7617
2791.00,0.7518
2790.00,0.7424
2789.00,0.7334
2788.00,0.7247
2787.00,0.7161
2786.00,0.7077
2785.00,0.6993
2784.00,0.6910
2783.00,0.6828
2782.00,0.6747
2781.00,0.6667
2780.00,0.6589
2779.00,0.6513
2778.00,0.6440
2777.00,0.6369
2776.00,0.6302
2775.00,0.6237
2774.00,0.6176
2773.00,0.6120
2772.00,0.6069
2771.00,0.6022
2770.00,0.5979
2769.00,0.5940
2768.00,0.5904
2767.00,0.5872
2766.00,0.5844
2765.00,0.5818
2764.00,0.5796
2763.00,0.5776
2762.00,0.5758
2761.00,0.5743
2760.00,0.5730
2759.00,0.5720
2758.00,0.5712
2757.00,0.5707
2756.00,0.5704
2755.00,0.5702
2754.00,0.5702
2753.00,0.5704
2752.00,0.5708
2751.00,0.5714
2750.00,0.5723
2749.00,0.5734
2748.00,0.5746
2747.00,0.5760
2746.00,0.5774
2745.00,0.5790
2744.00,0.5808
2743.00,0.5826
2742.00,0.5847
2741.00,0.5872
2740.00,0.5899
2739.00,0.5932
2738.00,0.5969
2737.00,0.6012
2736.00,0.6059
2735.00,0.6110
2734.00,0.6160
2733.00,0.6206
2732.00,0.6241
2731.00,0.6261
2730.00,0.6261
2729.00,0.6240
2728.00,0.6202
2727.00,0.6151
2726.00,0.6094
2725.00,0.6037
2724.00,0.5983
2723.00,0.5934
2722.00,0.5894
2721.00,0.5860
2720.00,0.5834
2719.00,0.5812
2718.00,0.5794
2717.00,0.5777
2716.00,0.5759
2715.00,0.5737
2714.00,0.5713
2713.00,0.5687
2712.00,0.5660
2711.00,0.5633
2710.00,0.5607
2709.00,0.5582
2708.00,0.5560
2707.00,0.5539
2706.00,0.5522
2705.00,0.5507
2704.00,0.5494
2703.00,0.5482
2702.00,0.5473
2701.00,0.5466
2700.00,0.5461
2699.00,0.5458
2698.00,0.5458
2697.00,0.5461
2696.00,0.5467
2695.00,0.5475
2694.00,0.5485
2693.00,0.5497
2692.00,0.5509
2691.00,0.5521
2690.00,0.5533
2689.00,0.5545
2688.00,0.5556
2687.00,0.5566
2686.00,0.5574
2685.00,0.5580
2684.00,0.5585
2683.00,0.5589
2682.00,0.5593
2681.00,0.5598
2680.00,0.5602
2679.00,0.5607
2678.00,0.5611
2677.00,0.5616
2676.00,0.5620
2675.00,0.5625
2674.00,0.5628
2673.00,0.5631
2672.00,0.5631
2671.00,0.5629
2670.00,0.5625
2669.00,0.5616
2668.00,0.5603
2667.00,0.5586
2666.00,0.5565
2665.00,0.5540
2664.00,0.5514
2663.00,0.5486
2662.00,0.5458
2661.00,0.5431
2660.00,0.5405
2659.00,0.5380
2658.00,0.5355
2657.00,0.5331
2656.00,0.5308
2655.00,0.5284
2654.00,0.5260
2653.00,0.5238
2652.00,0.5216
2651.00,0.5196
2650.00,0.5178
2649.00,0.5161
2648.00,0.5144
2647.00,0.5129
2646.00,0.5113
2645.00,0.5099
2644.00,0.5085
2643.00,0.5073
2642.00,0.5061
2641.00,0.5049
2640.00,0.5038
2639.00,0.5027
2638.00,0.5015
2637.00,0.5004
2636.00,0.4992
2635.00,0.4980
2634.00,0.4967
2633.00,0.4954
2632.00,0.4940
2631.00,0.4925
2630.00,0.4910
2629.00,0.4894
2628.00,0.4879
2627.00,0.4863
2626.00,0.4849
2625.00,0.4834
2624.00,0.4820
2623.00,0.4807
2622.00,0.4794
2621.00,0.4782
2620.00,0.4770
2619.00,0.4759
2618.00,0.4748
2617.00,0.4738
2616.00,0.4728
2615.00,0.4717
2614.00,0.4707
2613.00,0.4698
2612.00,0.4689
2611.00,0.4680
2610.00,0.4671
2609.00,0.4662
2608.00,0.4653
2607.00,0.4645
2606.00,0.4637
2605.00,0.4629
2604.00,0.4620
2603.00,0.4611
2602.00,0.4602
2601.00,0.4593
2600.00,0.4584
2599.00,0.4575
2598.00,0.4565
2597.00,0.4555
2596.00,0.4543
2595.00,0.4531
2594.00,0.4519
2593.00,0.4506
2592.00,0.4494
2591.00,0.4482
2590.00,0.4470
2589.00,0.4458
2588.00,0.4446
2587.00,0.4434
2586.00,0.4422
2585.00,0.4410
2584.00,0.4397
2583.00,0.4383
2582.00,0.4368
2581.00,0.4353
2580.00,0.4338
2579.00,0.4323
2578.00,0.4308
2577.00,0.4294
2576.00,0.4279
2575.00,0.4266
2574.00,0.4253
2573.00,0.4240
2572.00,0.4228
2571.00,0.4217
2570.00,0.4205
2569.00,0.4194
2568.00,0.4183
2567.00,0.4172
2566.00,0.4160
2565.00,0.4149
2564.00,0.4137
2563.00,0.4125
2562.00,0.4113
2561.00,0.4101
2560.00,0.4090
2559.00,0.4078
2558.00,0.4066
2557.00,0.4054
2556.00,0.4042
2555.00,0.4031
2554.00,0.4019
2553.00,0.4009
2552.00,0.3998
2551.00,0.3988
2550.00,0.3979
2549.00,0.3971
2548.00,0.3963
2547.00,0.3956
2546.00,0.3949
2545.00,0.3943
2544.00,0.3937
2543.00,0.3931
2542.00,0.3926
2541.00,0.3921
2540.00,0.3917
2539.00,0.3912
2538.00,0.3907
2537.00,0.3903
2536.00,0.3898
2535.00,0.3892
2534.00,0.3885
2533.00,0.3877
2532.00,0.3869
2531.00,0.3859
2530.00,0.3848
2529.00,0.3835
2528.00,0.3822
2527.00,0.3808
2526.00,0.3794
2525.00,0.3781
2524.00,0.3768
2523.00,0.3756
2522.00,0.3743
2521.00,0.3731
2520.00,0.3718
2519.00,0.3705
2518.00,0.3693
2517.00,0.3682
2516.00,0.3671
2515.00,0.3661
2514.00,0.3650
2513.00,0.3639
2512.00,0.3628
2511.00,0.3618
2510.00,0.3608
2509.00,0.3598
2508.00,0.3590
2507.00,0.3582
2506.00,0.3576
2505.00,0.3570
2504.00,0.3565
2503.00,0.3561
2502.00,0.3557
2501.00,0.3554
2500.00,0.3551
2499.00,0.3547
2498.00,0.3544
2497.00,0.3541
2496.00,0.3537
2495.00,0.3533
2494.00,0.3529
2493.00,0.3524
2492.00,0.3520
2491.00,0.3516
2490.00,0.3511
2489.00,0.3506
2488.00,0.3501
2487.00,0.3495
2486.00,0.3490
2485.00,0.3484
2484.00,0.3478
2483.00,0.3472
2482.00,0.3466
2481.00,0.3461
2480.00,0.3455
2479.00,0.3449
2478.00,0.3442
2477.00,0.3436
2476.00,0.3430
2475.00,0.3424
2474.00,0.3417
2473.00,0.3411
2472.00,0.3404
2471.00,0.3397
2470.00,0.3391
2469.00,0.3386
2468.00,0.3381
2467.00,0.3377
2466.00,0.3374
2465.00,0.3371
2464.00,0.3368
2463.00,0.3364
2462.00,0.3361
2461.00,0.3358
2460.00,0.3356
2459.00,0.3354
2458.00,0.3353
2457.00,0.3352
2456.00,0.3352
2455.00,0.3352
2454.00,0.3352
2453.00,0.3352
2452.00,0.3353
2451.00,0.3353
2450.00,0.3353
2449.00,0.3353
2448.00,0.3354
2447.00,0.3354
2446.00,0.3354
2445.00,0.3355
2444.00,0.3356
2443.00,0.3356
2442.00,0.3357
2441.00,0.3358
2440.00,0.3358
2439.00,0.3359
2438.00,0.3360
2437.00,0.3360
2436.00,0.3360
2435.00,0.3359
2434.00,0.3358
2433.00,0.3358
2432.00,0.3359
2431.00,0.3360
2430.00,0.3360
2429.00,0.3361
2428.00,0.3362
2427.00,0.3363
2426.00,0.3364
2425.00,0.3365
2424.00,0.3367
2423.00,0.3368
2422.00,0.3369
2421.00,0.3370
2420.00,0.3370
2419.00,0.3370
2418.00,0.3370
2417.00,0.3370
2416.00,0.3370
2415.00,0.3370
2414.00,0.3370
2413.00,0.3370
2412.00,0.3370
2411.00,0.3370
2410.00,0.3371
2409.00,0.3371
2408.00,0.3371
2407.00,0.3370
2406.00,0.3370
2405.00,0.3370
2404.00,0.3370
2403.00,0.3371
2402.00,0.3371
2401.00,0.3371
2400.00,0.3370
2399.00,0.3371
2398.00,0.3371
2397.00,0.3373
2396.00,0.3375
2395.00,0.3377
2394.00,0.3379
2393.00,0.3382
2392.00,0.3385
2391.00,0.3388
2390.00,0.3391
2389.00,0.3394
2388.00,0.3397
2387.00,0.3400
2386.00,0.3403
2385.00,0.3406
2384.00,0.3410
2383.00,0.3414
2382.00,0.3418
2381.00,0.3423
2380.00,0.3427
2379.00,0.3431
2378.00,0.3433
2377.00,0.3435
2376.00,0.3435
2375.00,0.3435
2374.00,0.3435
2373.00,0.3434
2372.00,0.3434
2371.00,0.3434
2370.00,0.3435
2369.00,0.3436
2368.00,0.3438
2367.00,0.3440
2366.00,0.3441
2365.00,0.3441
2364.00,0.3442
2363.00,0.3443
2362.00,0.3444
2361.00,0.3445
2360.00,0.3446
2359.00,0.3446
2358.00,0.3445
2357.00,0.3443
2356.00,0.3442
2355.00,0.3441
2354.00,0.3442
2353.00,0.3443
2352.00,0.3443
2351.00,0.3442
2350.00,0.3441
2349.00,0.3441
2348.00,0.3441
2347.00,0.3442
2346.00,0.3444
2345.00,0.3444
2344.00,0.3441
2343.00,0.3437
2342.00,0.3434
2341.00,0.3432
2340.00,0.3431
2339.00,0.3429
2338.00,0.3427
2337.00,0.3426
2336.00,0.3425
2335.00,0.3424
2334.00,0.3422
2333.00,0.3421
2332.00,0.3420
2331.00,0.3418
2330.00,0.3414
2329.00,0.3410
2328.00,0.3405
2327.00,0.3402
2326.00,0.3399
2325.00,0.3398
2324.00,0.3396
2323.00,0.3393
2322.00,0.3390
2321.00,0.3385
2320.00,0.3379
2319.00,0.3373
2318.00,0.3368
2317.00,0.3363
2316.00,0.3359
2315.00,0.3355
2314.00,0.3352
2313.00,0.3348
2312.00,0.3344
2311.00,0.3338
2310.00,0.3332
2309.00,0.3326
2308.00,0.3321
2307.00,0.3315
2306.00,0.3309
2305.00,0.3304
2304.00,0.3299
2303.00,0.3293
2302.00,0.3288
2301.00,0.3284
2300.00,0.3280
2299.00,0.3276
2298.00,0.3273
2297.00,0.3269
2296.00,0.3265
2295.00,0.3262
2294.00,0.3259
2293.00,0.3255
2292.00,0.3252
2291.00,0.3248
2290.00,0.3244
2289.00,0.3239
2288.00,0.3234
2287.00,0.3229
2286.00,0.3224
2285.00,0.3220
2284.00,0.3216
2283.00,0.3211
2282.00,0.3207
2281.00,0.3204
2280.00,0.3200
2279.00,0.3197
2278.00,0.3195
2277.00,0.3192
2276.00,0.3189
2275.00,0.3187
2274.00,0.3185
2273.00,0.3183
2272.00,0.3182
2271.00,0.3180
2270.00,0.3179
2269.00,0.3179
2268.00,0.3178
2267.00,0.3178
2266.00,0.3177
2265.00,0.3177
2264.00,0.3177
2263.00,0.3177
2262.00,0.3176
2261.00,0.3175
2260.00,0.3173
2259.00,0.3171
2258.00,0.3170
2257.00,0.3168
2256.00,0.3165
2255.00,0.3162
2254.00,0.3159
2253.00,0.3157
2252.00,0.3154
2251.00,0.3151
2250.00,0.3148
2249.00,0.3144
2248.00,0.3141
2247.00,0.3137
2246.00,0.3133
2245.00,0.3130
2244.00,0.3127
2243.00,0.3123
2242.00,0.3120
2241.00,0.3117
2240.00,0.3113
2239.00,0.3110
2238.00,0.3107
2237.00,0.3104
2236.00,0.3101
2235.00,0.3098
2234.00,0.3096
2233.00,0.3094
2232.00,0.3092
2231.00,0.3091
2230.00,0.3091
2229.00,0.3090
2228.00,0.3090
2227.00,0.3090
2226.00,0.3090
2225.00,0.3090
2224.00,0.3090
2223.00,0.3089
2222.00,0.3089
2221.00,0.3089
2220.00,0.3089
2219.00,0.3089
2218.00,0.3089
2217.00,0.3088
2216.00,0.3088
2215.00,0.3087
2214.00,0.3086
2213.00,0.3085
2212.00,0.3085
2211.00,0.3083
2210.00,0.3082
2209.00,0.3081
2208.00,0.3081
2207.00,0.3080
2206.00,0.3079
2205.00,0.3079
2204.00,0.3079
2203.00,0.3078
2202.00,0.3078
2201.00,0.3078
2200.00,0.3079
2199.00,0.3079
2198.00,0.3079
2197.00,0.3079
2196.00,0.3080
2195.00,0.3080
2194.00,0.3081
2193.00,0.3082
2192.00,0.3084
2191.00,0.3085
2190.00,0.3086
2189.00,0.3088
2188.00,0.3090
2187.00,0.3092
2186.00,0.3094
2185.00,0.3096
2184.00,0.3097
2183.00,0.3098
2182.00,0.3099
2181.00,0.3100
2180.00,0.3101
2179.00,0.3102
2178.00,0.3102
2177.00,0.3103
2176.00,0.3103
2175.00,0.3103
2174.00,0.3104
2173.00,0.3104
2172.00,0.3105
2171.00,0.3105
2170.00,0.3105
2169.00,0.3105
2168.00,0.3105
2167.00,0.3104
2166.00,0.3103
2165.00,0.3103
2164.00,0.3103
2163.00,0.3103
2162.00,0.3103
2161.00,0.3102
2160.00,0.3102
2159.00,0.3101
2158.00,0.3100
2157.00,0.3099
2156.00,0.3099
2155.00,0.3099
2154.00,0.3098
2153.00,0.3098
2152.00,0.3098
2151.00,0.3097
2150.00,0.3095
2149.00,0.3092
2148.00,0.3089
2147.00,0.3085
2146.00,0.3081
2145.00,0.3076
2144.00,0.3070
2143.00,0.3064
2142.00,0.3057
2141.00,0.3051
2140.00,0.3045
2139.00,0.3039
2138.00,0.3034
2137.00,0.3029
2136.00,0.3024
2135.00,0.3020
2134.00,0.3017
2133.00,0.3014
2132.00,0.3011
2131.00,0.3008
2130.00,0.3006
2129.00,0.3004
2128.00,0.3001
2127.00,0.2999
2126.00,0.2996
2125.00,0.2995
2124.00,0.2993
2123.00,0.2992
2122.00,0.2990
2121.00,0.2989
2120.00,0.2988
2119.00,0.2987
2118.00,0.2986
2117.00,0.2984
2116.00,0.2983
2115.00,0.2982
2114.00,0.2980
2113.00,0.2979
2112.00,0.2978
2111.00,0.2977
2110.00,0.2976
2109.00,0.2975
2108.00,0.2975
2107.00,0.2974
2106.00,0.2974
2105.00,0.2974
2104.00,0.2974
2103.00,0.2975
2102.00,0.2976
2101.00,0.2977
2100.00,0.2977
2099.00,0.2977
2098.00,0.2976
2097.00,0.2976
2096.00,0.2976
2095.00,0.2975
2094.00,0.2974
2093.00,0.2974
2092.00,0.2973
2091.00,0.2973
2090.00,0.2972
2089.00,0.2971
2088.00,0.2970
2087.00,0.2969
2086.00,0.2968
2085.00,0.2968
2084.00,0.2967
2083.00,0.2966
2082.00,0.2965
2081.00,0.2965
2080.00,0.2965
2079.00,0.2964
2078.00,0.2965
2077.00,0.2965
2076.00,0.2966
2075.00,0.2966
2074.00,0.2967
2073.00,0.2967
2072.00,0.2968
2071.00,0.2969
2070.00,0.2970
2069.00,0.2971
2068.00,0.2973
2067.00,0.2976
2066.00,0.2978
2065.00,0.2981
2064.00,0.2983
2063.00,0.2985
2062.00,0.2987
2061.00,0.2989
2060.00,0.2992
2059.00,0.2995
2058.00,0.2998
2057.00,0.3002
2056.00,0.3006
2055.00,0.3010
2054.00,0.3014
2053.00,0.3018
2052.00,0.3022
2051.00,0.3027
2050.00,0.3031
2049.00,0.3035
2048.00,0.3040
2047.00,0.3044
2046.00,0.3047
2045.00,0.3051
2044.00,0.3054
2043.00,0.3056
2042.00,0.3058
2041.00,0.3059
2040.00,0.3059
2039.00,0.3060
2038.00,0.3060
2037.00,0.3060
2036.00,0.3061
2035.00,0.3062
2034.00,0.3063
2033.00,0.3065
2032.00,0.3068
2031.00,0.3071
2030.00,0.3074
2029.00,0.3078
2028.00,0.3082
2027.00,0.3086
2026.00,0.3089
2025.00,0.3091
2024.00,0.3091
2023.00,0.3090
2022.00,0.3086
2021.00,0.3081
2020.00,0.3074
2019.00,0.3065
2018.00,0.3055
2017.00,0.3044
2016.00,0.3033
2015.00,0.3022
2014.00,0.3010
2013.00,0.2999
2012.00,0.2989
2011.00,0.2979
2010.00,0.2970
2009.00,0.2962
2008.00,0.2956
2007.00,0.2949
2006.00,0.2944
2005.00,0.2940
2004.00,0.2936
2003.00,0.2932
2002.00,0.2929
2001.00,0.2926
2000.00,0.2924
1999.00,0.2922
1998.00,0.2920
1997.00,0.2917
1996.00,0.2915
1995.00,0.2914
1994.00,0.2913
1993.00,0.2913
1992.00,0.2912
1991.00,0.2912
1990.00,0.2911
1989.00,0.2911
1988.00,0.2910
1987.00,0.2909
1986.00,0.2908
1985.00,0.2908
1984.00,0.2908
1983.00,0.2908
1982.00,0.2907
1981.00,0.2907
1980.00,0.2907
1979.00,0.2907
1978.00,0.2907
1977.00,0.2907
1976.00,0.2907
1975.00,0.2907
1974.00,0.2906
1973.00,0.2905
1972.00,0.2905
1971.00,0.2904
1970.00,0.2903
1969.00,0.2902
1968.00,0.2901
1967.00,0.2901
1966.00,0.2900
1965.00,0.2899
1964.00,0.2899
1963.00,0.2898
1962.00,0.2897
1961.00,0.2897
1960.00,0.2897
1959.00,0.2897
1958.00,0.2898
1957.00,0.2899
1956.00,0.2900
1955.00,0.2901
1954.00,0.2902
1953.00,0.2903
1952.00,0.2905
1951.00,0.2906
1950.00,0.2907
1949.00,0.2908
1948.00,0.2910
1947.00,0.2911
1946.00,0.2913
1945.00,0.2915
1944.00,0.2918
1943.00,0.2922
1942.00,0.2925
1941.00,0.2928
1940.00,0.2931
1939.00,0.2933
1938.00,0.2933
1937.00,0.2934
1936.00,0.2934
1935.00,0.2935
1934.00,0.2935
1933.00,0.2935
1932.00,0.2936
1931.00,0.2936
1930.00,0.2936
1929.00,0.2937
1928.00,0.2938
1927.00,0.2938
1926.00,0.2938
1925.00,0.2939
1924.00,0.2941
1923.00,0.2943
1922.00,0.2944
1921.00,0.2947
1920.00,0.2951
1919.00,0.2954
1918.00,0.2956
1917.00,0.2957
1916.00,0.2958
1915.00,0.2958
1914.00,0.2958
1913.00,0.2957
1912.00,0.2956
1911.00,0.2956
1910.00,0.2956
1909.00,0.2956
1908.00,0.2957
1907.00,0.2957
1906.00,0.2956
1905.00,0.2956
1904.00,0.2956
1903.00,0.2956
1902.00,0.2956
1901.00,0.2956
1900.00,0.2956
1899.00,0.2956
1898.00,0.2956
1897.00,0.2957
1896.00,0.2958
1895.00,0.2958
1894.00,0.2958
1893.00,0.2957
1892.00,0.2957
1891.00,0.2957
1890.00,0.2957
1889.00,0.2958
1888.00,0.2959
1887.00,0.2959
1886.00,0.2959
1885.00,0.2960
1884.00,0.2960
1883.00,0.2960
1882.00,0.2960
1881.00,0.2960
1880.00,0.2960
1879.00,0.2959
1878.00,0.2959
1877.00,0.2958
1876.00,0.2958
1875.00,0.2957
1874.00,0.2956
1873.00,0.2954
1872.00,0.2952
1871.00,0.2950
1870.00,0.2948
1869.00,0.2948
1868.00,0.2950
1867.00,0.2951
1866.00,0.2952
1865.00,0.2953
1864.00,0.2953
1863.00,0.2951
1862.00,0.2949
1861.00,0.2947
1860.00,0.2945
1859.00,0.2942
1858.00,0.2940
1857.00,0.2938
1856.00,0.2937
1855.00,0.2935
1854.00,0.2934
1853.00,0.2932
1852.00,0.2929
1851.00,0.2927
1850.00,0.2923
1849.00,0.2920
1848.00,0.2917
1847.00,0.2915
1846.00,0.2916
1845.00,0.2917
1844.00,0.2918
1843.00,0.2918
1842.00,0.2917
1841.00,0.2917
1840.00,0.2917
1839.00,0.2916
1838.00,0.2914
1837.00,0.2914
1836.00,0.2913
1835.00,0.2912
1834.00,0.2909
1833.00,0.2905
1832.00,0.2903
1831.00,0.2901
1830.00,0.2901
1829.00,0.2902
1828.00,0.2904
1827.00,0.2907
1826.00,0.2909
1825.00,0.2912
1824.00,0.2915
1823.00,0.2918
1822.00,0.2919
1821.00,0.2920
1820.00,0.2921
1819.00,0.2922
1818.00,0.2922
1817.00,0.2923
1816.00,0.2923
1815.00,0.2923
1814.00,0.2923
1813.00,0.2923
1812.00,0.2923
1811.00,0.2923
1810.00,0.2924
1809.00,0.2926
1808.00,0.2927
1807.00,0.2928
1806.00,0.2927
1805.00,0.2927
1804.00,0.2927
1803.00,0.2927
1802.00,0.2928
1801.00,0.2930
1800.00,0.2933
1799.00,0.2937
1798.00,0.2939
1797.00,0.2941
1796.00,0.2943
1795.00,0.2945
1794.00,0.2949
1793.00,0.2955
1792.00,0.2962
1791.00,0.2968
1790.00,0.2974
1789.00,0.2980
1788.00,0.2987
1787.00,0.2993
1786.00,0.2998
1785.00,0.3003
1784.00,0.3008
1783.00,0.3013
1782.00,0.3019
1781.00,0.3025
1780.00,0.3030
1779.00,0.3034
1778.00,0.3037
1777.00,0.3039
1776.00,0.3039
1775.00,0.3041
1774.00,0.3042
1773.00,0.3044
1772.00,0.3047
1771.00,0.3050
1770.00,0.3055
1769.00,0.3062
1768.00,0.3067
1767.00,0.3068
1766.00,0.3068
1765.00,0.3069
1764.00,0.3071
1763.00,0.3075
1762.00,0.3079
1761.00,0.3085
1760.00,0.3090
1759.00,0.3098
1758.00,0.3107
1757.00,0.3117
1756.00,0.3128
1755.00,0.3138
1754.00,0.3150
1753.00,0.3163
1752.00,0.3175
1751.00,0.3185
1750.00,0.3195
1749.00,0.3208
1748.00,0.3221
1747.00,0.3232
1746.00,0.3240
1745.00,0.3245
1744.00,0.3248
1743.00,0.3249
1742.00,0.3249
1741.00,0.3250
1740.00,0.3249
1739.00,0.3245
1738.00,0.3241
1737.00,0.3240
1736.00,0.3242
1735.00,0.3242
1734.00,0.3237
1733.00,0.3231
1732.00,0.3226
1731.00,0.3224
1730.00,0.3225
1729.00,0.3227
1728.00,0.3229
1727.00,0.3231
1726.00,0.3233
1725.00,0.3237
1724.00,0.3242
1723.00,0.3247
1722.00,0.3250
1721.00,0.3255
1720.00,0.3263
1719.00,0.3273
1718.00,0.3284
1717.00,0.3297
1716.00,0.3308
1715.00,0.3320
1714.00,0.3333
1713.00,0.3346
1712.00,0.3360
1711.00,0.3373
1710.00,0.3385
1709.00,0.3398
1708.00,0.3412
1707.00,0.3426
1706.00,0.3440
1705.00,0.3451
1704.00,0.3459
1703.00,0.3464
1702.00,0.3467
1701.00,0.3464
1700.00,0.3456
1699.00,0.3448
1698.00,0.3448
1697.00,0.3454
1696.00,0.3457
1695.00,0.3452
1694.00,0.3446
1693.00,0.3443
1692.00,0.3444
1691.00,0.3445
1690.00,0.3444
1689.00,0.3446
1688.00,0.3450
1687.00,0.3456
1686.00,0.3460
1685.00,0.3464
1684.00,0.3471
1683.00,0.3477
1682.00,0.3485
1681.00,0.3494
1680.00,0.3501
1679.00,0.3506
1678.00,0.3511
1677.00,0.3519
1676.00,0.3529
1675.00,0.3537
1674.00,0.3543
1673.00,0.3550
1672.00,0.3559
1671.00,0.3570
1670.00,0.3583
1669.00,0.3599
1668.00,0.3613
1667.00,0.3623
1666.00,0.3631
1665.00,0.3639
1664.00,0.3648
1663.00,0.3659
1662.00,0.3670
1661.00,0.3682
1660.00,0.3693
1659.00,0.3702
1658.00,0.3708
1657.00,0.3715
1656.00,0.3726
1655.00,0.3741
1654.00,0.3764
1653.00,0.3792
1652.00,0.3810
1651.00,0.3813
1650.00,0.3818
1649.00,0.3833
1648.00,0.3858
1647.00,0.3890
1646.00,0.3924
1645.00,0.3954
1644.00,0.3980
1643.00,0.4003
1642.00,0.4028
1641.00,0.4054
1640.00,0.4080
1639.00,0.4107
1638.00,0.4138
1637.00,0.4178
1636.00,0.4229
1635.00,0.4281
1634.00,0.4329
1633.00,0.4374
1632.00,0.4418
1631.00,0.4463
1630.00,0.4510
1629.00,0.4565
1628.00,0.4626
1627.00,0.4689
1626.00,0.4754
1625.00,0.4828
1624.00,0.4915
1623.00,0.5014
1622.00,0.5117
1621.00,0.5224
1620.00,0.5335
1619.00,0.5455
1618.00,0.5594
1617.00,0.5761
1616.00,0.5946
1615.00,0.6133
1614.00,0.6322
1613.00,0.6532
1612.00,0.6771
1611.00,0.7031
1610.00,0.7302
1609.00,0.7578
1608.00,0.7853
1607.00,0.8121
1606.00,0.8388
1605.00,0.8684
1604.00,0.9033
1603.00,0.9440
1602.00,0.9902
1601.00,1.0411
1600.00,1.0945
1599.00,1.1469
1598.00,1.1978
1597.00,1.2524
1596.00,1.3161
1595.00,1.3910
1594.00,1.4795
1593.00,1.5885
1592.00,1.7250
1591.00,1.8888
1590.00,2.0778
1589.00,2.3075
1588.00,2.6131
1587.00,3.0011
1586.00,3.3667
1585.00,3.7218
1584.00,3.7810
1583.00,3.6222
1582.00,3.6593
1581.00,3.7076
1580.00,3.7111
1579.00,3.7032
1578.00,3.9517
1577.00,3.8329
1576.00,3.8020
1575.00,3.7739
1574.00,3.6385
1573.00,3.5494
1572.00,3.6196
1571.00,3.4523
1570.00,3.1470
1569.00,3.0366
1568.00,3.0953
1567.00,3.2003
1566.00,3.2453
1565.00,3.4035
1564.00,3.9151
1563.00,4.1161
1562.00,3.8348
1561.00,3.6858
1560.00,3.6954
1559.00,3.5637
1558.00,3.2961
1557.00,3.0186
1556.00,2.7618
1555.00,2.4522
1554.00,2.1651
1553.00,1.9404
1552.00,1.7592
1551.00,1.6007
1550.00,1.4625
1549.00,1.3508
1548.00,1.2632
1547.00,1.1908
1546.00,1.1268
1545.00,1.0701
1544.00,1.0206
1543.00,0.9763
1542.00,0.9346
1541.00,0.8950
1540.00,0.8581
1539.00,0.8259
1538.00,0.8008
1537.00,0.7833
1536.00,0.7710
1535.00,0.7615
1534.00,0.7551
1533.00,0.7538
1532.00,0.7584
1531.00,0.7674
1530.00,0.7800
1529.00,0.7955
1528.00,0.8122
1527.00,0.8273
1526.00,0.8394
1525.00,0.8495
1524.00,0.8599
1523.00,0.8731
1522.00,0.8915
1521.00,0.9155
1520.00,0.9407
1519.00,0.9612
1518.00,0.9742
1517.00,0.9773
1516.00,0.9680
1515.00,0.9459
1514.00,0.9145
1513.00,0.8784
1512.00,0.8418
1511.00,0.8086
1510.00,0.7812
1509.00,0.7600
1508.00,0.7440
1507.00,0.7327
1506.00,0.7266
1505.00,0.7260
1504.00,0.7298
1503.00,0.7361
1502.00,0.7436
1501.00,0.7511
1500.00,0.7573
1499.00,0.7609
1498.00,0.7617
1497.00,0.7609
1496.00,0.7599
1495.00,0.7598
1494.00,0.7616
1493.00,0.7667
1492.00,0.7755
1491.00,0.7881
1490.00,0.8044
1489.00,0.8249
1488.00,0.8491
1487.00,0.8760
1486.00,0.9050
1485.00,0.9361
1484.00,0.9690
1483.00,1.0030
1482.00,1.0391
1481.00,1.0789
1480.00,1.1232
1479.00,1.1730
1478.00,1.2321
1477.00,1.3062
1476.00,1.3997
1475.00,1.5160
1474.00,1.6652
1473.00,1.8676
1472.00,2.1429
1471.00,2.4944
1470.00,2.9100
1469.00,3.4014
1468.00,4.1423
1467.00,4.6598
1466.00,4.0828
1465.00,3.9524
1464.00,3.8851
1463.00,3.9684
1462.00,4.1104
1461.00,4.1437
1460.00,4.1215
1459.00,3.9635
1458.00,3.9536
1457.00,3.9455
1456.00,3.9154
1455.00,3.9709
1454.00,3.8262
1453.00,3.7774
1452.00,3.8717
1451.00,3.8756
1450.00,3.8001
1449.00,3.7928
1448.00,3.8790
1447.00,3.9755
1446.00,4.0144
1445.00,4.0880
1444.00,4.1536
1443.00,3.9238
1442.00,3.7347
1441.00,3.7174
1440.00,3.7234
1439.00,3.5828
1438.00,3.4239
1437.00,3.3234
1436.00,3.1636
1435.00,2.9090
1434.00,2.6533
1433.00,2.4240
1432.00,2.2111
1431.00,2.0175
1430.00,1.8532
1429.00,1.7212
1428.00,1.6183
1427.00,1.5399
1426.00,1.4828
1425.00,1.4455
1424.00,1.4270
1423.00,1.4255
1422.00,1.4381
1421.00,1.4622
1420.00,1.4955
1419.00,1.5346
1418.00,1.5790
1417.00,1.6352
1416.00,1.7116
1415.00,1.8078
1414.00,1.9035
1413.00,1.9508
1412.00,1.9066
1411.00,1.7913
1410.00,1.6601
1409.00,1.5441
1408.00,1.4481
1407.00,1.3671
1406.00,1.2953
1405.00,1.2289
1404.00,1.1675
1403.00,1.1129
1402.00,1.0661
1401.00,1.0271
1400.00,0.9953
1399.00,0.9716
1398.00,0.9555
1397.00,0.9444
1396.00,0.9339
1395.00,0.9202
1394.00,0.9017
1393.00,0.8804
1392.00,0.8598
1391.00,0.8433
1390.00,0.8334
1389.00,0.8326
1388.00,0.8430
1387.00,0.8665
1386.00,0.9034
1385.00,0.9545
1384.00,1.0231
1383.00,1.1149
1382.00,1.2347
1381.00,1.3841
1380.00,1.5562
1379.00,1.7200
1378.00,1.8086
1377.00,1.7763
1376.00,1.6642
1375.00,1.5358
1374.00,1.4248
1373.00,1.3428
1372.00,1.2885
1371.00,1.2543
1370.00,1.2320
1369.00,1.2152
1368.00,1.1998
1367.00,1.1826
1366.00,1.1620
1365.00,1.1369
1364.00,1.1070
1363.00,1.0736
1362.00,1.0398
1361.00,1.0092
1360.00,0.9838
1359.00,0.9641
1358.00,0.9495
1357.00,0.9397
1356.00,0.9339
1355.00,0.9313
1354.00,0.9309
1353.00,0.9316
1352.00,0.9323
1351.00,0.9321
1350.00,0.9310
1349.00,0.9301
1348.00,0.9314
1347.00,0.9369
1346.00,0.9475
1345.00,0.9635
1344.00,0.9829
1343.00,1.0021
1342.00,1.0162
1341.00,1.0202
1340.00,1.0111
1339.00,0.9894
1338.00,0.9579
1337.00,0.9206
1336.00,0.8811
1335.00,0.8428
1334.00,0.8084
1333.00,0.7799
1332.00,0.7580
1331.00,0.7433
1330.00,0.7366
1329.00,0.7390
1328.00,0.7531
1327.00,0.7819
1326.00,0.8264
1325.00,0.8797
1324.00,0.9241
1323.00,0.9377
1322.00,0.9151
1321.00,0.8733
1320.00,0.8324
1319.00,0.8028
1318.00,0.7856
1317.00,0.7777
1316.00,0.7762
1315.00,0.7789
1314.00,0.7848
1313.00,0.7933
1312.00,0.8036
1311.00,0.8146
1310.00,0.8254
1309.00,0.8363
1308.00,0.8481
1307.00,0.8627
1306.00,0.8822
1305.00,0.9065
1304.00,0.9305
1303.00,0.9444
1302.00,0.9409
1301.00,0.9240
1300.00,0.9061
1299.00,0.8983
1298.00,0.9030
1297.00,0.9127
1296.00,0.9138
1295.00,0.8967
1294.00,0.8640
1293.00,0.8268
1292.00,0.7944
1291.00,0.7698
1290.00,0.7518
1289.00,0.7377
1288.00,0.7258
1287.00,0.7144
1286.00,0.7024
1285.00,0.6894
1284.00,0.6754
1283.00,0.6614
1282.00,0.6482
1281.00,0.6365
1280.00,0.6272
1279.00,0.6201
1278.00,0.6149
1277.00,0.6111
1276.00,0.6086
1275.00,0.6076
1274.00,0.6082
1273.00,0.6106
1272.00,0.6149
1271.00,0.6204
1270.00,0.6255
1269.00,0.6283
1268.00,0.6272
1267.00,0.6217
1266.00,0.6128
1265.00,0.6023
1264.00,0.5925
1263.00,0.5850
1262.00,0.5801
1261.00,0.5777
1260.00,0.5774
1259.00,0.5785
1258.00,0.5802
1257.00,0.5814
1256.00,0.5813
1255.00,0.5798
1254.00,0.5771
1253.00,0.5737
1252.00,0.5701
1251.00,0.5662
1250.00,0.5621
1249.00,0.5578
1248.00,0.5537
1247.00,0.5498
1246.00,0.5463
1245.00,0.5425
1244.00,0.5382
1243.00,0.5332
1242.00,0.5274
1241.00,0.5208
1240.00,0.5143
1239.00,0.5085
1238.00,0.5039
1237.00,0.5004
1236.00,0.4983
1235.00,0.4976
1234.00,0.4986
1233.00,0.5015
1232.00,0.5065
1231.00,0.5137
1230.00,0.5224
1229.00,0.5314
1228.00,0.5399
1227.00,0.5475
1226.00,0.5544
1225.00,0.5611
1224.00,0.5683
1223.00,0.5765
1222.00,0.5852
1221.00,0.5918
1220.00,0.5929
1219.00,0.5865
1218.00,0.5739
1217.00,0.5597
1216.00,0.5484
1215.00,0.5416
1214.00,0.5382
1213.00,0.5352
1212.00,0.5302
1211.00,0.5221
1210.00,0.5120
1209.00,0.5021
1208.00,0.4946
1207.00,0.4904
1206.00,0.4890
1205.00,0.4887
1204.00,0.4878
1203.00,0.4858
1202.00,0.4832
1201.00,0.4810
1200.00,0.4803
1199.00,0.4815
1198.00,0.4843
1197.00,0.4880
1196.00,0.4927
1195.00,0.4987
1194.00,0.5061
1193.00,0.5149
1192.00,0.5240
1191.00,0.5319
1190.00,0.5367
1189.00,0.5370
1188.00,0.5333
1187.00,0.5269
1186.00,0.5198
1185.00,0.5133
1184.00,0.5080
1183.00,0.5039
1182.00,0.5008
1181.00,0.4982
1180.00,0.4955
1179.00,0.4925
1178.00,0.4888
1177.00,0.4841
1176.00,0.4784
1175.00,0.4720
1174.00,0.4653
1173.00,0.4585
1172.00,0.4520
1171.00,0.4459
1170.00,0.4404
1169.00,0.4355
1168.00,0.4311
1167.00,0.4274
1166.00,0.4244
1165.00,0.4221
1164.00,0.4204
1163.00,0.4198
1162.00,0.4204
1161.00,0.4228
1160.00,0.4273
1159.00,0.4349
1158.00,0.4464
1157.00,0.4637
1156.00,0.4905
1155.00,0.5316
1154.00,0.5886
1153.00,0.6519
1152.00,0.6974
1151.00,0.7005
1150.00,0.6642
1149.00,0.6154
1148.00,0.5757
1147.00,0.5514
1146.00,0.5400
1145.00,0.5374
1144.00,0.5411
1143.00,0.5507
1142.00,0.5665
1141.00,0.5894
1140.00,0.6194
1139.00,0.6536
1138.00,0.6855
1137.00,0.7075
1136.00,0.7160
1135.00,0.7125
1134.00,0.7008
1133.00,0.6837
1132.00,0.6622
1131.00,0.6370
1130.00,0.6103
1129.00,0.5851
1128.00,0.5643
1127.00,0.5492
1126.00,0.5398
1125.00,0.5350
1124.00,0.5338
1123.00,0.5349
1122.00,0.5371
1121.00,0.5399
1120.00,0.5435
1119.00,0.5487
1118.00,0.5563
1117.00,0.5666
1116.00,0.5788
1115.00,0.5901
1114.00,0.5961
1113.00,0.5934
1112.00,0.5816
1111.00,0.5637
1110.00,0.5439
1109.00,0.5257
1108.00,0.5109
1107.00,0.5000
1106.00,0.4928
1105.00,0.4885
1104.00,0.4863
1103.00,0.4857
1102.00,0.4859
1101.00,0.4866
1100.00,0.4873
1099.00,0.4878
1098.00,0.4876
1097.00,0.4864
1096.00,0.4844
1095.00,0.4817
1094.00,0.4789
1093.00,0.4764
1092.00,0.4747
1091.00,0.4745
1090.00,0.4760
1089.00,0.4792
1088.00,0.4843
1087.00,0.4916
1086.00,0.5011
1085.00,0.5129
1084.00,0.5272
1083.00,0.5436
1082.00,0.5616
1081.00,0.5801
1080.00,0.5977
1079.00,0.6128
1078.00,0.6239
1077.00,0.6298
1076.00,0.6301
1075.00,0.6255
1074.00,0.6169
1073.00,0.6063
1072.00,0.5949
1071.00,0.5839
1070.00,0.5737
1069.00,0.5649
1068.00,0.5578
1067.00,0.5526
1066.00,0.5491
1065.00,0.5473
1064.00,0.5467
1063.00,0.5471
1062.00,0.5477
1061.00,0.5483
1060.00,0.5484
1059.00,0.5480
1058.00,0.5470
1057.00,0.5457
1056.00,0.5445
1055.00,0.5438
1054.00,0.5436
1053.00,0.5439
1052.00,0.5451
1051.00,0.5474
1050.00,0.5507
1049.00,0.5549
1048.00,0.5596
1047.00,0.5645
1046.00,0.5691
1045.00,0.5729
1044.00,0.5758
1043.00,0.5779
1042.00,0.5797
1041.00,0.5816
1040.00,0.5839
1039.00,0.5865
1038.00,0.5891
1037.00,0.5916
1036.00,0.5946
1035.00,0.5985
1034.00,0.6037
1033.00,0.6109
1032.00,0.6203
1031.00,0.6316
1030.00,0.6439
1029.00,0.6555
1028.00,0.6645
1027.00,0.6695
1026.00,0.6695
1025.00,0.6653
1024.00,0.6586
1023.00,0.6514
1022.00,0.6454
1021.00,0.6416
1020.00,0.6402
1019.00,0.6411
1018.00,0.6439
1017.00,0.6484
1016.00,0.6543
1015.00,0.6609
1014.00,0.6677
1013.00,0.6742
1012.00,0.6805
1011.00,0.6869
1010.00,0.6936
1009.00,0.7007
1008.00,0.7083
1007.00,0.7160
1006.00,0.7236
1005.00,0.7307
1004.00,0.7373
1003.00,0.7433
1002.00,0.7481
1001.00,0.7511
1000.00,0.7516
999.00,0.7488
998.00,0.7425
997.00,0.7329
996.00,0.7211
995.00,0.7080
994.00,0.6942
993.00,0.6800
992.00,0.6652
991.00,0.6499
990.00,0.6343
989.00,0.6189
988.00,0.6043
987.00,0.5908
986.00,0.5785
985.00,0.5673
984.00,0.5568
983.00,0.5470
982.00,0.5376
981.00,0.5282
980.00,0.5188
979.00,0.5092
978.00,0.4995
977.00,0.4901
976.00,0.4811
975.00,0.4732
974.00,0.4663
973.00,0.4606
972.00,0.4562
971.00,0.4531
970.00,0.4511
969.00,0.4501
968.00,0.4500
967.00,0.4505
966.00,0.4509
965.00,0.4506
964.00,0.4490
963.00,0.4459
962.00,0.4416
961.00,0.4366
960.00,0.4317
959.00,0.4275
958.00,0.4246
957.00,0.4228
956.00,0.4219
955.00,0.4215
954.00,0.4212
953.00,0.4211
952.00,0.4212
951.00,0.4223
950.00,0.4246
949.00,0.4286
948.00,0.4349
947.00,0.4432
946.00,0.4529
945.00,0.4625
944.00,0.4704
943.00,0.4751
942.00,0.4759
941.00,0.4735
940.00,0.4690
939.00,0.4638
938.00,0.4587
937.00,0.4543
936.00,0.4507
935.00,0.4479
934.00,0.4460
933.00,0.4451
932.00,0.4459
931.00,0.4491
930.00,0.4555
929.00,0.4656
928.00,0.4804
927.00,0.5000
926.00,0.5234
925.00,0.5474
924.00,0.5680
923.00,0.5820
922.00,0.5889
921.00,0.5905
920.00,0.5881
919.00,0.5815
918.00,0.5695
917.00,0.5514
916.00,0.5279
915.00,0.5016
914.00,0.4758
913.00,0.4535
912.00,0.4361
911.00,0.4235
910.00,0.4143
909.00,0.4073
908.00,0.4016
907.00,0.3969
906.00,0.3930
905.00,0.3900
904.00,0.3880
903.00,0.3869
902.00,0.3868
901.00,0.3874
900.00,0.3887
899.00,0.3906
898.00,0.3932
897.00,0.3966
896.00,0.4010
895.00,0.4066
894.00,0.4136
893.00,0.4216
892.00,0.4301
891.00,0.4380
890.00,0.4441
889.00,0.4471
888.00,0.4465
887.00,0.4428
886.00,0.4371
885.00,0.4307
884.00,0.4247
883.00,0.4201
882.00,0.4172
881.00,0.4158
880.00,0.4155
879.00,0.4158
878.00,0.4160
877.00,0.4162
876.00,0.4165
875.00,0.4173
874.00,0.4185
873.00,0.4199
872.00,0.4215
871.00,0.4235
870.00,0.4264
869.00,0.4308
868.00,0.4372
867.00,0.4460
866.00,0.4568
865.00,0.4694
864.00,0.4830
863.00,0.4960
862.00,0.5060
861.00,0.5105
860.00,0.5082
859.00,0.5000
858.00,0.4885
857.00,0.4765
856.00,0.4663
855.00,0.4587
854.00,0.4538
853.00,0.4513
852.00,0.4505
851.00,0.4510
850.00,0.4523
849.00,0.4542
848.00,0.4566
847.00,0.4592
846.00,0.4622
845.00,0.4656
844.00,0.4700
843.00,0.4761
842.00,0.4847
841.00,0.4971
840.00,0.5138
839.00,0.5340
838.00,0.5544
837.00,0.5701
836.00,0.5761
835.00,0.5704
834.00,0.5551
833.00,0.5355
832.00,0.5167
831.00,0.5016
830.00,0.4910
829.00,0.4850
828.00,0.4830
827.00,0.4845
826.00,0.4890
825.00,0.4956
824.00,0.5034
823.00,0.5107
822.00,0.5157
821.00,0.5169
820.00,0.5139
819.00,0.5073
818.00,0.4986
817.00,0.4892
816.00,0.4806
815.00,0.4735
814.00,0.4677
813.00,0.4632
812.00,0.4597
811.00,0.4568
810.00,0.4539
809.00,0.4508
808.00,0.4477
807.00,0.4446
806.00,0.4418
805.00,0.4394
804.00,0.4378
803.00,0.4374
802.00,0.4380
801.00,0.4396
800.00,0.4420
799.00,0.4452
798.00,0.4485
797.00,0.4518
796.00,0.4552
795.00,0.4590
794.00,0.4634
793.00,0.4680
792.00,0.4728
791.00,0.4775
790.00,0.4819
789.00,0.4860
788.00,0.4901
787.00,0.4955
786.00,0.5035
785.00,0.5158
784.00,0.5334
783.00,0.5560
782.00,0.5804
781.00,0.6005
780.00,0.6092
779.00,0.6028
778.00,0.5833
777.00,0.5572
776.00,0.5315
775.00,0.5103
774.00,0.4952
773.00,0.4859
772.00,0.4818
771.00,0.4821
770.00,0.4862
769.00,0.4936
768.00,0.5037
767.00,0.5157
766.00,0.5284
765.00,0.5406
764.00,0.5516
763.00,0.5611
762.00,0.5688
761.00,0.5748
760.00,0.5784
759.00,0.5791
758.00,0.5770
757.00,0.5735
756.00,0.5708
755.00,0.5704
754.00,0.5721
753.00,0.5753
752.00,0.5796
751.00,0.5855
750.00,0.5938
749.00,0.6051
748.00,0.6192
747.00,0.6350
746.00,0.6504
745.00,0.6632
744.00,0.6718
743.00,0.6757
742.00,0.6759
741.00,0.6743
740.00,0.6733
739.00,0.6745
738.00,0.6790
737.00,0.6871
736.00,0.6993
735.00,0.7156
734.00,0.7360
733.00,0.7608
732.00,0.7907
731.00,0.8263
730.00,0.8687
729.00,0.9189
728.00,0.9783
727.00,1.0484
726.00,1.1295
725.00,1.2189
724.00,1.3086
723.00,1.3820
722.00,1.4139
721.00,1.3842
720.00,1.3003
719.00,1.1913
718.00,1.0833
717.00,0.9890
716.00,0.9119
715.00,0.8510
714.00,0.8029
713.00,0.7638
712.00,0.7310
711.00,0.7028
710.00,0.6780
709.00,0.6561
708.00,0.6367
707.00,0.6196
706.00,0.6047
705.00,0.5916
704.00,0.5803
703.00,0.5709
702.00,0.5630
701.00,0.5563
700.00,0.5501
699.00,0.5440
698.00,0.5380
697.00,0.5323
696.00,0.5272
695.00,0.5231
694.00,0.5200
693.00,0.5180
692.00,0.5171
691.00,0.5171
690.00,0.5174
689.00,0.5180
688.00,0.5192
687.00,0.5217
686.00,0.5255
685.00,0.5306
684.00,0.5364
683.00,0.5428
682.00,0.5501
681.00,0.5589
680.00,0.5696
679.00,0.5818
678.00,0.5948
677.00,0.6076
676.00,0.6194
675.00,0.6295
674.00,0.6372
673.00,0.6422
672.00,0.6444
671.00,0.6446
670.00,0.6439
669.00,0.6435
668.00,0.6438
667.00,0.6456
666.00,0.6497
665.00,0.6549
664.00,0.6595
663.00,0.6621
662.00,0.6617
661.00,0.6578
660.00,0.6507
659.00,0.6416
658.00,0.6322
657.00,0.6237
656.00,0.6163
655.00,0.6101
654.00,0.6050
653.00,0.6016
652.00,0.6002
651.00,0.6015
650.00,0.6053
649.00,0.6112
648.00,0.6187
647.00,0.6279
646.00,0.6383
645.00,0.6491
644.00,0.6588
643.00,0.6663
642.00,0.6710
641.00,0.6726
640.00,0.6704
639.00,0.6636
638.00,0.6523
637.00,0.6374
636.00,0.6209
635.00,0.6044
634.00,0.5894
633.00,0.5766
632.00,0.5666
631.00,0.5597
630.00,0.5557
629.00,0.5542
628.00,0.5550
627.00,0.5582
626.00,0.5643
625.00,0.5734
624.00,0.5854
623.00,0.6003
622.00,0.6174
621.00,0.6361
620.00,0.6557
619.00,0.6749
618.00,0.6914
617.00,0.7020
616.00,0.7046
615.00,0.6988
614.00,0.6856
613.00,0.6668
612.00,0.6449
611.00,0.6223
610.00,0.6011
609.00,0.5825
608.00,0.5668
607.00,0.5540
606.00,0.5439
605.00,0.5361
604.00,0.5302
603.00,0.5258
602.00,0.5226
601.00,0.5202
600.00,0.5183
599.00,0.5170
598.00,0.5166
597.00,0.5167
596.00,0.5174
595.00,0.5185
594.00,0.5203
593.00,0.5225
592.00,0.5248
591.00,0.5270
590.00,0.5290
589.00,0.5311
588.00,0.5339
587.00,0.5375
586.00,0.5418
585.00,0.5461
584.00,0.5495
583.00,0.5523
582.00,0.5550
581.00,0.5583
580.00,0.5622
579.00,0.5662
578.00,0.5700
577.00,0.5738
576.00,0.5784
575.00,0.5842
574.00,0.5908
573.00,0.5979
572.00,0.6056
571.00,0.6144
570.00,0.6248
569.00,0.6364
568.00,0.6481
567.00,0.6593
566.00,0.6700
565.00,0.6808
564.00,0.6918
563.00,0.7024
562.00,0.7115
561.00,0.7187
560.00,0.7242
559.00,0.7281
558.00,0.7304
557.00,0.7317
556.00,0.7322
555.00,0.7326
554.00,0.7328
553.00,0.7334
552.00,0.7352
551.00,0.7391
550.00,0.7456
