Created as New Dataset,
cm-1,A
4000.00,0.4056
3999.00,0.4054
3998.00,0.4052
3997.00,0.4050
3996.00,0.4047
3995.00,0.4044
3994.00,0.4040
3993.00,0.4036
3992.00,0.4033
3991.00,0.4029
3990.00,0.4025
3989.00,0.4021
3988.00,0.4016
3987.00,0.4011
3986.00,0.4006
3985.00,0.4000
3984.00,0.3995
3983.00,0.3990
3982.00,0.3985
3981.00,0.3981
3980.00,0.3976
3979.00,0.3972
3978.00,0.3968
3977.00,0.3963
3976.00,0.3959
3975.00,0.3954
3974.00,0.3951
3973.00,0.3948
3972.00,0.3945
3971.00,0.3941
3970.00,0.3936
3969.00,0.3932
3968.00,0.3928
3967.00,0.3924
3966.00,0.3920
3965.00,0.3917
3964.00,0.3913
3963.00,0.3909
3962.00,0.3905
3961.00,0.3902
3960.00,0.3899
3959.00,0.3896
3958.00,0.3893
3957.00,0.3889
3956.00,0.3886
3955.00,0.3883
3954.00,0.3880
3953.00,0.3877
3952.00,0.3874
3951.00,0.3871
3950.00,0.3868
3949.00,0.3866
3948.00,0.3863
3947.00,0.3860
3946.00,0.3858
3945.00,0.3856
3944.00,0.3854
3943.00,0.3853
3942.00,0.3851
3941.00,0.3850
3940.00,0.3848
3939.00,0.3847
3938.00,0.3846
3937.00,0.3844
3936.00,0.3843
3935.00,0.3841
3934.00,0.3840
3933.00,0.3839
3932.00,0.3839
3931.00,0.3839
3930.00,0.3838
3929.00,0.3838
3928.00,0.3837
3927.00,0.3836
3926.00,0.3836
3925.00,0.3835
3924.00,0.3834
3923.00,0.3833
3922.00,0.3833
3921.00,0.3832
3920.00,0.3831
3919.00,0.3830
3918.00,0.3829
3917.00,0.3828
3916.00,0.3828
3915.00,0.3827
3914.00,0.3826
3913.00,0.3825
3912.00,0.3823
3911.00,0.3822
3910.00,0.3820
3909.00,0.3819
3908.00,0.3817
3907.00,0.3814
3906.00,0.3812
3905.00,0.3809
3904.00,0.3806
3903.00,0.3804
3902.00,0.3802
3901.00,0.3800
3900.00,0.3800
3899.00,0.3799
3898.00,0.3800
3897.00,0.3800
3896.00,0.3799
3895.00,0.3797
3894.00,0.3796
3893.00,0.3795
3892.00,0.3793
3891.00,0.3791
3890.00,0.3789
3889.00,0.3788
3888.00,0.3787
3887.00,0.3786
3886.00,0.3784
3885.00,0.3782
3884.00,0.3781
3883.00,0.3780
3882.00,0.3779
3881.00,0.3776
3880.00,0.3773
3879.00,0.3772
3878.00,0.3772
3877.00,0.3771
3876.00,0.3770
3875.00,0.3767
3874.00,0.3765
3873.00,0.3763
3872.00,0.3761
3871.00,0.3759
3870.00,0.3756
3869.00,0.3753
3868.00,0.3752
3867.00,0.3753
3866.00,0.3752
3865.00,0.3750
3864.00,0.3748
3863.00,0.3747
3862.00,0.3747
3861.00,0.3747
3860.00,0.3745
3859.00,0.3745
3858.00,0.3744
3857.00,0.3745
3856.00,0.3746
3855.00,0.3747
3854.00,0.3747
3853.00,0.3745
3852.00,0.3745
3851.00,0.3747
3850.00,0.3748
3849.00,0.3745
3848.00,0.3743
3847.00,0.3742
3846.00,0.3743
3845.00,0.3742
3844.00,0.3741
3843.00,0.3739
3842.00,0.3737
3841.00,0.3735
3840.00,0.3733
3839.00,0.3732
3838.00,0.3730
3837.00,0.3728
3836.00,0.3728
3835.00,0.3727
3834.00,0.3727
3833.00,0.3727
3832.00,0.3726
3831.00,0.3726
3830.00,0.3726
3829.00,0.3725
3828.00,0.3724
3827.00,0.3723
3826.00,0.3721
3825.00,0.3719
3824.00,0.3718
3823.00,0.3718
3822.00,0.3716
3821.00,0.3713
3820.00,0.3710
3819.00,0.3710
3818.00,0.3710
3817.00,0.3710
3816.00,0.3709
3815.00,0.3707
3814.00,0.3708
3813.00,0.3708
3812.00,0.3707
3811.00,0.3705
3810.00,0.3705
3809.00,0.3705
3808.00,0.3705
3807.00,0.3702
3806.00,0.3698
3805.00,0.3695
3804.00,0.3693
3803.00,0.3691
3802.00,0.3688
3801.00,0.3685
3800.00,0.3683
3799.00,0.3683
3798.00,0.3682
3797.00,0.3680
3796.00,0.3677
3795.00,0.3677
3794.00,0.3677
3793.00,0.3676
3792.00,0.3675
3791.00,0.3674
3790.00,0.3672
3789.00,0.3671
3788.00,0.3670
3787.00,0.3668
3786.00,0.3666
3785.00,0.3664
3784.00,0.3663
3783.00,0.3661
3782.00,0.3659
3781.00,0.3658
3780.00,0.3656
3779.00,0.3655
3778.00,0.3654
3777.00,0.3655
3776.00,0.3656
3775.00,0.3656
3774.00,0.3655
3773.00,0.3656
3772.00,0.3656
3771.00,0.3656
3770.00,0.3655
3769.00,0.3654
3768.00,0.3652
3767.00,0.3652
3766.00,0.3651
3765.00,0.3650
3764.00,0.3650
3763.00,0.3651
3762.00,0.3651
3761.00,0.3650
3760.00,0.3649
3759.00,0.3647
3758.00,0.3645
3757.00,0.3644
3756.00,0.3643
3755.00,0.3641
3754.00,0.3640
3753.00,0.3640
3752.00,0.3638
3751.00,0.3637
3750.00,0.3634
3749.00,0.3632
3748.00,0.3631
3747.00,0.3631
3746.00,0.3632
3745.00,0.3632
3744.00,0.3633
3743.00,0.3634
3742.00,0.3637
3741.00,0.3637
3740.00,0.3634
3739.00,0.3631
3738.00,0.3630
3737.00,0.3631
3736.00,0.3630
3735.00,0.3629
3734.00,0.3629
3733.00,0.3631
3732.00,0.3634
3731.00,0.3636
3730.00,0.3638
3729.00,0.3640
3728.00,0.3642
3727.00,0.3642
3726.00,0.3643
3725.00,0.3644
3724.00,0.3646
3723.00,0.3649
3722.00,0.3651
3721.00,0.3654
3720.00,0.3659
3719.00,0.3664
3718.00,0.3670
3717.00,0.3676
3716.00,0.3682
3715.00,0.3690
3714.00,0.3698
3713.00,0.3709
3712.00,0.3721
3711.00,0.3735
3710.00,0.3751
3709.00,0.3769
3708.00,0.3789
3707.00,0.3810
3706.00,0.3833
3705.00,0.3857
3704.00,0.3882
3703.00,0.3909
3702.00,0.3937
3701.00,0.3964
3700.00,0.3990
3699.00,0.4013
3698.00,0.4035
3697.00,0.4055
3696.00,0.4074
3695.00,0.4092
3694.00,0.4108
3693.00,0.4124
3692.00,0.4140
3691.00,0.4158
3690.00,0.4178
3689.00,0.4201
3688.00,0.4225
3687.00,0.4249
3686.00,0.4274
3685.00,0.4299
3684.00,0.4324
3683.00,0.4351
3682.00,0.4379
3681.00,0.4408
3680.00,0.4436
3679.00,0.4463
3678.00,0.4491
3677.00,0.4523
3676.00,0.4558
3675.00,0.4592
3674.00,0.4623
3673.00,0.4653
3672.00,0.4685
3671.00,0.4719
3670.00,0.4756
3669.00,0.4795
3668.00,0.4833
3667.00,0.4870
3666.00,0.4906
3665.00,0.4943
3664.00,0.4984
3663.00,0.5026
3662.00,0.5070
3661.00,0.5114
3660.00,0.5159
3659.00,0.5206
3658.00,0.5257
3657.00,0.5312
3656.00,0.5368
3655.00,0.5421
3654.00,0.5470
3653.00,0.5519
3652.00,0.5571
3651.00,0.5630
3650.00,0.5695
3649.00,0.5765
3648.00,0.5837
3647.00,0.5906
3646.00,0.5971
3645.00,0.6032
3644.00,0.6092
3643.00,0.6152
3642.00,0.6211
3641.00,0.6269
3640.00,0.6325
3639.00,0.6378
3638.00,0.6426
3637.00,0.6471
3636.00,0.6512
3635.00,0.6549
3634.00,0.6583
3633.00,0.6612
3632.00,0.6638
3631.00,0.6662
3630.00,0.6682
3629.00,0.6696
3628.00,0.6704
3627.00,0.6708
3626.00,0.6708
3625.00,0.6702
3624.00,0.6691
3623.00,0.6676
3622.00,0.6655
3621.00,0.6622
3620.00,0.6576
3619.00,0.6517
3618.00,0.6454
3617.00,0.6392
3616.00,0.6331
3615.00,0.6268
3614.00,0.6201
3613.00,0.6133
3612.00,0.6066
3611.00,0.5998
3610.00,0.5930
3609.00,0.5860
3608.00,0.5792
3607.00,0.5727
3606.00,0.5667
3605.00,0.5612
3604.00,0.5559
3603.00,0.5508
3602.00,0.5458
3601.00,0.5408
3600.00,0.5358
3599.00,0.5311
3598.00,0.5267
3597.00,0.5225
3596.00,0.5185
3595.00,0.5146
3594.00,0.5109
3593.00,0.5076
3592.00,0.5046
3591.00,0.5018
3590.00,0.4990
3589.00,0.4962
3588.00,0.4933
3587.00,0.4906
3586.00,0.4882
3585.00,0.4861
3584.00,0.4843
3583.00,0.4826
3582.00,0.4810
3581.00,0.4795
3580.00,0.4781
3579.00,0.4768
3578.00,0.4756
3577.00,0.4745
3576.00,0.4735
3575.00,0.4726
3574.00,0.4718
3573.00,0.4710
3572.00,0.4703
3571.00,0.4697
3570.00,0.4691
3569.00,0.4685
3568.00,0.4679
3567.00,0.4674
3566.00,0.4670
3565.00,0.4668
3564.00,0.4666
3563.00,0.4664
3562.00,0.4663
3561.00,0.4662
3560.00,0.4662
3559.00,0.4663
3558.00,0.4663
3557.00,0.4664
3556.00,0.4664
3555.00,0.4665
3554.00,0.4666
3553.00,0.4668
3552.00,0.4669
3551.00,0.4672
3550.00,0.4675
3549.00,0.4678
3548.00,0.4682
3547.00,0.4687
3546.00,0.4692
3545.00,0.4698
3544.00,0.4705
3543.00,0.4712
3542.00,0.4719
3541.00,0.4725
3540.00,0.4732
3539.00,0.4739
3538.00,0.4746
3537.00,0.4754
3536.00,0.4763
3535.00,0.4772
3534.00,0.4781
3533.00,0.4790
3532.00,0.4799
3531.00,0.4808
3530.00,0.4818
3529.00,0.4828
3528.00,0.4838
3527.00,0.4848
3526.00,0.4859
3525.00,0.4870
3524.00,0.4882
3523.00,0.4895
3522.00,0.4908
3521.00,0.4920
3520.00,0.4931
3519.00,0.4942
3518.00,0.4953
3517.00,0.4965
3516.00,0.4977
3515.00,0.4989
3514.00,0.5000
3513.00,0.5011
3512.00,0.5022
3511.00,0.5032
3510.00,0.5043
3509.00,0.5054
3508.00,0.5064
3507.00,0.5074
3506.00,0.5085
3505.00,0.5095
3504.00,0.5106
3503.00,0.5117
3502.00,0.5128
3501.00,0.5140
3500.00,0.5151
3499.00,0.5164
3498.00,0.5176
3497.00,0.5189
3496.00,0.5202
3495.00,0.5216
3494.00,0.5230
3493.00,0.5244
3492.00,0.5257
3491.00,0.5272
3490.00,0.5286
3489.00,0.5301
3488.00,0.5317
3487.00,0.5332
3486.00,0.5348
3485.00,0.5365
3484.00,0.5383
3483.00,0.5400
3482.00,0.5418
3481.00,0.5437
3480.00,0.5456
3479.00,0.5475
3478.00,0.5495
3477.00,0.5516
3476.00,0.5536
3475.00,0.5557
3474.00,0.5578
3473.00,0.5599
3472.00,0.5622
3471.00,0.5644
3470.00,0.5667
3469.00,0.5690
3468.00,0.5714
3467.00,0.5737
3466.00,0.5760
3465.00,0.5783
3464.00,0.5807
3463.00,0.5830
3462.00,0.5855
3461.00,0.5879
3460.00,0.5905
3459.00,0.5931
3458.00,0.5957
3457.00,0.5984
3456.00,0.6012
3455.00,0.6040
3454.00,0.6068
3453.00,0.6096
3452.00,0.6124
3451.00,0.6152
3450.00,0.6182
3449.00,0.6214
3448.00,0.6247
3447.00,0.6281
3446.00,0.6315
3445.00,0.6350
3444.00,0.6386
3443.00,0.6422
3442.00,0.6457
3441.00,0.6493
3440.00,0.6528
3439.00,0.6563
3438.00,0.6597
3437.00,0.6630
3436.00,0.6662
3435.00,0.6693
3434.00,0.6723
3433.00,0.6752
3432.00,0.6782
3431.00,0.6811
3430.00,0.6840
3429.00,0.6869
3428.00,0.6898
3427.00,0.6926
3426.00,0.6954
3425.00,0.6984
3424.00,0.7014
3423.00,0.7044
3422.00,0.7074
3421.00,0.7103
3420.00,0.7133
3419.00,0.7164
3418.00,0.7197
3417.00,0.7231
3416.00,0.7266
3415.00,0.7300
3414.00,0.7333
3413.00,0.7366
3412.00,0.7400
3411.00,0.7433
3410.00,0.7467
3409.00,0.7500
3408.00,0.7533
3407.00,0.7565
3406.00,0.7598
3405.00,0.7632
3404.00,0.7666
3403.00,0.7700
3402.00,0.7734
3401.00,0.7768
3400.00,0.7802
3399.00,0.7835
3398.00,0.7869
3397.00,0.7903
3396.00,0.7936
3395.00,0.7969
3394.00,0.8001
3393.00,0.8033
3392.00,0.8066
3391.00,0.8100
3390.00,0.8134
3389.00,0.8168
3388.00,0.8201
3387.00,0.8235
3386.00,0.8268
3385.00,0.8302
3384.00,0.8335
3383.00,0.8366
3382.00,0.8397
3381.00,0.8428
3380.00,0.8459
3379.00,0.8491
3378.00,0.8524
3377.00,0.8558
3376.00,0.8592
3375.00,0.8625
3374.00,0.8658
3373.00,0.8690
3372.00,0.8721
3371.00,0.8754
3370.00,0.8786
3369.00,0.8820
3368.00,0.8854
3367.00,0.8889
3366.00,0.8924
3365.00,0.8960
3364.00,0.8996
3363.00,0.9031
3362.00,0.9067
3361.00,0.9103
3360.00,0.9139
3359.00,0.9174
3358.00,0.9211
3357.00,0.9247
3356.00,0.9284
3355.00,0.9320
3354.00,0.9356
3353.00,0.9393
3352.00,0.9429
3351.00,0.9466
3350.00,0.9503
3349.00,0.9540
3348.00,0.9578
3347.00,0.9614
3346.00,0.9649
3345.00,0.9683
3344.00,0.9718
3343.00,0.9752
3342.00,0.9785
3341.00,0.9817
3340.00,0.9849
3339.00,0.9880
3338.00,0.9911
3337.00,0.9943
3336.00,0.9973
3335.00,1.0001
3334.00,1.0027
3333.00,1.0050
3332.00,1.0071
3331.00,1.0091
3330.00,1.0110
3329.00,1.0128
3328.00,1.0144
3327.00,1.0159
3326.00,1.0172
3325.00,1.0184
3324.00,1.0193
3323.00,1.0200
3322.00,1.0206
3321.00,1.0209
3320.00,1.0210
3319.00,1.0209
3318.00,1.0206
3317.00,1.0203
3316.00,1.0197
3315.00,1.0188
3314.00,1.0175
3313.00,1.0162
3312.00,1.0146
3311.00,1.0129
3310.00,1.0110
3309.00,1.0089
3308.00,1.0065
3307.00,1.0039
3306.00,1.0010
3305.00,0.9981
3304.00,0.9951
3303.00,0.9920
3302.00,0.9889
3301.00,0.9858
3300.00,0.9826
3299.00,0.9793
3298.00,0.9759
3297.00,0.9724
3296.00,0.9687
3295.00,0.9651
3294.00,0.9616
3293.00,0.9581
3292.00,0.9546
3291.00,0.9511
3290.00,0.9475
3289.00,0.9440
3288.00,0.9405
3287.00,0.9369
3286.00,0.9335
3285.00,0.9301
3284.00,0.9269
3283.00,0.9237
3282.00,0.9205
3281.00,0.9174
3280.00,0.9142
3279.00,0.9111
3278.00,0.9079
3277.00,0.9049
3276.00,0.9019
3275.00,0.8991
3274.00,0.8963
3273.00,0.8935
3272.00,0.8906
3271.00,0.8877
3270.00,0.8849
3269.00,0.8820
3268.00,0.8791
3267.00,0.8762
3266.00,0.8735
3265.00,0.8708
3264.00,0.8681
3263.00,0.8654
3262.00,0.8628
3261.00,0.8602
3260.00,0.8578
3259.00,0.8552
3258.00,0.8526
3257.00,0.8500
3256.00,0.8473
3255.00,0.8447
3254.00,0.8422
3253.00,0.8396
3252.00,0.8371
3251.00,0.8347
3250.00,0.8323
3249.00,0.8299
3248.00,0.8274
3247.00,0.8249
3246.00,0.8224
3245.00,0.8200
3244.00,0.8176
3243.00,0.8153
3242.00,0.8130
3241.00,0.8107
3240.00,0.8084
3239.00,0.8060
3238.00,0.8037
3237.00,0.8015
3236.00,0.7993
3235.00,0.7972
3234.00,0.7951
3233.00,0.7931
3232.00,0.7912
3231.00,0.7893
3230.00,0.7873
3229.00,0.7853
3228.00,0.7833
3227.00,0.7814
3226.00,0.7798
3225.00,0.7783
3224.00,0.7768
3223.00,0.7753
3222.00,0.7738
3221.00,0.7723
3220.00,0.7707
3219.00,0.7693
3218.00,0.7679
3217.00,0.7665
3216.00,0.7652
3215.00,0.7637
3214.00,0.7623
3213.00,0.7609
3212.00,0.7596
3211.00,0.7582
3210.00,0.7568
3209.00,0.7554
3208.00,0.7541
3207.00,0.7528
3206.00,0.7516
3205.00,0.7504
3204.00,0.7492
3203.00,0.7481
3202.00,0.7469
3201.00,0.7457
3200.00,0.7444
3199.00,0.7431
3198.00,0.7417
3197.00,0.7403
3196.00,0.7389
3195.00,0.7375
3194.00,0.7361
3193.00,0.7348
3192.00,0.7334
3191.00,0.7319
3190.00,0.7303
3189.00,0.7287
3188.00,0.7271
3187.00,0.7255
3186.00,0.7239
3185.00,0.7223
3184.00,0.7206
3183.00,0.7190
3182.00,0.7174
3181.00,0.7157
3180.00,0.7138
3179.00,0.7120
3178.00,0.7101
3177.00,0.7083
3176.00,0.7065
3175.00,0.7047
3174.00,0.7028
3173.00,0.7010
3172.00,0.6992
3171.00,0.6974
3170.00,0.6956
3169.00,0.6939
3168.00,0.6922
3167.00,0.6906
3166.00,0.6889
3165.00,0.6873
3164.00,0.6856
3163.00,0.6839
3162.00,0.6822
3161.00,0.6805
3160.00,0.6789
3159.00,0.6773
3158.00,0.6756
3157.00,0.6740
3156.00,0.6724
3155.00,0.6709
3154.00,0.6694
3153.00,0.6680
3152.00,0.6666
3151.00,0.6652
3150.00,0.6638
3149.00,0.6624
3148.00,0.6609
3147.00,0.6595
3146.00,0.6581
3145.00,0.6568
3144.00,0.6556
3143.00,0.6543
3142.00,0.6531
3141.00,0.6518
3140.00,0.6506
3139.00,0.6494
3138.00,0.6483
3137.00,0.6472
3136.00,0.6460
3135.00,0.6448
3134.00,0.6437
3133.00,0.6428
3132.00,0.6419
3131.00,0.6410
3130.00,0.6402
3129.00,0.6393
3128.00,0.6385
3127.00,0.6377
3126.00,0.6369
3125.00,0.6361
3124.00,0.6353
3123.00,0.6346
3122.00,0.6338
3121.00,0.6331
3120.00,0.6324
3119.00,0.6318
3118.00,0.6312
3117.00,0.6308
3116.00,0.6303
3115.00,0.6299
3114.00,0.6296
3113.00,0.6294
3112.00,0.6292
3111.00,0.6290
3110.00,0.6289
3109.00,0.6288
3108.00,0.6287
3107.00,0.6287
3106.00,0.6287
3105.00,0.6288
3104.00,0.6289
3103.00,0.6292
3102.00,0.6295
3101.00,0.6298
3100.00,0.6301
3099.00,0.6304
3098.00,0.6308
3097.00,0.6313
3096.00,0.6318
3095.00,0.6322
3094.00,0.6326
3093.00,0.6329
3092.00,0.6333
3091.00,0.6337
3090.00,0.6342
3089.00,0.6348
3088.00,0.6355
3087.00,0.6362
3086.00,0.6370
3085.00,0.6379
3084.00,0.6388
3083.00,0.6398
3082.00,0.6409
3081.00,0.6421
3080.00,0.6434
3079.00,0.6449
3078.00,0.6464
3077.00,0.6481
3076.00,0.6500
3075.00,0.6521
3074.00,0.6542
3073.00,0.6565
3072.00,0.6589
3071.00,0.6616
3070.00,0.6644
3069.00,0.6673
3068.00,0.6704
3067.00,0.6735
3066.00,0.6767
3065.00,0.6798
3064.00,0.6828
3063.00,0.6858
3062.00,0.6889
3061.00,0.6920
3060.00,0.6950
3059.00,0.6979
3058.00,0.7008
3057.00,0.7036
3056.00,0.7063
3055.00,0.7089
3054.00,0.7114
3053.00,0.7139
3052.00,0.7163
3051.00,0.7187
3050.00,0.7210
3049.00,0.7233
3048.00,0.7254
3047.00,0.7276
3046.00,0.7299
3045.00,0.7325
3044.00,0.7354
3043.00,0.7384
3042.00,0.7417
3041.00,0.7451
3040.00,0.7488
3039.00,0.7527
3038.00,0.7567
3037.00,0.7609
3036.00,0.7652
3035.00,0.7697
3034.00,0.7742
3033.00,0.7789
3032.00,0.7836
3031.00,0.7885
3030.00,0.7935
3029.00,0.7987
3028.00,0.8041
3027.00,0.8096
3026.00,0.8154
3025.00,0.8213
3024.00,0.8275
3023.00,0.8339
3022.00,0.8406
3021.00,0.8475
3020.00,0.8547
3019.00,0.8623
3018.00,0.8704
3017.00,0.8790
3016.00,0.8880
3015.00,0.8975
3014.00,0.9074
3013.00,0.9177
3012.00,0.9286
3011.00,0.9403
3010.00,0.9527
3009.00,0.9660
3008.00,0.9799
3007.00,0.9946
3006.00,1.0100
3005.00,1.0262
3004.00,1.0431
3003.00,1.0608
3002.00,1.0796
3001.00,1.0996
3000.00,1.1207
2999.00,1.1433
2998.00,1.1674
2997.00,1.1932
2996.00,1.2205
2995.00,1.2496
2994.00,1.2809
2993.00,1.3149
2992.00,1.3520
2991.00,1.3924
2990.00,1.4365
2989.00,1.4848
2988.00,1.5375
2987.00,1.5949
2986.00,1.6579
2985.00,1.7269
2984.00,1.8024
2983.00,1.8851
2982.00,1.9762
2981.00,2.0769
2980.00,2.1887
2979.00,2.3126
2978.00,2.4495
2977.00,2.5997
2976.00,2.7633
2975.00,2.9400
2974.00,3.1264
2973.00,3.3091
2972.00,3.4681
2971.00,3.5992
2970.00,3.7093
2969.00,3.8117
2968.00,3.9369
2967.00,4.1264
2966.00,4.3348
2965.00,4.3226
2964.00,4.2550
2963.00,4.2322
2962.00,4.2304
2961.00,4.1333
2960.00,4.0644
2959.00,4.1334
2958.00,4.3745
2957.00,4.5260
2956.00,4.2988
2955.00,4.1308
2954.00,4.0902
2953.00,4.0516
2952.00,3.9512
2951.00,3.8853
2950.00,3.9289
2949.00,4.0914
2948.00,4.2008
2947.00,4.0716
2946.00,3.9815
2945.00,4.0957
2944.00,4.3510
2943.00,4.2794
2942.00,4.1515
2941.00,4.1255
2940.00,4.1682
2939.00,4.1306
2938.00,4.1623
2937.00,4.2074
2936.00,4.1900
2935.00,4.2644
2934.00,4.2834
2933.00,4.2244
2932.00,4.1925
2931.00,4.1457
2930.00,3.9977
2929.00,3.8619
2928.00,3.8844
2927.00,4.0913
2926.00,4.5559
2925.00,4.5989
2924.00,4.2973
2923.00,4.0634
2922.00,4.0205
2921.00,3.9724
2920.00,3.9297
2919.00,3.9791
2918.00,4.1383
2917.00,4.4135
2916.00,4.2966
2915.00,4.0515
2914.00,3.9259
2913.00,3.9847
2912.00,4.0842
2911.00,4.0881
2910.00,4.0392
2909.00,3.9684
2908.00,3.9107
2907.00,3.9186
2906.00,4.0157
2905.00,4.1532
2904.00,4.2646
2903.00,4.4167
2902.00,4.7528
2901.00,4.5349
2900.00,4.2769
2899.00,4.0577
2898.00,4.0385
2897.00,4.1115
2896.00,4.2395
2895.00,4.1683
2894.00,3.9231
2893.00,3.7669
2892.00,3.7455
2891.00,3.8727
2890.00,4.1917
2889.00,4.3479
2888.00,4.2664
2887.00,4.1952
2886.00,4.3123
2885.00,4.3898
2884.00,4.3771
2883.00,4.3967
2882.00,4.4294
2881.00,4.5206
2880.00,4.3259
2879.00,4.1713
2878.00,4.1044
2877.00,4.2627
2876.00,4.4472
2875.00,4.2291
2874.00,3.9915
2873.00,3.8830
2872.00,3.9901
2871.00,4.3168
2870.00,4.2981
2869.00,4.1001
2868.00,3.9709
2867.00,4.0470
2866.00,4.0967
2865.00,3.9724
2864.00,3.8118
2863.00,3.7218
2862.00,3.7523
2861.00,3.8562
2860.00,3.9183
2859.00,3.9109
2858.00,3.9379
2857.00,4.0864
2856.00,4.3360
2855.00,4.3769
2854.00,4.1501
2853.00,3.9386
2852.00,3.8282
2851.00,3.8128
2850.00,3.8873
2849.00,4.0334
2848.00,4.1681
2847.00,4.1633
2846.00,4.0699
2845.00,3.9827
2844.00,3.8891
2843.00,3.7556
2842.00,3.5630
2841.00,3.3212
2840.00,3.0644
2839.00,2.8247
2838.00,2.6140
2837.00,2.4328
2836.00,2.2794
2835.00,2.1499
2834.00,2.0391
2833.00,1.9420
2832.00,1.8558
2831.00,1.7790
2830.00,1.7104
2829.00,1.6485
2828.00,1.5919
2827.00,1.5400
2826.00,1.4920
2825.00,1.4474
2824.00,1.4060
2823.00,1.3672
2822.00,1.3309
2821.00,1.2967
2820.00,1.2644
2819.00,1.2340
2818.00,1.2055
2817.00,1.1785
2816.00,1.1531
2815.00,1.1290
2814.00,1.1062
2813.00,1.0847
2812.00,1.0642
2811.00,1.0448
2810.00,1.0263
2809.00,1.0086
2808.00,0.9915
2807.00,0.9750
2806.00,0.9590
2805.00,0.9437
2804.00,0.9290
2803.00,0.9149
2802.00,0.9012
2801.00,0.8879
2800.00,0.8749
2799.00,0.8624
2798.00,0.8505
2797.00,0.8390
2796.00,0.8279
2795.00,0.8171
2794.00,0.8068
2793.00,0.7969
2792.00,0.7875
2791.00,0.7785
2790.00,0.7698
2789.00,0.7612
2788.00,0.7528
2787.00,0.7445
2786.00,0.7362
2785.00,0.7279
2784.00,0.7196
2783.00,0.7113
2782.00,0.7031
2781.00,0.6951
2780.00,0.6874
2779.00,0.6799
2778.00,0.6727
2777.00,0.6659
2776.00,0.6594
2775.00,0.6535
2774.00,0.6481
2773.00,0.6431
2772.00,0.6383
2771.00,0.6338
2770.00,0.6295
2769.00,0.6256
2768.00,0.6220
2767.00,0.6188
2766.00,0.6159
2765.00,0.6133
2764.00,0.6109
2763.00,0.6087
2762.00,0.6067
2761.00,0.6050
2760.00,0.6034
2759.00,0.6021
2758.00,0.6009
2757.00,0.5999
2756.00,0.5991
2755.00,0.5985
2754.00,0.5980
2753.00,0.5977
2752.00,0.5976
2751.00,0.5975
2750.00,0.5977
2749.00,0.5979
2748.00,0.5983
2747.00,0.5988
2746.00,0.5995
2745.00,0.6003
2744.00,0.6014
2743.00,0.6026
2742.00,0.6040
2741.00,0.6057
2740.00,0.6077
2739.00,0.6100
2738.00,0.6128
2737.00,0.6159
2736.00,0.6195
2735.00,0.6234
2734.00,0.6275
2733.00,0.6314
2732.00,0.6345
2731.00,0.6364
2730.00,0.6366
2729.00,0.6349
2728.00,0.6315
2727.00,0.6268
2726.00,0.6213
2725.00,0.6156
2724.00,0.6101
2723.00,0.6051
2722.00,0.6009
2721.00,0.5973
2720.00,0.5944
2719.00,0.5919
2718.00,0.5897
2717.00,0.5875
2716.00,0.5853
2715.00,0.5829
2714.00,0.5804
2713.00,0.5777
2712.00,0.5751
2711.00,0.5727
2710.00,0.5704
2709.00,0.5683
2708.00,0.5665
2707.00,0.5650
2706.00,0.5638
2705.00,0.5630
2704.00,0.5625
2703.00,0.5622
2702.00,0.5623
2701.00,0.5627
2700.00,0.5636
2699.00,0.5648
2698.00,0.5664
2697.00,0.5683
2696.00,0.5704
2695.00,0.5728
2694.00,0.5753
2693.00,0.5780
2692.00,0.5809
2691.00,0.5838
2690.00,0.5865
2689.00,0.5891
2688.00,0.5914
2687.00,0.5935
2686.00,0.5952
2685.00,0.5967
2684.00,0.5978
2683.00,0.5986
2682.00,0.5991
2681.00,0.5995
2680.00,0.5998
2679.00,0.6000
2678.00,0.6001
2677.00,0.6002
2676.00,0.6002
2675.00,0.6001
2674.00,0.5999
2673.00,0.5995
2672.00,0.5988
2671.00,0.5978
2670.00,0.5966
2669.00,0.5950
2668.00,0.5929
2667.00,0.5905
2666.00,0.5877
2665.00,0.5847
2664.00,0.5816
2663.00,0.5785
2662.00,0.5755
2661.00,0.5727
2660.00,0.5699
2659.00,0.5672
2658.00,0.5646
2657.00,0.5622
2656.00,0.5601
2655.00,0.5582
2654.00,0.5563
2653.00,0.5545
2652.00,0.5528
2651.00,0.5512
2650.00,0.5496
2649.00,0.5481
2648.00,0.5466
2647.00,0.5451
2646.00,0.5436
2645.00,0.5422
2644.00,0.5408
2643.00,0.5395
2642.00,0.5383
2641.00,0.5371
2640.00,0.5359
2639.00,0.5347
2638.00,0.5335
2637.00,0.5323
2636.00,0.5311
2635.00,0.5300
2634.00,0.5289
2633.00,0.5279
2632.00,0.5269
2631.00,0.5259
2630.00,0.5250
2629.00,0.5241
2628.00,0.5233
2627.00,0.5224
2626.00,0.5216
2625.00,0.5208
2624.00,0.5201
2623.00,0.5193
2622.00,0.5184
2621.00,0.5176
2620.00,0.5168
2619.00,0.5159
2618.00,0.5150
2617.00,0.5141
2616.00,0.5131
2615.00,0.5120
2614.00,0.5109
2613.00,0.5097
2612.00,0.5085
2611.00,0.5073
2610.00,0.5060
2609.00,0.5046
2608.00,0.5031
2607.00,0.5016
2606.00,0.5001
2605.00,0.4986
2604.00,0.4971
2603.00,0.4956
2602.00,0.4942
2601.00,0.4927
2600.00,0.4911
2599.00,0.4896
2598.00,0.4881
2597.00,0.4866
2596.00,0.4851
2595.00,0.4836
2594.00,0.4821
2593.00,0.4807
2592.00,0.4792
2591.00,0.4777
2590.00,0.4762
2589.00,0.4747
2588.00,0.4732
2587.00,0.4717
2586.00,0.4701
2585.00,0.4685
2584.00,0.4669
2583.00,0.4653
2582.00,0.4636
2581.00,0.4620
2580.00,0.4605
2579.00,0.4589
2578.00,0.4572
2577.00,0.4556
2576.00,0.4540
2575.00,0.4523
2574.00,0.4507
2573.00,0.4491
2572.00,0.4476
2571.00,0.4460
2570.00,0.4445
2569.00,0.4429
2568.00,0.4414
2567.00,0.4399
2566.00,0.4384
2565.00,0.4370
2564.00,0.4357
2563.00,0.4344
2562.00,0.4332
2561.00,0.4320
2560.00,0.4310
2559.00,0.4299
2558.00,0.4290
2557.00,0.4282
2556.00,0.4274
2555.00,0.4267
2554.00,0.4260
2553.00,0.4254
2552.00,0.4248
2551.00,0.4244
2550.00,0.4239
2549.00,0.4235
2548.00,0.4231
2547.00,0.4227
2546.00,0.4223
2545.00,0.4220
2544.00,0.4216
2543.00,0.4212
2542.00,0.4208
2541.00,0.4204
2540.00,0.4200
2539.00,0.4196
2538.00,0.4191
2537.00,0.4186
2536.00,0.4181
2535.00,0.4176
2534.00,0.4171
2533.00,0.4165
2532.00,0.4158
2531.00,0.4149
2530.00,0.4140
2529.00,0.4130
2528.00,0.4120
2527.00,0.4108
2526.00,0.4096
2525.00,0.4084
2524.00,0.4072
2523.00,0.4060
2522.00,0.4048
2521.00,0.4036
2520.00,0.4024
2519.00,0.4012
2518.00,0.4001
2517.00,0.3989
2516.00,0.3978
2515.00,0.3967
2514.00,0.3956
2513.00,0.3946
2512.00,0.3936
2511.00,0.3926
2510.00,0.3917
2509.00,0.3908
2508.00,0.3900
2507.00,0.3892
2506.00,0.3884
2505.00,0.3876
2504.00,0.3869
2503.00,0.3862
2502.00,0.3854
2501.00,0.3848
2500.00,0.3841
2499.00,0.3835
2498.00,0.3829
2497.00,0.3824
2496.00,0.3819
2495.00,0.3814
2494.00,0.3809
2493.00,0.3804
2492.00,0.3799
2491.00,0.3794
2490.00,0.3789
2489.00,0.3785
2488.00,0.3781
2487.00,0.3776
2486.00,0.3772
2485.00,0.3767
2484.00,0.3762
2483.00,0.3757
2482.00,0.3752
2481.00,0.3748
2480.00,0.3745
2479.00,0.3741
2478.00,0.3738
2477.00,0.3734
2476.00,0.3730
2475.00,0.3726
2474.00,0.3722
2473.00,0.3718
2472.00,0.3715
2471.00,0.3711
2470.00,0.3708
2469.00,0.3704
2468.00,0.3700
2467.00,0.3697
2466.00,0.3693
2465.00,0.3690
2464.00,0.3687
2463.00,0.3684
2462.00,0.3681
2461.00,0.3679
2460.00,0.3676
2459.00,0.3674
2458.00,0.3672
2457.00,0.3671
2456.00,0.3670
2455.00,0.3669
2454.00,0.3668
2453.00,0.3668
2452.00,0.3667
2451.00,0.3666
2450.00,0.3666
2449.00,0.3665
2448.00,0.3665
2447.00,0.3665
2446.00,0.3665
2445.00,0.3666
2444.00,0.3666
2443.00,0.3666
2442.00,0.3667
2441.00,0.3667
2440.00,0.3668
2439.00,0.3669
2438.00,0.3670
2437.00,0.3670
2436.00,0.3671
2435.00,0.3671
2434.00,0.3672
2433.00,0.3673
2432.00,0.3674
2431.00,0.3674
2430.00,0.3674
2429.00,0.3675
2428.00,0.3675
2427.00,0.3676
2426.00,0.3677
2425.00,0.3679
2424.00,0.3680
2423.00,0.3682
2422.00,0.3683
2421.00,0.3685
2420.00,0.3687
2419.00,0.3690
2418.00,0.3692
2417.00,0.3694
2416.00,0.3696
2415.00,0.3697
2414.00,0.3700
2413.00,0.3702
2412.00,0.3705
2411.00,0.3707
2410.00,0.3709
2409.00,0.3711
2408.00,0.3712
2407.00,0.3713
2406.00,0.3714
2405.00,0.3715
2404.00,0.3715
2403.00,0.3715
2402.00,0.3714
2401.00,0.3713
2400.00,0.3712
2399.00,0.3712
2398.00,0.3710
2397.00,0.3709
2396.00,0.3707
2395.00,0.3705
2394.00,0.3703
2393.00,0.3701
2392.00,0.3699
2391.00,0.3696
2390.00,0.3694
2389.00,0.3692
2388.00,0.3690
2387.00,0.3688
2386.00,0.3686
2385.00,0.3685
2384.00,0.3684
2383.00,0.3684
2382.00,0.3683
2381.00,0.3684
2380.00,0.3685
2379.00,0.3687
2378.00,0.3689
2377.00,0.3693
2376.00,0.3696
2375.00,0.3699
2374.00,0.3702
2373.00,0.3703
2372.00,0.3704
2371.00,0.3705
2370.00,0.3705
2369.00,0.3706
2368.00,0.3706
2367.00,0.3706
2366.00,0.3706
2365.00,0.3707
2364.00,0.3709
2363.00,0.3709
2362.00,0.3709
2361.00,0.3710
2360.00,0.3711
2359.00,0.3712
2358.00,0.3713
2357.00,0.3714
2356.00,0.3714
2355.00,0.3714
2354.00,0.3713
2353.00,0.3713
2352.00,0.3713
2351.00,0.3714
2350.00,0.3716
2349.00,0.3717
2348.00,0.3717
2347.00,0.3714
2346.00,0.3711
2345.00,0.3711
2344.00,0.3715
2343.00,0.3720
2342.00,0.3724
2341.00,0.3725
2340.00,0.3723
2339.00,0.3721
2338.00,0.3718
2337.00,0.3716
2336.00,0.3714
2335.00,0.3711
2334.00,0.3707
2333.00,0.3704
2332.00,0.3700
2331.00,0.3696
2330.00,0.3694
2329.00,0.3692
2328.00,0.3692
2327.00,0.3690
2326.00,0.3687
2325.00,0.3684
2324.00,0.3681
2323.00,0.3678
2322.00,0.3676
2321.00,0.3674
2320.00,0.3673
2319.00,0.3670
2318.00,0.3667
2317.00,0.3663
2316.00,0.3659
2315.00,0.3654
2314.00,0.3650
2313.00,0.3646
2312.00,0.3644
2311.00,0.3642
2310.00,0.3640
2309.00,0.3637
2308.00,0.3634
2307.00,0.3630
2306.00,0.3626
2305.00,0.3622
2304.00,0.3618
2303.00,0.3614
2302.00,0.3609
2301.00,0.3605
2300.00,0.3601
2299.00,0.3597
2298.00,0.3594
2297.00,0.3590
2296.00,0.3586
2295.00,0.3582
2294.00,0.3577
2293.00,0.3573
2292.00,0.3568
2291.00,0.3564
2290.00,0.3559
2289.00,0.3555
2288.00,0.3551
2287.00,0.3546
2286.00,0.3542
2285.00,0.3539
2284.00,0.3535
2283.00,0.3532
2282.00,0.3528
2281.00,0.3524
2280.00,0.3521
2279.00,0.3517
2278.00,0.3514
2277.00,0.3511
2276.00,0.3509
2275.00,0.3507
2274.00,0.3506
2273.00,0.3504
2272.00,0.3503
2271.00,0.3501
2270.00,0.3499
2269.00,0.3498
2268.00,0.3496
2267.00,0.3495
2266.00,0.3493
2265.00,0.3491
2264.00,0.3489
2263.00,0.3488
2262.00,0.3485
2261.00,0.3483
2260.00,0.3480
2259.00,0.3477
2258.00,0.3474
2257.00,0.3471
2256.00,0.3468
2255.00,0.3465
2254.00,0.3462
2253.00,0.3459
2252.00,0.3457
2251.00,0.3454
2250.00,0.3452
2249.00,0.3450
2248.00,0.3447
2247.00,0.3445
2246.00,0.3443
2245.00,0.3441
2244.00,0.3438
2243.00,0.3436
2242.00,0.3433
2241.00,0.3432
2240.00,0.3430
2239.00,0.3429
2238.00,0.3427
2237.00,0.3426
2236.00,0.3425
2235.00,0.3423
2234.00,0.3421
2233.00,0.3420
2232.00,0.3419
2231.00,0.3418
2230.00,0.3417
2229.00,0.3416
2228.00,0.3415
2227.00,0.3414
2226.00,0.3413
2225.00,0.3412
2224.00,0.3412
2223.00,0.3411
2222.00,0.3410
2221.00,0.3409
2220.00,0.3408
2219.00,0.3408
2218.00,0.3408
2217.00,0.3407
2216.00,0.3407
2215.00,0.3406
2214.00,0.3405
2213.00,0.3404
2212.00,0.3403
2211.00,0.3402
2210.00,0.3400
2209.00,0.3399
2208.00,0.3399
2207.00,0.3398
2206.00,0.3397
2205.00,0.3396
2204.00,0.3395
2203.00,0.3395
2202.00,0.3394
2201.00,0.3394
2200.00,0.3394
2199.00,0.3394
2198.00,0.3394
2197.00,0.3395
2196.00,0.3396
2195.00,0.3397
2194.00,0.3398
2193.00,0.3399
2192.00,0.3400
2191.00,0.3401
2190.00,0.3401
2189.00,0.3402
2188.00,0.3403
2187.00,0.3404
2186.00,0.3404
2185.00,0.3405
2184.00,0.3405
2183.00,0.3405
2182.00,0.3404
2181.00,0.3404
2180.00,0.3403
2179.00,0.3401
2178.00,0.3400
2177.00,0.3399
2176.00,0.3397
2175.00,0.3396
2174.00,0.3394
2173.00,0.3392
2172.00,0.3390
2171.00,0.3389
2170.00,0.3388
2169.00,0.3387
2168.00,0.3386
2167.00,0.3385
2166.00,0.3384
2165.00,0.3383
2164.00,0.3383
2163.00,0.3383
2162.00,0.3382
2161.00,0.3383
2160.00,0.3383
2159.00,0.3384
2158.00,0.3384
2157.00,0.3385
2156.00,0.3385
2155.00,0.3386
2154.00,0.3386
2153.00,0.3386
2152.00,0.3385
2151.00,0.3384
2150.00,0.3382
2149.00,0.3379
2148.00,0.3375
2147.00,0.3371
2146.00,0.3365
2145.00,0.3359
2144.00,0.3354
2143.00,0.3348
2142.00,0.3342
2141.00,0.3336
2140.00,0.3331
2139.00,0.3327
2138.00,0.3322
2137.00,0.3318
2136.00,0.3314
2135.00,0.3311
2134.00,0.3308
2133.00,0.3306
2132.00,0.3304
2131.00,0.3301
2130.00,0.3299
2129.00,0.3297
2128.00,0.3296
2127.00,0.3294
2126.00,0.3293
2125.00,0.3291
2124.00,0.3290
2123.00,0.3288
2122.00,0.3286
2121.00,0.3284
2120.00,0.3283
2119.00,0.3282
2118.00,0.3281
2117.00,0.3280
2116.00,0.3279
2115.00,0.3279
2114.00,0.3278
2113.00,0.3277
2112.00,0.3276
2111.00,0.3275
2110.00,0.3274
2109.00,0.3273
2108.00,0.3273
2107.00,0.3272
2106.00,0.3270
2105.00,0.3270
2104.00,0.3270
2103.00,0.3269
2102.00,0.3269
2101.00,0.3270
2100.00,0.3270
2099.00,0.3270
2098.00,0.3270
2097.00,0.3271
2096.00,0.3271
2095.00,0.3271
2094.00,0.3271
2093.00,0.3272
2092.00,0.3274
2091.00,0.3274
2090.00,0.3275
2089.00,0.3276
2088.00,0.3277
2087.00,0.3277
2086.00,0.3277
2085.00,0.3278
2084.00,0.3278
2083.00,0.3279
2082.00,0.3279
2081.00,0.3280
2080.00,0.3282
2079.00,0.3284
2078.00,0.3285
2077.00,0.3286
2076.00,0.3288
2075.00,0.3289
2074.00,0.3291
2073.00,0.3294
2072.00,0.3297
2071.00,0.3301
2070.00,0.3304
2069.00,0.3308
2068.00,0.3312
2067.00,0.3317
2066.00,0.3322
2065.00,0.3327
2064.00,0.3332
2063.00,0.3335
2062.00,0.3338
2061.00,0.3340
2060.00,0.3343
2059.00,0.3345
2058.00,0.3348
2057.00,0.3351
2056.00,0.3355
2055.00,0.3359
2054.00,0.3363
2053.00,0.3367
2052.00,0.3372
2051.00,0.3375
2050.00,0.3379
2049.00,0.3382
2048.00,0.3386
2047.00,0.3388
2046.00,0.3389
2045.00,0.3389
2044.00,0.3388
2043.00,0.3386
2042.00,0.3384
2041.00,0.3382
2040.00,0.3380
2039.00,0.3379
2038.00,0.3378
2037.00,0.3378
2036.00,0.3378
2035.00,0.3379
2034.00,0.3379
2033.00,0.3380
2032.00,0.3382
2031.00,0.3383
2030.00,0.3385
2029.00,0.3386
2028.00,0.3388
2027.00,0.3389
2026.00,0.3389
2025.00,0.3388
2024.00,0.3387
2023.00,0.3384
2022.00,0.3380
2021.00,0.3373
2020.00,0.3366
2019.00,0.3358
2018.00,0.3349
2017.00,0.3340
2016.00,0.3330
2015.00,0.3318
2014.00,0.3305
2013.00,0.3294
2012.00,0.3284
2011.00,0.3275
2010.00,0.3267
2009.00,0.3260
2008.00,0.3253
2007.00,0.3246
2006.00,0.3240
2005.00,0.3234
2004.00,0.3230
2003.00,0.3225
2002.00,0.3221
2001.00,0.3218
2000.00,0.3216
1999.00,0.3213
1998.00,0.3211
1997.00,0.3208
1996.00,0.3206
1995.00,0.3204
1994.00,0.3201
1993.00,0.3201
1992.00,0.3202
1991.00,0.3203
1990.00,0.3202
1989.00,0.3202
1988.00,0.3202
1987.00,0.3203
1986.00,0.3203
1985.00,0.3203
1984.00,0.3205
1983.00,0.3206
1982.00,0.3208
1981.00,0.3210
1980.00,0.3212
1979.00,0.3213
1978.00,0.3214
1977.00,0.3216
1976.00,0.3217
1975.00,0.3217
1974.00,0.3217
1973.00,0.3218
1972.00,0.3218
1971.00,0.3218
1970.00,0.3218
1969.00,0.3218
1968.00,0.3219
1967.00,0.3221
1966.00,0.3222
1965.00,0.3222
1964.00,0.3223
1963.00,0.3223
1962.00,0.3223
1961.00,0.3224
1960.00,0.3225
1959.00,0.3226
1958.00,0.3226
1957.00,0.3227
1956.00,0.3228
1955.00,0.3229
1954.00,0.3231
1953.00,0.3233
1952.00,0.3235
1951.00,0.3237
1950.00,0.3239
1949.00,0.3240
1948.00,0.3242
1947.00,0.3243
1946.00,0.3243
1945.00,0.3244
1944.00,0.3246
1943.00,0.3250
1942.00,0.3255
1941.00,0.3259
1940.00,0.3261
1939.00,0.3261
1938.00,0.3261
1937.00,0.3262
1936.00,0.3263
1935.00,0.3264
1934.00,0.3264
1933.00,0.3265
1932.00,0.3265
1931.00,0.3266
1930.00,0.3266
1929.00,0.3266
1928.00,0.3267
1927.00,0.3268
1926.00,0.3267
1925.00,0.3267
1924.00,0.3269
1923.00,0.3272
1922.00,0.3273
1921.00,0.3271
1920.00,0.3268
1919.00,0.3267
1918.00,0.3270
1917.00,0.3274
1916.00,0.3277
1915.00,0.3277
1914.00,0.3277
1913.00,0.3276
1912.00,0.3275
1911.00,0.3275
1910.00,0.3275
1909.00,0.3276
1908.00,0.3278
1907.00,0.3279
1906.00,0.3281
1905.00,0.3283
1904.00,0.3285
1903.00,0.3288
1902.00,0.3290
1901.00,0.3292
1900.00,0.3293
1899.00,0.3294
1898.00,0.3294
1897.00,0.3295
1896.00,0.3296
1895.00,0.3297
1894.00,0.3297
1893.00,0.3296
1892.00,0.3294
1891.00,0.3293
1890.00,0.3295
1889.00,0.3299
1888.00,0.3302
1887.00,0.3304
1886.00,0.3304
1885.00,0.3305
1884.00,0.3306
1883.00,0.3307
1882.00,0.3307
1881.00,0.3307
1880.00,0.3307
1879.00,0.3307
1878.00,0.3306
1877.00,0.3307
1876.00,0.3307
1875.00,0.3307
1874.00,0.3307
1873.00,0.3305
1872.00,0.3302
1871.00,0.3298
1870.00,0.3297
1869.00,0.3300
1868.00,0.3306
1867.00,0.3312
1866.00,0.3316
1865.00,0.3319
1864.00,0.3321
1863.00,0.3323
1862.00,0.3324
1861.00,0.3326
1860.00,0.3328
1859.00,0.3330
1858.00,0.3331
1857.00,0.3333
1856.00,0.3335
1855.00,0.3337
1854.00,0.3338
1853.00,0.3340
1852.00,0.3341
1851.00,0.3343
1850.00,0.3344
1849.00,0.3346
1848.00,0.3347
1847.00,0.3343
1846.00,0.3339
1845.00,0.3339
1844.00,0.3346
1843.00,0.3355
1842.00,0.3358
1841.00,0.3357
1840.00,0.3353
1839.00,0.3351
1838.00,0.3349
1837.00,0.3349
1836.00,0.3349
1835.00,0.3349
1834.00,0.3347
1833.00,0.3341
1832.00,0.3334
1831.00,0.3329
1830.00,0.3329
1829.00,0.3333
1828.00,0.3336
1827.00,0.3337
1826.00,0.3338
1825.00,0.3342
1824.00,0.3348
1823.00,0.3351
1822.00,0.3351
1821.00,0.3352
1820.00,0.3353
1819.00,0.3354
1818.00,0.3356
1817.00,0.3359
1816.00,0.3362
1815.00,0.3364
1814.00,0.3365
1813.00,0.3368
1812.00,0.3372
1811.00,0.3379
1810.00,0.3388
1809.00,0.3400
1808.00,0.3414
1807.00,0.3430
1806.00,0.3448
1805.00,0.3468
1804.00,0.3490
1803.00,0.3511
1802.00,0.3528
1801.00,0.3540
1800.00,0.3547
1799.00,0.3551
1798.00,0.3554
1797.00,0.3556
1796.00,0.3555
1795.00,0.3551
1794.00,0.3548
1793.00,0.3552
1792.00,0.3564
1791.00,0.3579
1790.00,0.3591
1789.00,0.3600
1788.00,0.3609
1787.00,0.3622
1786.00,0.3641
1785.00,0.3666
1784.00,0.3692
1783.00,0.3717
1782.00,0.3744
1781.00,0.3776
1780.00,0.3812
1779.00,0.3847
1778.00,0.3876
1777.00,0.3901
1776.00,0.3920
1775.00,0.3933
1774.00,0.3942
1773.00,0.3952
1772.00,0.3961
1771.00,0.3966
1770.00,0.3968
1769.00,0.3970
1768.00,0.3971
1767.00,0.3968
1766.00,0.3959
1765.00,0.3945
1764.00,0.3930
1763.00,0.3915
1762.00,0.3903
1761.00,0.3892
1760.00,0.3877
1759.00,0.3859
1758.00,0.3839
1757.00,0.3822
1756.00,0.3807
1755.00,0.3792
1754.00,0.3777
1753.00,0.3767
1752.00,0.3763
1751.00,0.3760
1750.00,0.3758
1749.00,0.3759
1748.00,0.3763
1747.00,0.3770
1746.00,0.3779
1745.00,0.3789
1744.00,0.3796
1743.00,0.3798
1742.00,0.3796
1741.00,0.3793
1740.00,0.3795
1739.00,0.3800
1738.00,0.3802
1737.00,0.3800
1736.00,0.3801
1735.00,0.3810
1734.00,0.3830
1733.00,0.3853
1732.00,0.3863
1731.00,0.3863
1730.00,0.3866
1729.00,0.3877
1728.00,0.3892
1727.00,0.3906
1726.00,0.3920
1725.00,0.3936
1724.00,0.3955
1723.00,0.3972
1722.00,0.3983
1721.00,0.3988
1720.00,0.3995
1719.00,0.4012
1718.00,0.4044
1717.00,0.4085
1716.00,0.4123
1715.00,0.4151
1714.00,0.4177
1713.00,0.4205
1712.00,0.4235
1711.00,0.4265
1710.00,0.4295
1709.00,0.4323
1708.00,0.4348
1707.00,0.4373
1706.00,0.4403
1705.00,0.4437
1704.00,0.4463
1703.00,0.4475
1702.00,0.4483
1701.00,0.4497
1700.00,0.4521
1699.00,0.4544
1698.00,0.4554
1697.00,0.4559
1696.00,0.4565
1695.00,0.4568
1694.00,0.4561
1693.00,0.4543
1692.00,0.4524
1691.00,0.4509
1690.00,0.4498
1689.00,0.4488
1688.00,0.4475
1687.00,0.4462
1686.00,0.4451
1685.00,0.4445
1684.00,0.4452
1683.00,0.4463
1682.00,0.4471
1681.00,0.4480
1680.00,0.4492
1679.00,0.4502
1678.00,0.4509
1677.00,0.4522
1676.00,0.4548
1675.00,0.4586
1674.00,0.4625
1673.00,0.4656
1672.00,0.4681
1671.00,0.4711
1670.00,0.4753
1669.00,0.4809
1668.00,0.4860
1667.00,0.4890
1666.00,0.4899
1665.00,0.4896
1664.00,0.4889
1663.00,0.4887
1662.00,0.4893
1661.00,0.4907
1660.00,0.4922
1659.00,0.4935
1658.00,0.4945
1657.00,0.4953
1656.00,0.4964
1655.00,0.4986
1654.00,0.5039
1653.00,0.5141
1652.00,0.5245
1651.00,0.5295
1650.00,0.5303
1649.00,0.5310
1648.00,0.5335
1647.00,0.5375
1646.00,0.5416
1645.00,0.5449
1644.00,0.5467
1643.00,0.5473
1642.00,0.5479
1641.00,0.5494
1640.00,0.5514
1639.00,0.5532
1638.00,0.5549
1637.00,0.5579
1636.00,0.5628
1635.00,0.5689
1634.00,0.5746
1633.00,0.5795
1632.00,0.5836
1631.00,0.5875
1630.00,0.5918
1629.00,0.5977
1628.00,0.6055
1627.00,0.6143
1626.00,0.6241
1625.00,0.6361
1624.00,0.6524
1623.00,0.6735
1622.00,0.6977
1621.00,0.7232
1620.00,0.7500
1619.00,0.7803
1618.00,0.8192
1617.00,0.8712
1616.00,0.9315
1615.00,0.9865
1614.00,1.0293
1613.00,1.0628
1612.00,1.0888
1611.00,1.1033
1610.00,1.1038
1609.00,1.0941
1608.00,1.0796
1607.00,1.0629
1606.00,1.0461
1605.00,1.0317
1604.00,1.0197
1603.00,1.0070
1602.00,0.9910
1601.00,0.9717
1600.00,0.9499
1599.00,0.9259
1598.00,0.9012
1597.00,0.8783
1596.00,0.8585
1595.00,0.8419
1594.00,0.8285
1593.00,0.8182
1592.00,0.8102
1591.00,0.8033
1590.00,0.7969
1589.00,0.7918
1588.00,0.7889
1587.00,0.7886
1586.00,0.7918
1585.00,0.7994
1584.00,0.8110
1583.00,0.8257
1582.00,0.8427
1581.00,0.8610
1580.00,0.8792
1579.00,0.8961
1578.00,0.9123
1577.00,0.9291
1576.00,0.9457
1575.00,0.9587
1574.00,0.9673
1573.00,0.9742
1572.00,0.9822
1571.00,0.9924
1570.00,1.0050
1569.00,1.0190
1568.00,1.0313
1567.00,1.0391
1566.00,1.0423
1565.00,1.0427
1564.00,1.0412
1563.00,1.0372
1562.00,1.0310
1561.00,1.0230
1560.00,1.0123
1559.00,1.0005
1558.00,0.9926
1557.00,0.9909
1556.00,0.9928
1555.00,0.9966
1554.00,1.0022
1553.00,1.0094
1552.00,1.0177
1551.00,1.0268
1550.00,1.0369
1549.00,1.0473
1548.00,1.0571
1547.00,1.0659
1546.00,1.0745
1545.00,1.0844
1544.00,1.0952
1543.00,1.1058
1542.00,1.1170
1541.00,1.1330
1540.00,1.1555
1539.00,1.1787
1538.00,1.1962
1537.00,1.2081
1536.00,1.2176
1535.00,1.2268
1534.00,1.2364
1533.00,1.2462
1532.00,1.2534
1531.00,1.2556
1530.00,1.2529
1529.00,1.2475
1528.00,1.2402
1527.00,1.2305
1526.00,1.2185
1525.00,1.2067
1524.00,1.1964
1523.00,1.1865
1522.00,1.1764
1521.00,1.1680
1520.00,1.1621
1519.00,1.1564
1518.00,1.1492
1517.00,1.1402
1516.00,1.1279
1515.00,1.1104
1514.00,1.0877
1513.00,1.0609
1512.00,1.0319
1511.00,1.0031
1510.00,0.9769
1509.00,0.9540
1508.00,0.9335
1507.00,0.9149
1506.00,0.9018
1505.00,0.8976
1504.00,0.8992
1503.00,0.9030
1502.00,0.9079
1501.00,0.9136
1500.00,0.9187
1499.00,0.9209
1498.00,0.9185
1497.00,0.9119
1496.00,0.9027
1495.00,0.8930
1494.00,0.8852
1493.00,0.8814
1492.00,0.8825
1491.00,0.8886
1490.00,0.8997
1489.00,0.9157
1488.00,0.9350
1487.00,0.9556
1486.00,0.9763
1485.00,0.9971
1484.00,1.0181
1483.00,1.0397
1482.00,1.0639
1481.00,1.0935
1480.00,1.1295
1479.00,1.1724
1478.00,1.2261
1477.00,1.2972
1476.00,1.3888
1475.00,1.5015
1474.00,1.6449
1473.00,1.8450
1472.00,2.1271
1471.00,2.4876
1470.00,2.8908
1469.00,3.3129
1468.00,3.7939
1467.00,4.0429
1466.00,3.9942
1465.00,3.9823
1464.00,3.9567
1463.00,3.9709
1462.00,3.7642
1461.00,3.6403
1460.00,3.6233
1459.00,3.5961
1458.00,3.4866
1457.00,3.4165
1456.00,3.4004
1455.00,3.3203
1454.00,3.2060
1453.00,3.1052
1452.00,2.9915
1451.00,2.8503
1450.00,2.7073
1449.00,2.5769
1448.00,2.4533
1447.00,2.3381
1446.00,2.2392
1445.00,2.1565
1444.00,2.0821
1443.00,2.0111
1442.00,1.9450
1441.00,1.8860
1440.00,1.8319
1439.00,1.7769
1438.00,1.7148
1437.00,1.6442
1436.00,1.5733
1435.00,1.5111
1434.00,1.4568
1433.00,1.4053
1432.00,1.3539
1431.00,1.3038
1430.00,1.2579
1429.00,1.2184
1428.00,1.1868
1427.00,1.1625
1426.00,1.1434
1425.00,1.1277
1424.00,1.1152
1423.00,1.1064
1422.00,1.1004
1421.00,1.0958
1420.00,1.0918
1419.00,1.0884
1418.00,1.0856
1417.00,1.0832
1416.00,1.0815
1415.00,1.0809
1414.00,1.0810
1413.00,1.0817
1412.00,1.0825
1411.00,1.0828
1410.00,1.0812
1409.00,1.0770
1408.00,1.0700
1407.00,1.0603
1406.00,1.0478
1405.00,1.0328
1404.00,1.0168
1403.00,1.0014
1402.00,0.9868
1401.00,0.9725
1400.00,0.9581
1399.00,0.9447
1398.00,0.9331
1397.00,0.9232
1396.00,0.9145
1395.00,0.9066
1394.00,0.8997
1393.00,0.8947
1392.00,0.8931
1391.00,0.8962
1390.00,0.9059
1389.00,0.9255
1388.00,0.9605
1387.00,1.0148
1386.00,1.0881
1385.00,1.1780
1384.00,1.2857
1383.00,1.4139
1382.00,1.5610
1381.00,1.7210
1380.00,1.8843
1379.00,2.0183
1378.00,2.0529
1377.00,1.9611
1376.00,1.8037
1375.00,1.6410
1374.00,1.5027
1373.00,1.4002
1372.00,1.3315
1371.00,1.2875
1370.00,1.2597
1369.00,1.2428
1368.00,1.2327
1367.00,1.2238
1366.00,1.2090
1365.00,1.1833
1364.00,1.1460
1363.00,1.1011
1362.00,1.0562
1361.00,1.0179
1360.00,0.9882
1359.00,0.9658
1358.00,0.9488
1357.00,0.9362
1356.00,0.9275
1355.00,0.9219
1354.00,0.9183
1353.00,0.9151
1352.00,0.9110
1351.00,0.9045
1350.00,0.8953
1349.00,0.8845
1348.00,0.8741
1347.00,0.8663
1346.00,0.8623
1345.00,0.8623
1344.00,0.8653
1343.00,0.8692
1342.00,0.8708
1341.00,0.8675
1340.00,0.8580
1339.00,0.8433
1338.00,0.8261
1337.00,0.8094
1336.00,0.7953
1335.00,0.7845
1334.00,0.7767
1333.00,0.7711
1332.00,0.7674
1331.00,0.7652
1330.00,0.7645
1329.00,0.7651
1328.00,0.7666
1327.00,0.7685
1326.00,0.7702
1325.00,0.7713
1324.00,0.7722
1323.00,0.7733
1322.00,0.7754
1321.00,0.7786
1320.00,0.7834
1319.00,0.7898
1318.00,0.7975
1317.00,0.8060
1316.00,0.8149
1315.00,0.8242
1314.00,0.8339
1313.00,0.8435
1312.00,0.8530
1311.00,0.8620
1310.00,0.8700
1309.00,0.8768
1308.00,0.8822
1307.00,0.8860
1306.00,0.8881
1305.00,0.8884
1304.00,0.8871
1303.00,0.8843
1302.00,0.8800
1301.00,0.8741
1300.00,0.8667
1299.00,0.8578
1298.00,0.8477
1297.00,0.8368
1296.00,0.8259
1295.00,0.8154
1294.00,0.8055
1293.00,0.7966
1292.00,0.7889
1291.00,0.7827
1290.00,0.7778
1289.00,0.7741
1288.00,0.7716
1287.00,0.7701
1286.00,0.7698
1285.00,0.7710
1284.00,0.7741
1283.00,0.7793
1282.00,0.7865
1281.00,0.7956
1280.00,0.8064
1279.00,0.8182
1278.00,0.8296
1277.00,0.8389
1276.00,0.8450
1275.00,0.8472
1274.00,0.8455
1273.00,0.8406
1272.00,0.8335
1271.00,0.8251
1270.00,0.8163
1269.00,0.8075
1268.00,0.7994
1267.00,0.7921
1266.00,0.7857
1265.00,0.7802
1264.00,0.7757
1263.00,0.7722
1262.00,0.7697
1261.00,0.7679
1260.00,0.7669
1259.00,0.7668
1258.00,0.7673
1257.00,0.7683
1256.00,0.7695
1255.00,0.7706
1254.00,0.7712
1253.00,0.7710
1252.00,0.7701
1251.00,0.7685
1250.00,0.7662
1249.00,0.7634
1248.00,0.7603
1247.00,0.7569
1246.00,0.7530
1245.00,0.7486
1244.00,0.7435
1243.00,0.7381
1242.00,0.7324
1241.00,0.7265
1240.00,0.7209
1239.00,0.7160
1238.00,0.7118
1237.00,0.7083
1236.00,0.7054
1235.00,0.7031
1234.00,0.7013
1233.00,0.6995
1232.00,0.6974
1231.00,0.6951
1230.00,0.6922
1229.00,0.6887
1228.00,0.6845
1227.00,0.6799
1226.00,0.6747
1225.00,0.6692
1224.00,0.6638
1223.00,0.6588
1222.00,0.6542
1221.00,0.6501
1220.00,0.6465
1219.00,0.6434
1218.00,0.6409
1217.00,0.6388
1216.00,0.6370
1215.00,0.6356
1214.00,0.6343
1213.00,0.6331
1212.00,0.6322
1211.00,0.6315
1210.00,0.6310
1209.00,0.6302
1208.00,0.6294
1207.00,0.6287
1206.00,0.6281
1205.00,0.6275
1204.00,0.6269
1203.00,0.6263
1202.00,0.6259
1201.00,0.6258
1200.00,0.6262
1199.00,0.6274
1198.00,0.6294
1197.00,0.6323
1196.00,0.6364
1195.00,0.6419
1194.00,0.6486
1193.00,0.6563
1192.00,0.6645
1191.00,0.6721
1190.00,0.6778
1189.00,0.6808
1188.00,0.6813
1187.00,0.6805
1186.00,0.6796
1185.00,0.6793
1184.00,0.6802
1183.00,0.6823
1182.00,0.6851
1181.00,0.6882
1180.00,0.6915
1179.00,0.6951
1178.00,0.6990
1177.00,0.7033
1176.00,0.7082
1175.00,0.7139
1174.00,0.7201
1173.00,0.7261
1172.00,0.7316
1171.00,0.7363
1170.00,0.7399
1169.00,0.7420
1168.00,0.7428
1167.00,0.7429
1166.00,0.7423
1165.00,0.7415
1164.00,0.7406
1163.00,0.7397
1162.00,0.7390
1161.00,0.7386
1160.00,0.7389
1159.00,0.7402
1158.00,0.7427
1157.00,0.7462
1156.00,0.7506
1155.00,0.7557
1154.00,0.7609
1153.00,0.7660
1152.00,0.7712
1151.00,0.7768
1150.00,0.7828
1149.00,0.7891
1148.00,0.7957
1147.00,0.8027
1146.00,0.8105
1145.00,0.8191
1144.00,0.8288
1143.00,0.8398
1142.00,0.8521
1141.00,0.8658
1140.00,0.8814
1139.00,0.8995
1138.00,0.9205
1137.00,0.9449
1136.00,0.9732
1135.00,1.0060
1134.00,1.0435
1133.00,1.0856
1132.00,1.1311
1131.00,1.1773
1130.00,1.2200
1129.00,1.2557
1128.00,1.2830
1127.00,1.3029
1126.00,1.3180
1125.00,1.3318
1124.00,1.3473
1123.00,1.3662
1122.00,1.3888
1121.00,1.4147
1120.00,1.4421
1119.00,1.4677
1118.00,1.4885
1117.00,1.5036
1116.00,1.5139
1115.00,1.5201
1114.00,1.5231
1113.00,1.5240
1112.00,1.5245
1111.00,1.5259
1110.00,1.5295
1109.00,1.5360
1108.00,1.5452
1107.00,1.5566
1106.00,1.5705
1105.00,1.5882
1104.00,1.6097
1103.00,1.6335
1102.00,1.6589
1101.00,1.6874
1100.00,1.7204
1099.00,1.7572
1098.00,1.7967
1097.00,1.8396
1096.00,1.8861
1095.00,1.9334
1094.00,1.9786
1093.00,2.0235
1092.00,2.0705
1091.00,2.1168
1090.00,2.1581
1089.00,2.1950
1088.00,2.2300
1087.00,2.2587
1086.00,2.2752
1085.00,2.2814
1084.00,2.2825
1083.00,2.2799
1082.00,2.2736
1081.00,2.2657
1080.00,2.2535
1079.00,2.2299
1078.00,2.1946
1077.00,2.1562
1076.00,2.1202
1075.00,2.0838
1074.00,2.0439
1073.00,2.0029
1072.00,1.9634
1071.00,1.9264
1070.00,1.8937
1069.00,1.8692
1068.00,1.8547
1067.00,1.8494
1066.00,1.8531
1065.00,1.8691
1064.00,1.9023
1063.00,1.9544
1062.00,2.0256
1061.00,2.1169
1060.00,2.2294
1059.00,2.3599
1058.00,2.5051
1057.00,2.6728
1056.00,2.8784
1055.00,3.1216
1054.00,3.3652
1053.00,3.6117
1052.00,3.8692
1051.00,4.0848
1050.00,4.6138
1049.00,4.3942
1048.00,3.9247
1047.00,3.6566
1046.00,3.5649
1045.00,3.5727
1044.00,3.7174
1043.00,3.9648
1042.00,3.7576
1041.00,3.6660
1040.00,3.9204
1039.00,4.6619
1038.00,4.5828
1037.00,4.0762
1036.00,3.7293
1035.00,3.5971
1034.00,3.6955
1033.00,4.0279
1032.00,4.0668
1031.00,3.9217
1030.00,3.9520
1029.00,4.0558
1028.00,4.2593
1027.00,4.3237
1026.00,4.0297
1025.00,4.0152
1024.00,4.1429
1023.00,3.8662
1022.00,3.8786
1021.00,3.9549
1020.00,3.7778
1019.00,3.6582
1018.00,3.7082
1017.00,3.8862
1016.00,3.7931
1015.00,3.5991
1014.00,3.6410
1013.00,3.8947
1012.00,3.6808
1011.00,3.3960
1010.00,3.2273
1009.00,3.0808
1008.00,2.9325
1007.00,2.7702
1006.00,2.6019
1005.00,2.4431
1004.00,2.2969
1003.00,2.1591
1002.00,2.0285
1001.00,1.9078
1000.00,1.7990
999.00,1.7017
998.00,1.6148
997.00,1.5373
996.00,1.4671
995.00,1.4011
994.00,1.3370
993.00,1.2739
992.00,1.2128
991.00,1.1551
990.00,1.1025
989.00,1.0555
988.00,1.0141
987.00,0.9773
986.00,0.9444
985.00,0.9149
984.00,0.8884
983.00,0.8646
982.00,0.8432
981.00,0.8239
980.00,0.8067
979.00,0.7914
978.00,0.7780
977.00,0.7660
976.00,0.7551
975.00,0.7449
974.00,0.7354
973.00,0.7266
972.00,0.7188
971.00,0.7118
970.00,0.7053
969.00,0.6992
968.00,0.6934
967.00,0.6880
966.00,0.6832
965.00,0.6791
964.00,0.6758
963.00,0.6732
962.00,0.6707
961.00,0.6678
960.00,0.6642
959.00,0.6604
958.00,0.6569
957.00,0.6543
956.00,0.6529
955.00,0.6527
954.00,0.6533
953.00,0.6546
952.00,0.6560
951.00,0.6572
950.00,0.6583
949.00,0.6593
948.00,0.6606
947.00,0.6615
946.00,0.6615
945.00,0.6606
944.00,0.6596
943.00,0.6597
942.00,0.6614
941.00,0.6646
940.00,0.6690
939.00,0.6743
938.00,0.6805
937.00,0.6873
936.00,0.6948
935.00,0.7033
934.00,0.7125
933.00,0.7223
932.00,0.7326
931.00,0.7432
930.00,0.7543
929.00,0.7660
928.00,0.7786
927.00,0.7921
926.00,0.8061
925.00,0.8200
924.00,0.8328
923.00,0.8443
922.00,0.8542
921.00,0.8621
920.00,0.8677
919.00,0.8704
918.00,0.8700
917.00,0.8668
916.00,0.8614
915.00,0.8540
914.00,0.8443
913.00,0.8325
912.00,0.8186
911.00,0.8032
910.00,0.7870
909.00,0.7704
908.00,0.7544
907.00,0.7396
906.00,0.7263
905.00,0.7149
904.00,0.7057
903.00,0.6984
902.00,0.6930
901.00,0.6892
900.00,0.6873
899.00,0.6874
898.00,0.6892
897.00,0.6924
896.00,0.6969
895.00,0.7029
894.00,0.7101
893.00,0.7181
892.00,0.7261
891.00,0.7328
890.00,0.7373
889.00,0.7394
888.00,0.7392
887.00,0.7369
886.00,0.7327
885.00,0.7268
884.00,0.7196
883.00,0.7111
882.00,0.7018
881.00,0.6923
880.00,0.6840
879.00,0.6789
878.00,0.6791
877.00,0.6859
876.00,0.6974
875.00,0.7085
874.00,0.7117
873.00,0.7026
872.00,0.6831
871.00,0.6594
870.00,0.6369
869.00,0.6181
868.00,0.6033
867.00,0.5921
866.00,0.5837
865.00,0.5774
864.00,0.5727
863.00,0.5693
862.00,0.5669
861.00,0.5651
860.00,0.5638
859.00,0.5630
858.00,0.5624
857.00,0.5619
856.00,0.5617
855.00,0.5620
854.00,0.5626
853.00,0.5634
852.00,0.5643
851.00,0.5654
850.00,0.5667
849.00,0.5680
848.00,0.5690
847.00,0.5699
846.00,0.5702
845.00,0.5696
844.00,0.5680
843.00,0.5657
842.00,0.5633
841.00,0.5606
840.00,0.5574
839.00,0.5539
838.00,0.5503
837.00,0.5470
836.00,0.5441
835.00,0.5420
834.00,0.5404
833.00,0.5390
832.00,0.5376
831.00,0.5367
830.00,0.5372
829.00,0.5384
828.00,0.5389
827.00,0.5373
826.00,0.5345
825.00,0.5327
824.00,0.5333
823.00,0.5358
822.00,0.5381
821.00,0.5383
820.00,0.5355
819.00,0.5299
818.00,0.5224
817.00,0.5142
816.00,0.5067
815.00,0.5008
814.00,0.4968
813.00,0.4945
812.00,0.4935
811.00,0.4937
810.00,0.4949
809.00,0.4967
808.00,0.4993
807.00,0.5024
806.00,0.5062
805.00,0.5106
804.00,0.5155
803.00,0.5207
802.00,0.5258
801.00,0.5304
800.00,0.5343
799.00,0.5375
798.00,0.5399
797.00,0.5414
796.00,0.5420
795.00,0.5423
794.00,0.5427
793.00,0.5432
792.00,0.5437
791.00,0.5435
790.00,0.5424
789.00,0.5406
788.00,0.5389
787.00,0.5384
786.00,0.5399
785.00,0.5437
784.00,0.5493
783.00,0.5562
782.00,0.5639
781.00,0.5720
780.00,0.5799
779.00,0.5867
778.00,0.5913
777.00,0.5928
776.00,0.5918
775.00,0.5896
774.00,0.5872
773.00,0.5852
772.00,0.5828
771.00,0.5798
770.00,0.5760
769.00,0.5721
768.00,0.5688
767.00,0.5664
766.00,0.5650
765.00,0.5642
764.00,0.5639
763.00,0.5637
762.00,0.5634
761.00,0.5632
760.00,0.5636
759.00,0.5650
758.00,0.5675
757.00,0.5709
756.00,0.5750
755.00,0.5796
754.00,0.5847
753.00,0.5904
752.00,0.5965
751.00,0.6030
750.00,0.6099
749.00,0.6173
748.00,0.6256
747.00,0.6347
746.00,0.6445
745.00,0.6546
744.00,0.6649
743.00,0.6752
742.00,0.6853
741.00,0.6951
740.00,0.7047
739.00,0.7141
738.00,0.7237
737.00,0.7337
736.00,0.7450
735.00,0.7581
734.00,0.7734
733.00,0.7916
732.00,0.8132
731.00,0.8392
730.00,0.8702
729.00,0.9066
728.00,0.9490
727.00,0.9979
726.00,1.0533
725.00,1.1143
724.00,1.1771
723.00,1.2335
722.00,1.2697
721.00,1.2708
720.00,1.2322
719.00,1.1652
718.00,1.0864
717.00,1.0084
716.00,0.9379
715.00,0.8774
714.00,0.8262
713.00,0.7824
712.00,0.7443
711.00,0.7110
710.00,0.6819
709.00,0.6566
708.00,0.6348
707.00,0.6165
706.00,0.6017
705.00,0.5898
704.00,0.5801
703.00,0.5723
702.00,0.5661
701.00,0.5616
700.00,0.5589
699.00,0.5578
698.00,0.5576
697.00,0.5580
696.00,0.5587
695.00,0.5594
694.00,0.5597
693.00,0.5588
692.00,0.5567
691.00,0.5534
690.00,0.5489
689.00,0.5440
688.00,0.5396
687.00,0.5367
686.00,0.5355
685.00,0.5360
684.00,0.5383
683.00,0.5424
682.00,0.5486
681.00,0.5573
680.00,0.5688
679.00,0.5828
678.00,0.5975
677.00,0.6101
676.00,0.6183
675.00,0.6219
674.00,0.6225
673.00,0.6219
672.00,0.6214
671.00,0.6211
670.00,0.6204
669.00,0.6174
668.00,0.6115
667.00,0.6046
666.00,0.5997
665.00,0.5984
664.00,0.6009
663.00,0.6068
662.00,0.6151
661.00,0.6229
660.00,0.6263
659.00,0.6231
658.00,0.6144
657.00,0.6043
656.00,0.5961
655.00,0.5908
654.00,0.5879
653.00,0.5864
652.00,0.5862
651.00,0.5875
650.00,0.5909
649.00,0.5967
648.00,0.6058
647.00,0.6183
646.00,0.6326
645.00,0.6452
644.00,0.6525
643.00,0.6536
642.00,0.6506
641.00,0.6473
640.00,0.6463
639.00,0.6488
638.00,0.6545
637.00,0.6629
636.00,0.6740
635.00,0.6876
634.00,0.7036
633.00,0.7210
632.00,0.7389
631.00,0.7562
630.00,0.7718
629.00,0.7851
628.00,0.7959
627.00,0.8036
626.00,0.8079
625.00,0.8087
624.00,0.8068
623.00,0.8028
622.00,0.7978
621.00,0.7931
620.00,0.7891
619.00,0.7852
618.00,0.7795
617.00,0.7711
616.00,0.7606
615.00,0.7491
614.00,0.7380
613.00,0.7279
612.00,0.7190
611.00,0.7114
610.00,0.7053
609.00,0.7007
608.00,0.6975
607.00,0.6957
606.00,0.6951
605.00,0.6954
604.00,0.6962
603.00,0.6975
602.00,0.6989
601.00,0.7003
600.00,0.7020
599.00,0.7041
598.00,0.7070
597.00,0.7112
596.00,0.7175
595.00,0.7259
594.00,0.7352
593.00,0.7429
592.00,0.7465
591.00,0.7451
590.00,0.7403
589.00,0.7341
588.00,0.7286
587.00,0.7247
586.00,0.7232
585.00,0.7243
584.00,0.7275
583.00,0.7319
582.00,0.7361
581.00,0.7393
580.00,0.7414
579.00,0.7429
578.00,0.7447
577.00,0.7470
576.00,0.7496
575.00,0.7517
574.00,0.7532
573.00,0.7547
572.00,0.7569
571.00,0.7599
570.00,0.7633
569.00,0.7670
568.00,0.7715
567.00,0.7766
566.00,0.7819
565.00,0.7869
564.00,0.7920
563.00,0.7975
562.00,0.8034
561.00,0.8100
560.00,0.8172
559.00,0.8247
558.00,0.8321
557.00,0.8392
556.00,0.8470
555.00,0.8558
554.00,0.8655
553.00,0.8758
552.00,0.8871
551.00,0.8993
550.00,0.9118
